Data from MonoPyChalIsomerACN10uM350nmA_Absorbance_14-35-35-415.txt Node
Date: Fri Jul 05 14:35:35 BST 2024
User: LASERRRRR
Spectrometer: FLMT03099
Trigger mode: 0
Integration Time (sec): 1.000000E-1
Scans to average: 1
Electric dark correction enabled: true
Nonlinearity correction enabled: false
Boxcar width: 0
XAxis mode: Wavelengths
Number of Pixels in Spectrum: 3648
>>>>>Begin Spectral Data<<<<<
179.3399	-0.2213
179.5586	-0.2213
179.7771	-0.2213
179.9957	-0
180.2143	-0
180.4329	0.0786
180.6514	0.6496
180.8699	-0
181.0885	0.2986
181.307	0.3622
181.5255	-0.4536
181.744	-0.5803
181.9625	-0
182.181	-1.1957
182.3994	-0.0349
182.6179	0.3545
182.8363	0.6263
183.0547	-0.0666
183.2732	0.2145
183.4916	0.2066
183.71	0.2009
183.9284	0.2014
184.1467	-0.1046
184.3651	-0.0488
184.5835	-0.017
184.8018	0.0367
185.0201	-0.0183
185.2385	-0.0335
185.4568	0.1321
185.6751	-0.0534
185.8934	0.2363
186.1117	-0.0421
186.3299	0.1467
186.5482	0.1242
186.7664	0.1025
186.9847	0.092
187.2029	0.2053
187.4211	0.0509
187.6393	0.0339
187.8575	0.3202
188.0757	0.4057
188.2939	-0.0572
188.512	0.0013
188.7302	-0.0163
188.9483	0.0627
189.1665	0.1442
189.3846	-0.2925
189.6027	0.3086
189.8208	0.1752
190.0389	0.2392
190.257	0.0714
190.475	0.1866
190.6931	0.5044
190.9111	0.5138
191.1292	0.1272
191.3472	0.4794
191.5652	0.3108
191.7832	0.4091
192.0012	0.5897
192.2192	0.5444
192.4371	0.6508
192.6551	0.3494
192.873	0.511
193.091	0.2876
193.3089	0.5225
193.5268	1.2145
193.7447	0.4773
193.9626	0.4313
194.1805	0.7021
194.3984	1.1596
194.6162	0.6049
194.8341	0.5776
195.0519	0.6275
195.2697	0.7913
195.4875	0.6082
195.7054	0.5959
195.9231	0.5412
196.1409	0.5297
196.3587	0.807
196.5765	0.6991
196.7942	0.6579
197.012	0.495
197.2297	0.9203
197.4474	0.8473
197.6651	0.5055
197.8828	0.6549
198.1005	0.6431
198.3182	0.7076
198.5358	0.9405
198.7535	0.5233
198.9711	0.6174
199.1888	0.7593
199.4064	0.7394
199.624	0.6457
199.8416	0.6871
200.0592	0.787
200.2767	0.7294
200.4943	0.6527
200.7119	0.9563
200.9294	0.6914
201.1469	0.5717
201.3645	0.5571
201.582	0.6034
201.7995	0.6861
202.017	0.6991
202.2344	0.6022
202.4519	0.6219
202.6694	0.6093
202.8868	0.6259
203.1042	0.6913
203.3217	0.7176
203.5391	0.655
203.7565	0.5128
203.9739	0.677
204.1913	0.6162
204.4086	0.7333
204.626	0.7
204.8433	0.6467
205.0607	0.62
205.278	0.6565
205.4953	0.6863
205.7126	0.7153
205.9299	0.6913
206.1472	0.6986
206.3644	0.6204
206.5817	0.6491
206.7989	0.7434
207.0162	0.6621
207.2334	0.6634
207.4506	0.6424
207.6678	0.6257
207.885	0.76
208.1022	0.6632
208.3194	0.5997
208.5365	0.5848
208.7537	0.6818
208.9708	0.5599
209.1879	0.6835
209.405	0.6698
209.6222	0.6902
209.8392	0.6876
210.0563	0.5944
210.2734	0.6489
210.4905	0.6021
210.7075	0.6601
210.9245	0.6321
211.1416	0.6941
211.3586	0.6365
211.5756	0.5909
211.7926	0.5701
212.0096	0.5673
212.2265	0.5401
212.4435	0.5701
212.6604	0.5901
212.8774	0.6626
213.0943	0.6065
213.3112	0.5668
213.5281	0.5038
213.745	0.4641
213.9619	0.5096
214.1788	0.4707
214.3956	0.5142
214.6125	0.4677
214.8293	0.4371
215.0461	0.4582
215.2629	0.4819
215.4798	0.4794
215.6965	0.4528
215.9133	0.4676
216.1301	0.4527
216.3469	0.4406
216.5636	0.3857
216.7803	0.3538
216.9971	0.4012
217.2138	0.3828
217.4305	0.3686
217.6472	0.3669
217.8639	0.4098
218.0805	0.3603
218.2972	0.3184
218.5138	0.3054
218.7305	0.3353
218.9471	0.31
219.1637	0.2873
219.3803	0.2958
219.5969	0.2882
219.8135	0.2375
220.0301	0.285
220.2466	0.2869
220.4632	0.2616
220.6797	0.2525
220.8962	0.2537
221.1127	0.248
221.3292	0.2434
221.5457	0.2349
221.7622	0.2429
221.9787	0.2665
222.1951	0.2319
222.4116	0.2594
222.628	0.2636
222.8444	0.2537
223.0608	0.2548
223.2772	0.265
223.4936	0.2755
223.71	0.2453
223.9264	0.2536
224.1427	0.2563
224.3591	0.2481
224.5754	0.2651
224.7917	0.2823
225.008	0.248
225.2243	0.2656
225.4406	0.2824
225.6569	0.2665
225.8732	0.2498
226.0894	0.2551
226.3057	0.2689
226.5219	0.3012
226.7381	0.2752
226.9543	0.2796
227.1705	0.2942
227.3867	0.2696
227.6029	0.299
227.8191	0.2839
228.0352	0.3081
228.2513	0.3115
228.4675	0.2955
228.6836	0.2848
228.8997	0.3016
229.1158	0.322
229.3319	0.3157
229.548	0.3141
229.764	0.325
229.9801	0.3234
230.1961	0.3387
230.4121	0.3248
230.6282	0.328
230.8442	0.3246
231.0602	0.3613
231.2761	0.3514
231.4921	0.3401
231.7081	0.3697
231.924	0.3458
232.14	0.3748
232.3559	0.346
232.5718	0.365
232.7877	0.3405
233.0036	0.3451
233.2195	0.3581
233.4353	0.3585
233.6512	0.3789
233.867	0.3749
234.0829	0.3735
234.2987	0.3764
234.5145	0.36
234.7303	0.374
234.9461	0.4038
235.1619	0.3843
235.3776	0.3721
235.5934	0.3923
235.8091	0.3663
236.0249	0.3779
236.2406	0.385
236.4563	0.3697
236.672	0.3947
236.8877	0.3995
237.1034	0.3929
237.319	0.4017
237.5347	0.3961
237.7503	0.4022
237.966	0.4019
238.1816	0.408
238.3972	0.4221
238.6128	0.3835
238.8284	0.4044
239.0439	0.4143
239.2595	0.3979
239.475	0.424
239.6906	0.4135
239.9061	0.4168
240.1216	0.3935
240.3371	0.4
240.5526	0.3966
240.7681	0.4219
240.9836	0.3961
241.199	0.3937
241.4145	0.3904
241.6299	0.3757
241.8453	0.372
242.0607	0.3763
242.2761	0.3706
242.4915	0.3573
242.7069	0.368
242.9223	0.364
243.1376	0.3497
243.353	0.3358
243.5683	0.3584
243.7836	0.3372
243.9989	0.3243
244.2142	0.2991
244.4295	0.3277
244.6448	0.2994
244.86	0.3123
245.0753	0.2807
245.2905	0.2882
245.5057	0.2826
245.721	0.2861
245.9362	0.2747
246.1514	0.2733
246.3665	0.2647
246.5817	0.258
246.7969	0.2618
247.012	0.2499
247.2271	0.2393
247.4423	0.2591
247.6574	0.2475
247.8725	0.223
248.0876	0.2169
248.3026	0.2293
248.5177	0.2332
248.7328	0.2067
248.9478	0.2093
249.1628	0.2084
249.3779	0.2167
249.5929	0.1996
249.8079	0.22
250.0228	0.1997
250.2378	0.2044
250.4528	0.2091
250.6677	0.1773
250.8827	0.1902
251.0976	0.1978
251.3125	0.189
251.5274	0.176
251.7423	0.1748
251.9572	0.1859
252.172	0.1732
252.3869	0.1894
252.6017	0.1697
252.8166	0.1765
253.0314	0.1754
253.2462	0.1684
253.461	0.1813
253.6758	0.1746
253.8906	0.1817
254.1053	0.1727
254.3201	0.1787
254.5348	0.1847
254.7496	0.1867
254.9643	0.1637
255.179	0.182
255.3937	0.173
255.6083	0.1776
255.823	0.1805
256.0377	0.1655
256.2523	0.17
256.467	0.1595
256.6816	0.1835
256.8962	0.1614
257.1108	0.1569
257.3254	0.1783
257.54	0.1714
257.7545	0.1685
257.9691	0.1717
258.1836	0.1559
258.3981	0.1772
258.6127	0.1739
258.8272	0.1777
259.0417	0.1668
259.2561	0.1607
259.4706	0.1691
259.6851	0.1673
259.8995	0.1592
260.114	0.1642
260.3284	0.154
260.5428	0.1556
260.7572	0.1654
260.9716	0.1825
261.186	0.1594
261.4003	0.1677
261.6147	0.1695
261.829	0.1686
262.0433	0.1683
262.2577	0.1645
262.472	0.1716
262.6863	0.1613
262.9005	0.1676
263.1148	0.1707
263.3291	0.1576
263.5433	0.1721
263.7576	0.1629
263.9718	0.1797
264.186	0.1562
264.4002	0.1713
264.6144	0.1672
264.8286	0.1705
265.0427	0.1642
265.2569	0.1596
265.471	0.1551
265.6851	0.158
265.8993	0.1603
266.1134	0.1598
266.3275	0.1627
266.5415	0.1616
266.7556	0.1726
266.9697	0.1655
267.1837	0.1603
267.3978	0.1653
267.6118	0.1596
267.8258	0.174
268.0398	0.1566
268.2538	0.1606
268.4677	0.1591
268.6817	0.1555
268.8957	0.1662
269.1096	0.1651
269.3235	0.1584
269.5374	0.1462
269.7514	0.16
269.9652	0.1572
270.1791	0.1422
270.393	0.1424
270.6068	0.1594
270.8207	0.1532
271.0345	0.1507
271.2483	0.1509
271.4622	0.1508
271.676	0.1561
271.8897	0.1388
272.1035	0.1371
272.3173	0.1466
272.531	0.1585
272.7448	0.1536
272.9585	0.1485
273.1722	0.1404
273.3859	0.1534
273.5996	0.1445
273.8133	0.158
274.0269	0.1475
274.2406	0.1437
274.4542	0.1378
274.6679	0.1379
274.8815	0.1615
275.0951	0.1593
275.3087	0.149
275.5223	0.1481
275.7358	0.1512
275.9494	0.1456
276.1629	0.1427
276.3765	0.1391
276.59	0.1515
276.8035	0.1528
277.017	0.1393
277.2305	0.1511
277.444	0.1532
277.6574	0.1478
277.8709	0.1494
278.0843	0.1355
278.2978	0.1457
278.5112	0.1435
278.7246	0.1561
278.938	0.1464
279.1513	0.1633
279.3647	0.1558
279.5781	0.1483
279.7914	0.1488
280.0047	0.1601
280.2181	0.1507
280.4314	0.1583
280.6447	0.1557
280.8579	0.1453
281.0712	0.154
281.2845	0.1495
281.4977	0.157
281.711	0.1525
281.9242	0.1635
282.1374	0.1539
282.3506	0.1621
282.5638	0.1487
282.7769	0.1641
282.9901	0.1562
283.2033	0.1609
283.4164	0.1708
283.6295	0.1474
283.8426	0.1477
284.0557	0.1465
284.2688	0.165
284.4819	0.1653
284.695	0.1557
284.908	0.1698
285.1211	0.156
285.3341	0.1657
285.5471	0.1568
285.7601	0.1769
285.9731	0.1548
286.1861	0.1474
286.3991	0.1732
286.612	0.1684
286.825	0.1609
287.0379	0.1703
287.2508	0.1668
287.4637	0.1592
287.6766	0.1596
287.8895	0.1629
288.1024	0.1783
288.3152	0.167
288.5281	0.1647
288.7409	0.1639
288.9538	0.1628
289.1666	0.1627
289.3794	0.178
289.5922	0.163
289.8049	0.1664
290.0177	0.1597
290.2304	0.166
290.4432	0.174
290.6559	0.1773
290.8686	0.1754
291.0813	0.1593
291.294	0.1757
291.5067	0.1741
291.7194	0.1636
291.932	0.183
292.1447	0.18
292.3573	0.1574
292.5699	0.1541
292.7825	0.1744
292.9951	0.1617
293.2077	0.1732
293.4203	0.1654
293.6328	0.1578
293.8454	0.1711
294.0579	0.1733
294.2704	0.1653
294.4829	0.1608
294.6954	0.1628
294.9079	0.1661
295.1204	0.17
295.3328	0.1672
295.5453	0.1676
295.7577	0.1737
295.9701	0.1505
296.1825	0.1609
296.3949	0.1716
296.6073	0.1711
296.8197	0.1547
297.0321	0.1761
297.2444	0.1554
297.4567	0.1703
297.6691	0.1686
297.8814	0.1643
298.0937	0.1671
298.306	0.1782
298.5182	0.1676
298.7305	0.1857
298.9428	0.1608
299.155	0.1709
299.3672	0.1606
299.5794	0.1547
299.7916	0.1627
300.0038	0.1708
300.216	0.1621
300.4282	0.1798
300.6403	0.168
300.8525	0.172
301.0646	0.1648
301.2767	0.1688
301.4888	0.1616
301.7009	0.1555
301.913	0.1716
302.125	0.1742
302.3371	0.1666
302.5491	0.1679
302.7612	0.1783
302.9732	0.1673
303.1852	0.1827
303.3972	0.1643
303.6092	0.1682
303.8211	0.1511
304.0331	0.1543
304.245	0.156
304.457	0.1583
304.6689	0.1676
304.8808	0.1723
305.0927	0.1578
305.3046	0.1611
305.5164	0.1571
305.7283	0.1496
305.9401	0.1526
306.152	0.1513
306.3638	0.1568
306.5756	0.1531
306.7874	0.1478
306.9992	0.1567
307.2109	0.1582
307.4227	0.1284
307.6344	0.1401
307.8462	0.136
308.0579	0.136
308.2696	0.1461
308.4813	0.1408
308.693	0.1433
308.9046	0.1472
309.1163	0.1314
309.328	0.1269
309.5396	0.1318
309.7512	0.1294
309.9628	0.1308
310.1744	0.1181
310.386	0.1196
310.5976	0.1242
310.8091	0.1278
311.0207	0.1157
311.2322	0.1229
311.4437	0.1182
311.6552	0.1182
311.8667	0.1171
312.0782	0.0976
312.2897	0.1033
312.5012	0.1154
312.7126	0.1062
312.924	0.0993
313.1355	0.1135
313.3469	0.1065
313.5583	0.1127
313.7696	0.1118
313.981	0.1113
314.1924	0.1058
314.4037	0.1093
314.6151	0.1138
314.8264	0.0949
315.0377	0.1052
315.249	0.1118
315.4603	0.1121
315.6716	0.1033
315.8828	0.1002
316.0941	0.1076
316.3053	0.1007
316.5165	0.0987
316.7277	0.0955
316.9389	0.1209
317.1501	0.0987
317.3613	0.1121
317.5724	0.1008
317.7836	0.0961
317.9947	0.0907
318.2058	0.0989
318.417	0.0892
318.6281	0.0981
318.8391	0.0952
319.0502	0.0894
319.2613	0.1046
319.4723	0.099
319.6834	0.1055
319.8944	0.0867
320.1054	0.1038
320.3164	0.0963
320.5274	0.0928
320.7383	0.1004
320.9493	0.1007
321.1602	0.1193
321.3712	0.0882
321.5821	0.0952
321.793	0.0923
322.0039	0.106
322.2148	0.1028
322.4257	0.1055
322.6365	0.1195
322.8474	0.1095
323.0582	0.0977
323.269	0.1031
323.4798	0.1159
323.6906	0.094
323.9014	0.1074
324.1122	0.1026
324.3229	0.0955
324.5337	0.1041
324.7444	0.085
324.9551	0.1269
325.1658	0.104
325.3765	0.1113
325.5872	0.0982
325.7979	0.105
326.0085	0.1058
326.2192	0.1088
326.4298	0.0986
326.6404	0.1016
326.851	0.0969
327.0616	0.1027
327.2722	0.1084
327.4828	0.1199
327.6933	0.0871
327.9039	0.1144
328.1144	0.1084
328.3249	0.1235
328.5354	0.0935
328.7459	0.0976
328.9564	0.1071
329.1669	0.1099
329.3773	0.1052
329.5878	0.0988
329.7982	0.1028
330.0086	0.1075
330.219	0.1151
330.4294	0.112
330.6398	0.1088
330.8502	0.0912
331.0605	0.1098
331.2708	0.1105
331.4812	0.1209
331.6915	0.1051
331.9018	0.1151
332.1121	0.1008
332.3224	0.109
332.5326	0.1127
332.7429	0.1094
332.9531	0.1208
333.1633	0.1108
333.3735	0.1202
333.5837	0.1125
333.7939	0.0997
334.0041	0.1214
334.2143	0.106
334.4244	0.112
334.6346	0.0995
334.8447	0.1191
335.0548	0.1063
335.2649	0.1058
335.475	0.1138
335.685	0.1024
335.8951	0.1199
336.1051	0.1045
336.3152	0.1147
336.5252	0.1198
336.7352	0.1249
336.9452	0.1201
337.1552	0.1162
337.3652	0.1051
337.5751	0.1134
337.7851	0.1089
337.995	0.106
338.2049	0.1212
338.4148	0.1081
338.6247	0.1226
338.8346	0.1085
339.0445	0.1161
339.2543	0.1143
339.4642	0.1134
339.674	0.1081
339.8838	0.1207
340.0936	0.1249
340.3034	0.1242
340.5132	0.1253
340.7229	0.1271
340.9327	0.1098
341.1424	0.1184
341.3522	0.1317
341.5619	0.1216
341.7716	0.118
341.9813	0.1353
342.1909	0.1225
342.4006	0.1367
342.6102	0.1314
342.8199	0.1258
343.0295	0.1237
343.2391	0.1394
343.4487	0.1414
343.6583	0.1138
343.8679	0.124
344.0774	0.124
344.287	0.1313
344.4965	0.1253
344.706	0.1255
344.9155	0.1328
345.125	0.1271
345.3345	0.1285
345.544	0.1247
345.7534	0.1368
345.9629	0.1293
346.1723	0.1182
346.3817	0.121
346.5911	0.1309
346.8005	0.1357
347.0099	0.1203
347.2193	0.1336
347.4286	0.1213
347.638	0.1466
347.8473	0.1511
348.0566	0.1428
348.2659	0.1426
348.4752	0.1333
348.6845	0.1357
348.8937	0.131
349.103	0.144
349.3122	0.1344
349.5214	0.1301
349.7306	0.1451
349.9398	0.1362
350.149	0.1324
350.3582	0.1387
350.5674	0.1436
350.7765	0.1464
350.9856	0.1371
351.1948	0.159
351.4039	0.1468
351.613	0.1378
351.822	0.1423
352.0311	0.1423
352.2402	0.1482
352.4492	0.1497
352.6582	0.157
352.8672	0.1432
353.0762	0.1523
353.2852	0.1538
353.4942	0.13
353.7032	0.1535
353.9121	0.1488
354.1211	0.1477
354.33	0.1662
354.5389	0.1538
354.7478	0.1545
354.9567	0.15
355.1655	0.14
355.3744	0.1659
355.5833	0.1655
355.7921	0.157
356.0009	0.1633
356.2097	0.1701
356.4185	0.1789
356.6273	0.1692
356.8361	0.1682
357.0448	0.1567
357.2536	0.1509
357.4623	0.1565
357.671	0.1723
357.8797	0.1674
358.0884	0.1648
358.2971	0.1619
358.5057	0.1845
358.7144	0.1758
358.923	0.1755
359.1316	0.1734
359.3402	0.1805
359.5488	0.1698
359.7574	0.1558
359.966	0.1823
360.1746	0.1835
360.3831	0.1792
360.5916	0.1766
360.8002	0.176
361.0087	0.1827
361.2172	0.1659
361.4256	0.1766
361.6341	0.175
361.8426	0.1798
362.051	0.1768
362.2594	0.1917
362.4678	0.1828
362.6762	0.2042
362.8846	0.2008
363.093	0.1855
363.3014	0.1962
363.5097	0.1706
363.718	0.1924
363.9264	0.1958
364.1347	0.1894
364.343	0.1975
364.5513	0.2056
364.7595	0.2179
364.9678	0.2026
365.176	0.1837
365.3842	0.1926
365.5925	0.1832
365.8007	0.2007
366.0089	0.1977
366.217	0.188
366.4252	0.2182
366.6333	0.2056
366.8415	0.2083
367.0496	0.1875
367.2577	0.2089
367.4658	0.2308
367.6739	0.2236
367.882	0.2087
368.09	0.2154
368.2981	0.2188
368.5061	0.2035
368.7141	0.2065
368.9221	0.2112
369.1301	0.2157
369.3381	0.2057
369.5461	0.223
369.754	0.2225
369.962	0.2064
370.1699	0.2201
370.3778	0.232
370.5857	0.2056
370.7936	0.2286
371.0015	0.2048
371.2093	0.2366
371.4172	0.2211
371.625	0.1998
371.8328	0.2125
372.0406	0.2303
372.2484	0.226
372.4562	0.2268
372.664	0.2367
372.8717	0.2362
373.0795	0.2058
373.2872	0.2257
373.4949	0.224
373.7026	0.2253
373.9103	0.2402
374.118	0.2268
374.3256	0.2345
374.5333	0.2178
374.7409	0.2285
374.9485	0.2576
375.1561	0.243
375.3637	0.2366
375.5713	0.2496
375.7789	0.236
375.9864	0.237
376.194	0.2227
376.4015	0.241
376.609	0.2503
376.8165	0.2449
377.024	0.2433
377.2315	0.2467
377.4389	0.2529
377.6464	0.2549
377.8538	0.256
378.0612	0.2504
378.2686	0.2557
378.476	0.2669
378.6834	0.2495
378.8908	0.2639
379.0981	0.2491
379.3055	0.2382
379.5128	0.2317
379.7201	0.2505
379.9274	0.2279
380.1347	0.2633
380.342	0.2575
380.5492	0.2487
380.7565	0.2603
380.9637	0.2593
381.1709	0.2698
381.3781	0.2584
381.5853	0.2651
381.7925	0.2618
381.9997	0.2598
382.2068	0.2762
382.4139	0.2613
382.6211	0.2315
382.8282	0.2713
383.0353	0.2633
383.2424	0.253
383.4494	0.2761
383.6565	0.2731
383.8635	0.2845
384.0706	0.2596
384.2776	0.2704
384.4846	0.2647
384.6916	0.2773
384.8986	0.2489
385.1055	0.2667
385.3125	0.2675
385.5194	0.253
385.7263	0.2709
385.9333	0.2632
386.1402	0.2538
386.347	0.2631
386.5539	0.2467
386.7608	0.2809
386.9676	0.2611
387.1744	0.2603
387.3813	0.2487
387.5881	0.2637
387.7948	0.2491
388.0016	0.2564
388.2084	0.2554
388.4151	0.2656
388.6219	0.2811
388.8286	0.2514
389.0353	0.2733
389.242	0.2654
389.4487	0.2378
389.6553	0.2467
389.862	0.2349
390.0686	0.2657
390.2753	0.2619
390.4819	0.2558
390.6885	0.2625
390.8951	0.2429
391.1016	0.2382
391.3082	0.2326
391.5147	0.2527
391.7213	0.244
391.9278	0.2425
392.1343	0.2306
392.3408	0.2343
392.5473	0.2459
392.7537	0.2332
392.9602	0.2389
393.1666	0.2346
393.373	0.2342
393.5794	0.2347
393.7858	0.2403
393.9922	0.2092
394.1986	0.2383
394.4049	0.2474
394.6113	0.2246
394.8176	0.2158
395.0239	0.2131
395.2302	0.2408
395.4365	0.2229
395.6428	0.2275
395.8491	0.2136
396.0553	0.2168
396.2615	0.239
396.4678	0.2052
396.674	0.2214
396.8802	0.227
397.0863	0.2354
397.2925	0.2078
397.4987	0.224
397.7048	0.231
397.9109	0.2133
398.117	0.221
398.3231	0.2259
398.5292	0.2325
398.7353	0.2338
398.9413	0.2233
399.1474	0.2077
399.3534	0.2121
399.5594	0.1951
399.7654	0.2381
399.9714	0.2426
400.1774	0.2163
400.3833	0.2322
400.5893	0.2216
400.7952	0.2116
401.0011	0.2021
401.207	0.2132
401.4129	0.2195
401.6188	0.2293
401.8247	0.2151
402.0305	0.2159
402.2364	0.1978
402.4422	0.2193
402.648	0.2324
402.8538	0.2296
403.0596	0.2303
403.2654	0.2249
403.4711	0.2186
403.6768	0.232
403.8826	0.2211
404.0883	0.228
404.294	0.2204
404.4997	0.2176
404.7054	0.2184
404.911	0.2288
405.1167	0.2361
405.3223	0.227
405.5279	0.2291
405.7335	0.2317
405.9391	0.2216
406.1447	0.23
406.3502	0.2616
406.5558	0.2284
406.7613	0.2234
406.9668	0.2382
407.1724	0.2095
407.3778	0.2153
407.5833	0.2282
407.7888	0.232
407.9942	0.2234
408.1997	0.2249
408.4051	0.2143
408.6105	0.2426
408.8159	0.1995
409.0213	0.2301
409.2267	0.2242
409.432	0.2014
409.6374	0.241
409.8427	0.1919
410.048	0.2261
410.2533	0.2139
410.4586	0.218
410.6639	0.2044
410.8691	0.2171
411.0744	0.2041
411.2796	0.1969
411.4848	0.2021
411.69	0.2103
411.8952	0.2306
412.1004	0.1976
412.3056	0.2331
412.5107	0.208
412.7158	0.2398
412.921	0.2168
413.1261	0.2128
413.3312	0.2068
413.5362	0.2079
413.7413	0.2099
413.9464	0.2144
414.1514	0.2124
414.3564	0.2132
414.5614	0.2081
414.7664	0.2213
414.9714	0.229
415.1764	0.2168
415.3813	0.2224
415.5863	0.2137
415.7912	0.22
415.9961	0.222
416.201	0.1991
416.4059	0.2125
416.6108	0.1887
416.8156	0.2166
417.0205	0.1922
417.2253	0.1963
417.4301	0.2143
417.6349	0.1996
417.8397	0.1875
418.0445	0.2079
418.2492	0.2212
418.454	0.2248
418.6587	0.1924
418.8634	0.2051
419.0681	0.1822
419.2728	0.1974
419.4775	0.2003
419.6822	0.1849
419.8868	0.1834
420.0915	0.2071
420.2961	0.1968
420.5007	0.1951
420.7053	0.2098
420.9099	0.2094
421.1144	0.2019
421.319	0.1878
421.5235	0.2159
421.728	0.2099
421.9325	0.1998
422.137	0.1909
422.3415	0.202
422.546	0.1952
422.7504	0.1948
422.9549	0.1972
423.1593	0.2034
423.3637	0.2067
423.5681	0.1832
423.7725	0.1798
423.9769	0.19
424.1812	0.1801
424.3856	0.1856
424.5899	0.1828
424.7942	0.1782
424.9985	0.1705
425.2028	0.1749
425.4071	0.1867
425.6113	0.1613
425.8156	0.1824
426.0198	0.1795
426.224	0.1702
426.4282	0.1685
426.6324	0.1839
