Data from MonoPyChalIsomerACN10uM350nmA_Absorbance_14-35-36-214.txt Node
Date: Fri Jul 05 14:35:36 BST 2024
User: LASERRRRR
Spectrometer: FLMT03099
Trigger mode: 0
Integration Time (sec): 1.000000E-1
Scans to average: 1
Electric dark correction enabled: true
Nonlinearity correction enabled: false
Boxcar width: 0
XAxis mode: Wavelengths
Number of Pixels in Spectrum: 3648
>>>>>Begin Spectral Data<<<<<
179.3399	-0.4198
179.5586	-0.4198
179.7771	-0.4198
179.9957	0.096
180.2143	0.6435
180.4329	0.0375
180.6514	0.2045
180.8699	-0
181.0885	-0.0293
181.307	-0.0643
181.5255	-0
181.744	-0.7084
181.9625	-0.5931
182.181	-0
182.3994	0.132
182.6179	0.4275
182.8363	-0.0137
183.0547	-0.3552
183.2732	-0.0116
183.4916	0.0884
183.71	0.2895
183.9284	-0.041
184.1467	0.1041
184.3651	-0.1708
184.5835	-0.1444
184.8018	0.0888
185.0201	-0.0713
185.2385	-0.0995
185.4568	0.138
185.6751	-0.1021
185.8934	0.3959
186.1117	-0.018
186.3299	0.1167
186.5482	0.0186
186.7664	-0.161
186.9847	-0.1117
187.2029	0.0559
187.4211	0.0651
187.6393	0.1148
187.8575	0.1646
188.0757	0.2467
188.2939	0.2228
188.512	0.301
188.7302	-0.0387
188.9483	0.4009
189.1665	0.1982
189.3846	0.3272
189.6027	0.1415
189.8208	0.1232
190.0389	0.0978
190.257	0.0342
190.475	0.5886
190.6931	0.2029
190.9111	0.2317
191.1292	0.0405
191.3472	0.3424
191.5652	0.3461
191.7832	0.1736
192.0012	0.6237
192.2192	0.4282
192.4371	0.6584
192.6551	0.3445
192.873	0.3268
193.091	0.3116
193.3089	0.5513
193.5268	0.4182
193.7447	0.6275
193.9626	0.5423
194.1805	0.4671
194.3984	0.8972
194.6162	0.515
194.8341	0.5864
195.0519	0.4975
195.2697	0.7387
195.4875	1.1298
195.7054	0.6441
195.9231	0.6019
196.1409	0.653
196.3587	0.6133
196.5765	0.5947
196.7942	0.5709
197.012	0.4752
197.2297	0.7749
197.4474	0.5958
197.6651	0.5171
197.8828	0.5145
198.1005	0.6157
198.3182	0.6822
198.5358	0.6871
198.7535	0.5526
198.9711	0.6144
199.1888	0.6503
199.4064	0.7897
199.624	0.621
199.8416	0.5851
200.0592	0.5962
200.2767	0.6585
200.4943	0.7457
200.7119	0.6849
200.9294	0.6104
201.1469	0.6152
201.3645	0.5654
201.582	0.6032
201.7995	0.6319
202.017	0.702
202.2344	0.5037
202.4519	0.61
202.6694	0.6626
202.8868	0.6491
203.1042	0.7022
203.3217	0.6752
203.5391	0.5773
203.7565	0.6572
203.9739	0.7422
204.1913	0.6301
204.4086	0.6727
204.626	0.7492
204.8433	0.6984
205.0607	0.5541
205.278	0.6608
205.4953	0.657
205.7126	0.6724
205.9299	0.6934
206.1472	0.6964
206.3644	0.5955
206.5817	0.6682
206.7989	0.6504
207.0162	0.6178
207.2334	0.739
207.4506	0.6917
207.6678	0.6063
207.885	0.594
208.1022	0.6701
208.3194	0.6968
208.5365	0.6483
208.7537	0.6602
208.9708	0.5921
209.1879	0.6204
209.405	0.6627
209.6222	0.7105
209.8392	0.5822
210.0563	0.6414
210.2734	0.7195
210.4905	0.6448
210.7075	0.6164
210.9245	0.5606
211.1416	0.6891
211.3586	0.6033
211.5756	0.6336
211.7926	0.5999
212.0096	0.5981
212.2265	0.537
212.4435	0.6064
212.6604	0.585
212.8774	0.6393
213.0943	0.5976
213.3112	0.5728
213.5281	0.4923
213.745	0.531
213.9619	0.5004
214.1788	0.4635
214.3956	0.4455
214.6125	0.4459
214.8293	0.4742
215.0461	0.4719
215.2629	0.4636
215.4798	0.4815
215.6965	0.3864
215.9133	0.4561
216.1301	0.4146
216.3469	0.4176
216.5636	0.4048
216.7803	0.4115
216.9971	0.3982
217.2138	0.3805
217.4305	0.3724
217.6472	0.3299
217.8639	0.3819
218.0805	0.356
218.2972	0.3216
218.5138	0.3119
218.7305	0.3023
218.9471	0.2936
219.1637	0.2962
219.3803	0.2912
219.5969	0.2785
219.8135	0.2389
220.0301	0.2819
220.2466	0.2636
220.4632	0.2554
220.6797	0.2375
220.8962	0.2383
221.1127	0.2524
221.3292	0.2526
221.5457	0.2355
221.7622	0.2526
221.9787	0.2648
222.1951	0.2439
222.4116	0.2716
222.628	0.2487
222.8444	0.2336
223.0608	0.2307
223.2772	0.2578
223.4936	0.2248
223.71	0.2343
223.9264	0.2518
224.1427	0.2566
224.3591	0.2588
224.5754	0.26
224.7917	0.2488
225.008	0.2661
225.2243	0.2478
225.4406	0.2774
225.6569	0.2764
225.8732	0.2597
226.0894	0.2631
226.3057	0.2404
226.5219	0.2756
226.7381	0.298
226.9543	0.2749
227.1705	0.2757
227.3867	0.2648
227.6029	0.2933
227.8191	0.2807
228.0352	0.2938
228.2513	0.2982
228.4675	0.3201
228.6836	0.3028
228.8997	0.2941
229.1158	0.3237
229.3319	0.3137
229.548	0.3218
229.764	0.3191
229.9801	0.3178
230.1961	0.3357
230.4121	0.3275
230.6282	0.3333
230.8442	0.3056
231.0602	0.335
231.2761	0.356
231.4921	0.3423
231.7081	0.3691
231.924	0.3292
232.14	0.3503
232.3559	0.3502
232.5718	0.3636
232.7877	0.3639
233.0036	0.3281
233.2195	0.3572
233.4353	0.3563
233.6512	0.3643
233.867	0.3462
234.0829	0.3613
234.2987	0.3631
234.5145	0.377
234.7303	0.3587
234.9461	0.3816
235.1619	0.3796
235.3776	0.381
235.5934	0.3714
235.8091	0.3789
236.0249	0.3675
236.2406	0.3796
236.4563	0.3788
236.672	0.3831
236.8877	0.3755
237.1034	0.3915
237.319	0.406
237.5347	0.3953
237.7503	0.4127
237.966	0.4169
238.1816	0.4184
238.3972	0.4009
238.6128	0.3875
238.8284	0.4234
239.0439	0.4308
239.2595	0.4019
239.475	0.3963
239.6906	0.4076
239.9061	0.403
240.1216	0.387
240.3371	0.4101
240.5526	0.3899
240.7681	0.4298
240.9836	0.3783
241.199	0.3862
241.4145	0.3689
241.6299	0.3941
241.8453	0.3719
242.0607	0.3833
242.2761	0.3548
242.4915	0.3643
242.7069	0.373
242.9223	0.3469
243.1376	0.3597
243.353	0.3583
243.5683	0.3423
243.7836	0.3229
243.9989	0.328
244.2142	0.3017
244.4295	0.3201
244.6448	0.3128
244.86	0.2968
245.0753	0.294
245.2905	0.2938
245.5057	0.2815
245.721	0.2663
245.9362	0.2825
246.1514	0.2643
246.3665	0.2598
246.5817	0.2484
246.7969	0.2402
247.012	0.2428
247.2271	0.2459
247.4423	0.2338
247.6574	0.2497
247.8725	0.2356
248.0876	0.2209
248.3026	0.2185
248.5177	0.2186
248.7328	0.2251
248.9478	0.2113
249.1628	0.2212
249.3779	0.2259
249.5929	0.1891
249.8079	0.2074
250.0228	0.2136
250.2378	0.2057
250.4528	0.2003
250.6677	0.1839
250.8827	0.1995
251.0976	0.1968
251.3125	0.2008
251.5274	0.17
251.7423	0.1754
251.9572	0.1891
252.172	0.18
252.3869	0.1812
252.6017	0.1896
252.8166	0.1652
253.0314	0.1695
253.2462	0.1739
253.461	0.1901
253.6758	0.165
253.8906	0.1765
254.1053	0.1634
254.3201	0.1629
254.5348	0.1852
254.7496	0.175
254.9643	0.1668
255.179	0.1652
255.3937	0.1663
255.6083	0.1687
255.823	0.1677
256.0377	0.1644
256.2523	0.1714
256.467	0.1637
256.6816	0.175
256.8962	0.1721
257.1108	0.1559
257.3254	0.1672
257.54	0.1611
257.7545	0.1662
257.9691	0.1728
258.1836	0.1719
258.3981	0.1695
258.6127	0.1688
258.8272	0.1619
259.0417	0.1548
259.2561	0.1654
259.4706	0.1781
259.6851	0.1644
259.8995	0.1681
260.114	0.1663
260.3284	0.1645
260.5428	0.1636
260.7572	0.1678
260.9716	0.1644
261.186	0.169
261.4003	0.1631
261.6147	0.1613
261.829	0.1569
262.0433	0.156
262.2577	0.1686
262.472	0.1652
262.6863	0.1496
262.9005	0.1611
263.1148	0.1662
263.3291	0.1456
263.5433	0.1538
263.7576	0.1633
263.9718	0.1634
264.186	0.1618
264.4002	0.1667
264.6144	0.1641
264.8286	0.1768
265.0427	0.1461
265.2569	0.1497
265.471	0.1711
265.6851	0.1503
265.8993	0.1606
266.1134	0.1594
266.3275	0.1535
266.5415	0.1657
266.7556	0.1555
266.9697	0.1733
267.1837	0.1592
267.3978	0.1654
267.6118	0.1727
267.8258	0.1698
268.0398	0.1463
268.2538	0.164
268.4677	0.1675
268.6817	0.1595
268.8957	0.1679
269.1096	0.1643
269.3235	0.1606
269.5374	0.1633
269.7514	0.1545
269.9652	0.1433
270.1791	0.1566
270.393	0.1444
270.6068	0.1581
270.8207	0.1526
271.0345	0.1492
271.2483	0.1551
271.4622	0.1431
271.676	0.1556
271.8897	0.1387
272.1035	0.1395
272.3173	0.1424
272.531	0.1414
272.7448	0.1532
272.9585	0.1334
273.1722	0.1461
273.3859	0.152
273.5996	0.1419
273.8133	0.1489
274.0269	0.1344
274.2406	0.1383
274.4542	0.1396
274.6679	0.137
274.8815	0.1469
275.0951	0.1456
275.3087	0.1653
275.5223	0.158
275.7358	0.1414
275.9494	0.1445
276.1629	0.136
276.3765	0.1463
276.59	0.1545
276.8035	0.143
277.017	0.1485
277.2305	0.1333
277.444	0.1473
277.6574	0.1451
277.8709	0.1508
278.0843	0.1345
278.2978	0.1503
278.5112	0.1372
278.7246	0.141
278.938	0.1484
279.1513	0.1476
279.3647	0.1589
279.5781	0.1406
279.7914	0.1483
280.0047	0.1452
280.2181	0.1531
280.4314	0.1513
280.6447	0.1454
280.8579	0.148
281.0712	0.1528
281.2845	0.1621
281.4977	0.1434
281.711	0.1517
281.9242	0.1682
282.1374	0.1673
282.3506	0.1447
282.5638	0.1649
282.7769	0.1469
282.9901	0.1525
283.2033	0.1625
283.4164	0.1561
283.6295	0.1351
283.8426	0.1508
284.0557	0.1585
284.2688	0.1712
284.4819	0.1652
284.695	0.1562
284.908	0.1593
285.1211	0.1525
285.3341	0.163
285.5471	0.1568
285.7601	0.1512
285.9731	0.1505
286.1861	0.152
286.3991	0.1586
286.612	0.1695
286.825	0.1529
287.0379	0.1728
287.2508	0.1641
287.4637	0.1536
287.6766	0.1592
287.8895	0.1614
288.1024	0.1758
288.3152	0.1677
288.5281	0.1679
288.7409	0.1602
288.9538	0.1626
289.1666	0.166
289.3794	0.1632
289.5922	0.1467
289.8049	0.1564
290.0177	0.1513
290.2304	0.1697
290.4432	0.164
290.6559	0.1609
290.8686	0.1762
291.0813	0.1641
291.294	0.1702
291.5067	0.1728
291.7194	0.1674
291.932	0.1814
292.1447	0.1751
292.3573	0.1544
292.5699	0.1622
292.7825	0.1685
292.9951	0.1647
293.2077	0.1656
293.4203	0.1631
293.6328	0.1508
293.8454	0.1778
294.0579	0.1719
294.2704	0.1614
294.4829	0.1609
294.6954	0.1706
294.9079	0.1657
295.1204	0.163
295.3328	0.1633
295.5453	0.1601
295.7577	0.1677
295.9701	0.1525
296.1825	0.1668
296.3949	0.1684
296.6073	0.1645
296.8197	0.1615
297.0321	0.1784
297.2444	0.1604
297.4567	0.1682
297.6691	0.1707
297.8814	0.1609
298.0937	0.1646
298.306	0.1753
298.5182	0.1704
298.7305	0.1734
298.9428	0.1554
299.155	0.1643
299.3672	0.1708
299.5794	0.1482
299.7916	0.163
300.0038	0.1725
300.216	0.167
300.4282	0.1643
300.6403	0.1541
300.8525	0.1587
301.0646	0.1452
301.2767	0.1737
301.4888	0.1621
301.7009	0.166
301.913	0.1659
302.125	0.1693
302.3371	0.1566
302.5491	0.1609
302.7612	0.1636
302.9732	0.172
303.1852	0.1626
303.3972	0.17
303.6092	0.1596
303.8211	0.1529
304.0331	0.1598
304.245	0.1483
304.457	0.15
304.6689	0.1597
304.8808	0.1717
305.0927	0.1638
305.3046	0.1514
305.5164	0.1584
305.7283	0.1487
305.9401	0.1499
306.152	0.1583
306.3638	0.1565
306.5756	0.1411
306.7874	0.1507
306.9992	0.1437
307.2109	0.1433
307.4227	0.1343
307.6344	0.139
307.8462	0.148
308.0579	0.1401
308.2696	0.1347
308.4813	0.1178
308.693	0.1314
308.9046	0.1414
309.1163	0.1348
309.328	0.1133
309.5396	0.1336
309.7512	0.1214
309.9628	0.1264
310.1744	0.1259
310.386	0.122
310.5976	0.1182
310.8091	0.1246
311.0207	0.1165
311.2322	0.1197
311.4437	0.1096
311.6552	0.1014
311.8667	0.1143
312.0782	0.0932
312.2897	0.0958
312.5012	0.1127
312.7126	0.1041
312.924	0.1056
313.1355	0.1149
313.3469	0.1155
313.5583	0.1173
313.7696	0.104
313.981	0.1089
314.1924	0.0989
314.4037	0.1056
314.6151	0.1048
314.8264	0.0983
315.0377	0.0998
315.249	0.0943
315.4603	0.116
315.6716	0.1056
315.8828	0.0917
316.0941	0.0965
316.3053	0.098
316.5165	0.0873
316.7277	0.1039
316.9389	0.1021
317.1501	0.0915
317.3613	0.0994
317.5724	0.0829
317.7836	0.1017
317.9947	0.1018
318.2058	0.1068
318.417	0.0877
318.6281	0.0922
318.8391	0.0949
319.0502	0.0873
319.2613	0.0924
319.4723	0.1148
319.6834	0.1108
319.8944	0.0797
320.1054	0.1022
320.3164	0.0905
320.5274	0.0942
320.7383	0.0907
320.9493	0.1047
321.1602	0.1148
321.3712	0.0953
321.5821	0.098
321.793	0.1082
322.0039	0.0944
322.2148	0.0931
322.4257	0.1024
322.6365	0.1063
322.8474	0.1139
323.0582	0.0961
323.269	0.1116
323.4798	0.1079
323.6906	0.1018
323.9014	0.0929
324.1122	0.1016
324.3229	0.099
324.5337	0.1041
324.7444	0.0932
324.9551	0.1071
325.1658	0.1064
325.3765	0.1029
325.5872	0.1103
325.7979	0.1008
326.0085	0.1077
326.2192	0.1025
326.4298	0.101
326.6404	0.1087
326.851	0.0891
327.0616	0.1043
327.2722	0.1107
327.4828	0.119
327.6933	0.1036
327.9039	0.1174
328.1144	0.1113
328.3249	0.1156
328.5354	0.0981
328.7459	0.1069
328.9564	0.095
329.1669	0.1025
329.3773	0.1074
329.5878	0.1088
329.7982	0.1024
330.0086	0.1028
330.219	0.0981
330.4294	0.0956
330.6398	0.1
330.8502	0.0926
331.0605	0.113
331.2708	0.1132
331.4812	0.1142
331.6915	0.1015
331.9018	0.1076
332.1121	0.0992
332.3224	0.1161
332.5326	0.1066
332.7429	0.1029
332.9531	0.1136
333.1633	0.1293
333.3735	0.1094
333.5837	0.1035
333.7939	0.104
334.0041	0.1076
334.2143	0.1253
334.4244	0.1026
334.6346	0.0835
334.8447	0.1263
335.0548	0.112
335.2649	0.0941
335.475	0.1233
335.685	0.1048
335.8951	0.1138
336.1051	0.1109
336.3152	0.1117
336.5252	0.1097
336.7352	0.1165
336.9452	0.1104
337.1552	0.1194
337.3652	0.1178
337.5751	0.1071
337.7851	0.1169
337.995	0.0969
338.2049	0.1127
338.4148	0.1054
338.6247	0.1169
338.8346	0.1114
339.0445	0.1081
339.2543	0.112
339.4642	0.1108
339.674	0.1091
339.8838	0.1142
340.0936	0.1083
340.3034	0.1388
340.5132	0.1175
340.7229	0.1164
340.9327	0.1159
341.1424	0.1036
341.3522	0.1335
341.5619	0.127
341.7716	0.1152
341.9813	0.1227
342.1909	0.1166
342.4006	0.1361
342.6102	0.1395
342.8199	0.1341
343.0295	0.1236
343.2391	0.1301
343.4487	0.1285
343.6583	0.1252
343.8679	0.1173
344.0774	0.1244
344.287	0.1254
344.4965	0.125
344.706	0.1352
344.9155	0.1247
345.125	0.1249
345.3345	0.1301
345.544	0.1319
345.7534	0.1352
345.9629	0.1164
346.1723	0.1216
346.3817	0.1344
346.5911	0.1209
346.8005	0.1344
347.0099	0.1307
347.2193	0.1335
347.4286	0.1288
347.638	0.1465
347.8473	0.1306
348.0566	0.1484
348.2659	0.134
348.4752	0.132
348.6845	0.133
348.8937	0.1351
349.103	0.1415
349.3122	0.1229
349.5214	0.1218
349.7306	0.1398
349.9398	0.1251
350.149	0.1458
350.3582	0.1317
350.5674	0.1346
350.7765	0.135
350.9856	0.1302
351.1948	0.1482
351.4039	0.1252
351.613	0.1342
351.822	0.1468
352.0311	0.1484
352.2402	0.1467
352.4492	0.1541
352.6582	0.1424
352.8672	0.1471
353.0762	0.1542
353.2852	0.1485
353.4942	0.1342
353.7032	0.1591
353.9121	0.1544
354.1211	0.1502
354.33	0.1566
354.5389	0.1606
354.7478	0.1473
354.9567	0.1619
355.1655	0.1389
355.3744	0.1596
355.5833	0.1549
355.7921	0.1585
356.0009	0.1634
356.2097	0.1748
356.4185	0.1843
356.6273	0.1702
356.8361	0.163
357.0448	0.1611
357.2536	0.156
357.4623	0.1642
357.671	0.1611
357.8797	0.1703
358.0884	0.1589
358.2971	0.1527
358.5057	0.1682
358.7144	0.1768
358.923	0.1671
359.1316	0.1767
359.3402	0.1615
359.5488	0.1756
359.7574	0.1605
359.966	0.1798
360.1746	0.1719
360.3831	0.1754
360.5916	0.1776
360.8002	0.1787
361.0087	0.1858
361.2172	0.1843
361.4256	0.1797
361.6341	0.1966
361.8426	0.1775
362.051	0.1796
362.2594	0.1798
362.4678	0.1744
362.6762	0.2035
362.8846	0.1979
363.093	0.1857
363.3014	0.1962
363.5097	0.1834
363.718	0.1811
363.9264	0.1915
364.1347	0.192
364.343	0.1825
364.5513	0.1971
364.7595	0.2049
364.9678	0.1942
365.176	0.1869
365.3842	0.1932
365.5925	0.2005
365.8007	0.1971
366.0089	0.2131
366.217	0.1999
366.4252	0.2119
366.6333	0.2093
366.8415	0.2122
367.0496	0.192
367.2577	0.2145
367.4658	0.2177
367.6739	0.2081
367.882	0.2075
368.09	0.2045
368.2981	0.2141
368.5061	0.2052
368.7141	0.2129
368.9221	0.2139
369.1301	0.2129
369.3381	0.2043
369.5461	0.2068
369.754	0.2271
369.962	0.2357
370.1699	0.2161
370.3778	0.2151
370.5857	0.2146
370.7936	0.2162
371.0015	0.2167
371.2093	0.2253
371.4172	0.2284
371.625	0.2134
371.8328	0.2291
372.0406	0.2151
372.2484	0.2198
372.4562	0.2493
372.664	0.2194
372.8717	0.2304
373.0795	0.198
373.2872	0.2248
373.4949	0.2128
373.7026	0.2475
373.9103	0.2279
374.118	0.2253
374.3256	0.2291
374.5333	0.2324
374.7409	0.2046
374.9485	0.2357
375.1561	0.2337
375.3637	0.2498
375.5713	0.2322
375.7789	0.2218
375.9864	0.239
376.194	0.213
376.4015	0.2443
376.609	0.2451
376.8165	0.2434
377.024	0.2237
377.2315	0.2225
377.4389	0.2325
377.6464	0.2457
377.8538	0.237
378.0612	0.2316
378.2686	0.2553
378.476	0.2536
378.6834	0.2531
378.8908	0.2545
379.0981	0.2413
379.3055	0.2583
379.5128	0.2412
379.7201	0.2357
379.9274	0.239
380.1347	0.2536
380.342	0.2658
380.5492	0.257
380.7565	0.251
380.9637	0.2588
381.1709	0.2413
381.3781	0.2577
381.5853	0.2611
381.7925	0.2565
381.9997	0.2594
382.2068	0.2704
382.4139	0.2599
382.6211	0.257
382.8282	0.2753
383.0353	0.2502
383.2424	0.2544
383.4494	0.2504
383.6565	0.2437
383.8635	0.263
384.0706	0.2494
384.2776	0.2624
384.4846	0.2501
384.6916	0.257
384.8986	0.2553
385.1055	0.2476
385.3125	0.2665
385.5194	0.2374
385.7263	0.2409
385.9333	0.2363
386.1402	0.2609
386.347	0.2576
386.5539	0.2454
386.7608	0.2683
386.9676	0.2275
387.1744	0.2411
387.3813	0.2468
387.5881	0.2559
387.7948	0.2509
388.0016	0.251
388.2084	0.2584
388.4151	0.247
388.6219	0.2576
388.8286	0.2414
389.0353	0.2551
389.242	0.2545
389.4487	0.2322
389.6553	0.2342
389.862	0.2272
390.0686	0.2458
390.2753	0.2544
390.4819	0.2436
390.6885	0.2506
390.8951	0.2325
391.1016	0.2382
391.3082	0.229
391.5147	0.2358
391.7213	0.2327
391.9278	0.231
392.1343	0.2321
392.3408	0.2471
392.5473	0.2396
392.7537	0.225
392.9602	0.2421
393.1666	0.2288
393.373	0.2255
393.5794	0.2376
393.7858	0.2207
393.9922	0.2354
394.1986	0.2494
394.4049	0.2229
394.6113	0.2288
394.8176	0.2002
395.0239	0.2154
395.2302	0.2078
395.4365	0.2259
395.6428	0.2106
395.8491	0.2079
396.0553	0.2186
396.2615	0.2074
396.4678	0.2313
396.674	0.1915
396.8802	0.2136
397.0863	0.232
397.2925	0.2295
397.4987	0.2064
397.7048	0.215
397.9109	0.2057
398.117	0.2148
398.3231	0.2208
398.5292	0.2193
398.7353	0.2299
398.9413	0.2073
399.1474	0.2191
399.3534	0.2064
399.5594	0.2085
399.7654	0.2201
399.9714	0.2294
400.1774	0.2192
400.3833	0.2113
400.5893	0.1973
400.7952	0.2124
401.0011	0.206
401.207	0.2185
401.4129	0.2185
401.6188	0.2189
401.8247	0.213
402.0305	0.2037
402.2364	0.2
402.4422	0.2213
402.648	0.2134
402.8538	0.2138
403.0596	0.1985
403.2654	0.2033
403.4711	0.2093
403.6768	0.2157
403.8826	0.2105
404.0883	0.2217
404.294	0.2259
404.4997	0.2116
404.7054	0.2108
404.911	0.1935
405.1167	0.2121
405.3223	0.2241
405.5279	0.2286
405.7335	0.2238
405.9391	0.237
406.1447	0.2132
406.3502	0.2385
406.5558	0.2006
406.7613	0.2234
406.9668	0.2022
407.1724	0.2083
407.3778	0.2173
407.5833	0.2112
407.7888	0.2029
407.9942	0.2245
408.1997	0.2118
408.4051	0.2081
408.6105	0.2276
408.8159	0.2122
409.0213	0.209
409.2267	0.221
409.432	0.2131
409.6374	0.2323
409.8427	0.1786
410.048	0.2126
410.2533	0.2155
410.4586	0.1985
410.6639	0.1943
410.8691	0.1885
411.0744	0.1972
411.2796	0.2219
411.4848	0.2111
411.69	0.2161
411.8952	0.2171
412.1004	0.1894
412.3056	0.2286
412.5107	0.1953
412.7158	0.2046
412.921	0.2025
413.1261	0.2092
413.3312	0.193
413.5362	0.1921
413.7413	0.1921
413.9464	0.2048
414.1514	0.2111
414.3564	0.2027
414.5614	0.1974
414.7664	0.2045
414.9714	0.2169
415.1764	0.2097
415.3813	0.2124
415.5863	0.2084
415.7912	0.2221
415.9961	0.209
416.201	0.2119
416.4059	0.1988
416.6108	0.1909
416.8156	0.2324
417.0205	0.1953
417.2253	0.1999
417.4301	0.225
417.6349	0.1926
417.8397	0.1855
418.0445	0.193
418.2492	0.219
418.454	0.1865
418.6587	0.1886
418.8634	0.1993
419.0681	0.1879
419.2728	0.2097
419.4775	0.1948
419.6822	0.1951
419.8868	0.1761
420.0915	0.1944
420.2961	0.2002
420.5007	0.1941
420.7053	0.1983
420.9099	0.1937
421.1144	0.2083
421.319	0.1779
421.5235	0.1812
421.728	0.1957
421.9325	0.194
422.137	0.2162
422.3415	0.1745
422.546	0.1894
422.7504	0.1881
422.9549	0.1931
423.1593	0.1917
423.3637	0.1825
423.5681	0.1831
423.7725	0.1946
423.9769	0.1605
424.1812	0.1754
424.3856	0.171
424.5899	0.1744
424.7942	0.1724
424.9985	0.1836
425.2028	0.1706
425.4071	0.1894
425.6113	0.1731
425.8156	0.1833
426.0198	0.1909
426.224	0.1573
426.4282	0.1509
