Data from MonoPyChalIsomerACN10uM350nmA_Absorbance_14-35-38-714.txt Node
Date: Fri Jul 05 14:35:38 BST 2024
User: LASERRRRR
Spectrometer: FLMT03099
Trigger mode: 0
Integration Time (sec): 1.000000E-1
Scans to average: 1
Electric dark correction enabled: true
Nonlinearity correction enabled: false
Boxcar width: 0
XAxis mode: Wavelengths
Number of Pixels in Spectrum: 3648
>>>>>Begin Spectral Data<<<<<
179.3399	0.145
179.5586	0.145
179.7771	0.145
179.9957	0.1036
180.2143	-0.2808
180.4329	-0.3512
180.6514	-0
180.8699	0.3245
181.0885	-0.1108
181.307	-0.016
181.5255	-0
181.744	-0.2261
181.9625	-0
182.181	-0.8256
182.3994	1.8789
182.6179	-0
182.8363	0.045
183.0547	-0.1635
183.2732	0.1176
183.4916	-0.0475
183.71	-0.0457
183.9284	0.1845
184.1467	-0.1314
184.3651	-0.1283
184.5835	0.0361
184.8018	0.0722
185.0201	-0.0252
185.2385	0.064
185.4568	0.1042
185.6751	0.0217
185.8934	0.0798
186.1117	-0.1294
186.3299	0.0697
186.5482	-0.0103
186.7664	-0.197
186.9847	-0.147
187.2029	0.0398
187.4211	0.1527
187.6393	0.0254
187.8575	-0.1157
188.0757	0.3103
188.2939	0.1745
188.512	-0.0408
188.7302	-0.0912
188.9483	0.0739
189.1665	0.0145
189.3846	0.2906
189.6027	0.0576
189.8208	0.3652
190.0389	0.1672
190.257	0.0911
190.475	0.0897
190.6931	0.4244
190.9111	0.4733
191.1292	0.2146
191.3472	0.4263
191.5652	0.3283
191.7832	0.1064
192.0012	0.3212
192.2192	0.4905
192.4371	0.5522
192.6551	0.2562
192.873	0.4075
193.091	0.6094
193.3089	0.4983
193.5268	0.4164
193.7447	0.391
193.9626	0.4068
194.1805	0.5534
194.3984	0.6794
194.6162	0.544
194.8341	0.6495
195.0519	0.4023
195.2697	0.9577
195.4875	0.6305
195.7054	0.6759
195.9231	0.6385
196.1409	0.5391
196.3587	0.6465
196.5765	0.5793
196.7942	0.6511
197.012	0.6335
197.2297	0.5095
197.4474	0.6688
197.6651	0.6353
197.8828	0.4424
198.1005	0.4805
198.3182	0.5997
198.5358	0.8099
198.7535	0.6371
198.9711	0.49
199.1888	0.6878
199.4064	0.9606
199.624	0.7915
199.8416	0.5759
200.0592	0.6065
200.2767	0.6421
200.4943	0.6512
200.7119	0.6152
200.9294	0.5939
201.1469	0.6065
201.3645	0.5581
201.582	0.5198
201.7995	0.6392
202.017	0.5167
202.2344	0.6221
202.4519	0.6425
202.6694	0.5986
202.8868	0.6005
203.1042	0.7212
203.3217	0.722
203.5391	0.6488
203.7565	0.6067
203.9739	0.6532
204.1913	0.5793
204.4086	0.6337
204.626	0.7949
204.8433	0.6929
205.0607	0.629
205.278	0.6466
205.4953	0.539
205.7126	0.6446
205.9299	0.6834
206.1472	0.6811
206.3644	0.5371
206.5817	0.6959
206.7989	0.6408
207.0162	0.6156
207.2334	0.7877
207.4506	0.5927
207.6678	0.6451
207.885	0.6562
208.1022	0.6873
208.3194	0.7013
208.5365	0.6312
208.7537	0.6548
208.9708	0.597
209.1879	0.6228
209.405	0.6778
209.6222	0.6698
209.8392	0.6207
210.0563	0.5759
210.2734	0.5927
210.4905	0.6413
210.7075	0.6274
210.9245	0.5504
211.1416	0.6587
211.3586	0.5592
211.5756	0.6099
211.7926	0.5684
212.0096	0.5646
212.2265	0.598
212.4435	0.5977
212.6604	0.5513
212.8774	0.5813
213.0943	0.6116
213.3112	0.5288
213.5281	0.5539
213.745	0.5031
213.9619	0.4912
214.1788	0.4776
214.3956	0.4513
214.6125	0.4768
214.8293	0.4025
215.0461	0.4669
215.2629	0.4633
215.4798	0.4575
215.6965	0.4096
215.9133	0.4551
216.1301	0.4007
216.3469	0.4383
216.5636	0.419
216.7803	0.3982
216.9971	0.3956
217.2138	0.359
217.4305	0.3893
217.6472	0.3802
217.8639	0.3926
218.0805	0.3095
218.2972	0.3223
218.5138	0.327
218.7305	0.3034
218.9471	0.2947
219.1637	0.2956
219.3803	0.2668
219.5969	0.2677
219.8135	0.2331
220.0301	0.2825
220.2466	0.2994
220.4632	0.2549
220.6797	0.2538
220.8962	0.2299
221.1127	0.2516
221.3292	0.2252
221.5457	0.2485
221.7622	0.209
221.9787	0.2568
222.1951	0.2469
222.4116	0.2416
222.628	0.2295
222.8444	0.2596
223.0608	0.2227
223.2772	0.2715
223.4936	0.2578
223.71	0.2374
223.9264	0.2683
224.1427	0.2562
224.3591	0.2279
224.5754	0.2566
224.7917	0.2567
225.008	0.2621
225.2243	0.2359
225.4406	0.2852
225.6569	0.2822
225.8732	0.2445
226.0894	0.2544
226.3057	0.2714
226.5219	0.2853
226.7381	0.2596
226.9543	0.2723
227.1705	0.2795
227.3867	0.2845
227.6029	0.2887
227.8191	0.2795
228.0352	0.2705
228.2513	0.3019
228.4675	0.2946
228.6836	0.2789
228.8997	0.3105
229.1158	0.2986
229.3319	0.3181
229.548	0.3082
229.764	0.3201
229.9801	0.3227
230.1961	0.3107
230.4121	0.3309
230.6282	0.3309
230.8442	0.3137
231.0602	0.3554
231.2761	0.3314
231.4921	0.3408
231.7081	0.3374
231.924	0.3385
232.14	0.3729
232.3559	0.3487
232.5718	0.3556
232.7877	0.3429
233.0036	0.3468
233.2195	0.3698
233.4353	0.3592
233.6512	0.3606
233.867	0.3582
234.0829	0.3637
234.2987	0.3582
234.5145	0.3808
234.7303	0.3692
234.9461	0.3985
235.1619	0.3782
235.3776	0.3702
235.5934	0.3891
235.8091	0.3742
236.0249	0.3565
236.2406	0.3815
236.4563	0.3603
236.672	0.38
236.8877	0.4057
237.1034	0.3818
237.319	0.3895
237.5347	0.3815
237.7503	0.3799
237.966	0.4289
238.1816	0.418
238.3972	0.3994
238.6128	0.388
238.8284	0.4102
239.0439	0.4152
239.2595	0.3802
239.475	0.4001
239.6906	0.4224
239.9061	0.3956
240.1216	0.3944
240.3371	0.4174
240.5526	0.3714
240.7681	0.3926
240.9836	0.4006
241.199	0.3901
241.4145	0.384
241.6299	0.3819
241.8453	0.3585
242.0607	0.3895
242.2761	0.3707
242.4915	0.3696
242.7069	0.3713
242.9223	0.3527
243.1376	0.3419
243.353	0.3591
243.5683	0.3572
243.7836	0.3363
243.9989	0.3242
244.2142	0.301
244.4295	0.3128
244.6448	0.3101
244.86	0.3052
245.0753	0.2878
245.2905	0.2928
245.5057	0.2785
245.721	0.2711
245.9362	0.2655
246.1514	0.2783
246.3665	0.2448
246.5817	0.2598
246.7969	0.2669
247.012	0.252
247.2271	0.2425
247.4423	0.2355
247.6574	0.2344
247.8725	0.2392
248.0876	0.2285
248.3026	0.2333
248.5177	0.2128
248.7328	0.2263
248.9478	0.2072
249.1628	0.2291
249.3779	0.2161
249.5929	0.2034
249.8079	0.2077
250.0228	0.1957
250.2378	0.2023
250.4528	0.2022
250.6677	0.1776
250.8827	0.2019
251.0976	0.1925
251.3125	0.1979
251.5274	0.1847
251.7423	0.1808
251.9572	0.1791
252.172	0.1704
252.3869	0.1828
252.6017	0.1704
252.8166	0.1707
253.0314	0.1623
253.2462	0.1549
253.461	0.1735
253.6758	0.1733
253.8906	0.1705
254.1053	0.1654
254.3201	0.1634
254.5348	0.1765
254.7496	0.1718
254.9643	0.1838
255.179	0.1748
255.3937	0.1708
255.6083	0.1705
255.823	0.1651
256.0377	0.1654
256.2523	0.1667
256.467	0.1452
256.6816	0.1786
256.8962	0.169
257.1108	0.1536
257.3254	0.1769
257.54	0.1614
257.7545	0.1648
257.9691	0.17
258.1836	0.1558
258.3981	0.174
258.6127	0.1813
258.8272	0.1592
259.0417	0.1657
259.2561	0.1734
259.4706	0.1623
259.6851	0.1671
259.8995	0.16
260.114	0.1679
260.3284	0.1556
260.5428	0.1585
260.7572	0.1636
260.9716	0.1677
261.186	0.1495
261.4003	0.1647
261.6147	0.1553
261.829	0.1661
262.0433	0.1645
262.2577	0.1683
262.472	0.1754
262.6863	0.1658
262.9005	0.1639
263.1148	0.1722
263.3291	0.1496
263.5433	0.1623
263.7576	0.1571
263.9718	0.1654
264.186	0.1707
264.4002	0.151
264.6144	0.1638
264.8286	0.1826
265.0427	0.1669
265.2569	0.1579
265.471	0.1674
265.6851	0.1463
265.8993	0.1547
266.1134	0.159
266.3275	0.1564
266.5415	0.1569
266.7556	0.1594
266.9697	0.1627
267.1837	0.1556
267.3978	0.1653
267.6118	0.1714
267.8258	0.1836
268.0398	0.1528
268.2538	0.1742
268.4677	0.1684
268.6817	0.1535
268.8957	0.1618
269.1096	0.1589
269.3235	0.1599
269.5374	0.1537
269.7514	0.1464
269.9652	0.1477
270.1791	0.1476
270.393	0.1438
270.6068	0.1554
270.8207	0.1522
271.0345	0.1457
271.2483	0.1555
271.4622	0.1452
271.676	0.1504
271.8897	0.1371
272.1035	0.1399
272.3173	0.1353
272.531	0.1356
272.7448	0.1423
272.9585	0.1387
273.1722	0.1419
273.3859	0.1566
273.5996	0.1276
273.8133	0.1454
274.0269	0.1386
274.2406	0.1447
274.4542	0.1486
274.6679	0.1274
274.8815	0.1462
275.0951	0.154
275.3087	0.1542
275.5223	0.1468
275.7358	0.1473
275.9494	0.1513
276.1629	0.1351
276.3765	0.1399
276.59	0.1396
276.8035	0.1478
277.017	0.1357
277.2305	0.1375
277.444	0.1584
277.6574	0.1462
277.8709	0.1433
278.0843	0.1319
278.2978	0.1463
278.5112	0.1404
278.7246	0.1427
278.938	0.1336
279.1513	0.1549
279.3647	0.1585
279.5781	0.1544
279.7914	0.1465
280.0047	0.1569
280.2181	0.1493
280.4314	0.1639
280.6447	0.1423
280.8579	0.1472
281.0712	0.145
281.2845	0.1598
281.4977	0.1587
281.711	0.1546
281.9242	0.1425
282.1374	0.1547
282.3506	0.1552
282.5638	0.1499
282.7769	0.1607
282.9901	0.1594
283.2033	0.1588
283.4164	0.1608
283.6295	0.1411
283.8426	0.1611
284.0557	0.1568
284.2688	0.1649
284.4819	0.1538
284.695	0.1659
284.908	0.1544
285.1211	0.1414
285.3341	0.1567
285.5471	0.1574
285.7601	0.1503
285.9731	0.1558
286.1861	0.1501
286.3991	0.1584
286.612	0.1623
286.825	0.1643
287.0379	0.1591
287.2508	0.161
287.4637	0.155
287.6766	0.1574
287.8895	0.1652
288.1024	0.1785
288.3152	0.1668
288.5281	0.1542
288.7409	0.1658
288.9538	0.1694
289.1666	0.1615
289.3794	0.1517
289.5922	0.1574
289.8049	0.1642
290.0177	0.1737
290.2304	0.158
290.4432	0.1684
290.6559	0.16
290.8686	0.1743
291.0813	0.1631
291.294	0.1576
291.5067	0.1747
291.7194	0.1644
291.932	0.1762
292.1447	0.1742
292.3573	0.1499
292.5699	0.1604
292.7825	0.1683
292.9951	0.1569
293.2077	0.1562
293.4203	0.1702
293.6328	0.1486
293.8454	0.1691
294.0579	0.155
294.2704	0.1641
294.4829	0.1522
294.6954	0.1728
294.9079	0.155
295.1204	0.1634
295.3328	0.156
295.5453	0.1661
295.7577	0.1693
295.9701	0.1505
296.1825	0.1622
296.3949	0.1473
296.6073	0.1622
296.8197	0.1534
297.0321	0.1741
297.2444	0.144
297.4567	0.1595
297.6691	0.1672
297.8814	0.1561
298.0937	0.1601
298.306	0.1636
298.5182	0.1557
298.7305	0.1658
298.9428	0.1508
299.155	0.1573
299.3672	0.158
299.5794	0.1569
299.7916	0.1494
300.0038	0.166
300.216	0.1694
300.4282	0.1612
300.6403	0.1605
300.8525	0.1726
301.0646	0.1556
301.2767	0.1675
301.4888	0.1537
301.7009	0.1632
301.913	0.163
302.125	0.1746
302.3371	0.1609
302.5491	0.1598
302.7612	0.1623
302.9732	0.1675
303.1852	0.1659
303.3972	0.1682
303.6092	0.157
303.8211	0.156
304.0331	0.1424
304.245	0.1448
304.457	0.1651
304.6689	0.1541
304.8808	0.1561
305.0927	0.1365
305.3046	0.148
305.5164	0.1589
305.7283	0.1479
305.9401	0.1518
306.152	0.1466
306.3638	0.1514
306.5756	0.1408
306.7874	0.1516
306.9992	0.1453
307.2109	0.1431
307.4227	0.1238
307.6344	0.1431
307.8462	0.1427
308.0579	0.1323
308.2696	0.1206
308.4813	0.1327
308.693	0.1293
308.9046	0.1374
309.1163	0.1335
309.328	0.1329
309.5396	0.1161
309.7512	0.1128
309.9628	0.1208
310.1744	0.1247
310.386	0.1178
310.5976	0.1238
310.8091	0.1226
311.0207	0.1144
311.2322	0.1152
311.4437	0.1068
311.6552	0.1127
311.8667	0.1081
312.0782	0.1145
312.2897	0.0961
312.5012	0.1165
312.7126	0.0953
312.924	0.1038
313.1355	0.1171
313.3469	0.1059
313.5583	0.1031
313.7696	0.1033
313.981	0.1115
314.1924	0.0954
314.4037	0.1156
314.6151	0.1069
314.8264	0.0974
315.0377	0.1024
315.249	0.0987
315.4603	0.1126
315.6716	0.0963
315.8828	0.0957
316.0941	0.0948
316.3053	0.0972
316.5165	0.1003
316.7277	0.0956
316.9389	0.1077
317.1501	0.0912
317.3613	0.1131
317.5724	0.0837
317.7836	0.1008
317.9947	0.0993
318.2058	0.1051
318.417	0.0817
318.6281	0.0895
318.8391	0.0973
319.0502	0.0958
319.2613	0.0973
319.4723	0.1027
319.6834	0.1072
319.8944	0.0926
320.1054	0.1011
320.3164	0.1004
320.5274	0.089
320.7383	0.0973
320.9493	0.0962
321.1602	0.105
321.3712	0.0913
321.5821	0.1008
321.793	0.1062
322.0039	0.0915
322.2148	0.0918
322.4257	0.1031
322.6365	0.1107
322.8474	0.1064
323.0582	0.1005
323.269	0.1011
323.4798	0.1078
323.6906	0.0969
323.9014	0.1026
324.1122	0.1113
324.3229	0.0977
324.5337	0.1069
324.7444	0.0904
324.9551	0.1224
325.1658	0.1005
325.3765	0.1102
325.5872	0.1066
325.7979	0.0999
326.0085	0.1035
326.2192	0.0944
326.4298	0.1058
326.6404	0.0971
326.851	0.0878
327.0616	0.0994
327.2722	0.0988
327.4828	0.1123
327.6933	0.0999
327.9039	0.1066
328.1144	0.1083
328.3249	0.1099
328.5354	0.0957
328.7459	0.1057
328.9564	0.0814
329.1669	0.0965
329.3773	0.1038
329.5878	0.1057
329.7982	0.1107
330.0086	0.1013
330.219	0.1104
330.4294	0.109
330.6398	0.1014
330.8502	0.095
331.0605	0.1077
331.2708	0.1073
331.4812	0.1035
331.6915	0.1109
331.9018	0.112
332.1121	0.0949
332.3224	0.1038
332.5326	0.1044
332.7429	0.1187
332.9531	0.1167
333.1633	0.1198
333.3735	0.1056
333.5837	0.1121
333.7939	0.1028
334.0041	0.1117
334.2143	0.1194
334.4244	0.1134
334.6346	0.0954
334.8447	0.121
335.0548	0.1032
335.2649	0.1082
335.475	0.1125
335.685	0.0975
335.8951	0.1163
336.1051	0.1145
336.3152	0.1134
336.5252	0.0976
336.7352	0.1158
336.9452	0.1103
337.1552	0.1167
337.3652	0.1115
337.5751	0.1125
337.7851	0.1249
337.995	0.1049
338.2049	0.1176
338.4148	0.1137
338.6247	0.1206
338.8346	0.0999
339.0445	0.1105
339.2543	0.1093
339.4642	0.1162
339.674	0.1145
339.8838	0.1201
340.0936	0.1122
340.3034	0.128
340.5132	0.1138
340.7229	0.1212
340.9327	0.1126
341.1424	0.1158
341.3522	0.1279
341.5619	0.126
341.7716	0.1151
341.9813	0.1099
342.1909	0.1132
342.4006	0.1269
342.6102	0.1298
342.8199	0.1165
343.0295	0.1268
343.2391	0.1215
343.4487	0.1256
343.6583	0.1156
343.8679	0.1229
344.0774	0.1286
344.287	0.1194
344.4965	0.113
344.706	0.1382
344.9155	0.1299
345.125	0.1255
345.3345	0.1277
345.544	0.1206
345.7534	0.1271
345.9629	0.118
346.1723	0.127
346.3817	0.1282
346.5911	0.115
346.8005	0.1243
347.0099	0.1282
347.2193	0.1339
347.4286	0.126
347.638	0.1329
347.8473	0.1427
348.0566	0.1385
348.2659	0.1322
348.4752	0.1379
348.6845	0.1374
348.8937	0.1362
349.103	0.1396
349.3122	0.1307
349.5214	0.1365
349.7306	0.1377
349.9398	0.1317
350.149	0.1351
350.3582	0.1366
350.5674	0.1481
350.7765	0.1332
350.9856	0.1421
351.1948	0.1525
351.4039	0.1319
351.613	0.1261
351.822	0.1506
352.0311	0.1409
352.2402	0.1301
352.4492	0.1347
352.6582	0.162
352.8672	0.1489
353.0762	0.1508
353.2852	0.1474
353.4942	0.1363
353.7032	0.1552
353.9121	0.1405
354.1211	0.1554
354.33	0.1464
354.5389	0.1464
354.7478	0.1468
354.9567	0.15
355.1655	0.1352
355.3744	0.1619
355.5833	0.1596
355.7921	0.1644
356.0009	0.1654
356.2097	0.1729
356.4185	0.1728
356.6273	0.1542
356.8361	0.1589
357.0448	0.1458
357.2536	0.1518
357.4623	0.156
357.671	0.1589
357.8797	0.1644
358.0884	0.1694
358.2971	0.1604
358.5057	0.1572
358.7144	0.1743
358.923	0.1622
359.1316	0.1764
359.3402	0.1744
359.5488	0.1751
359.7574	0.1617
359.966	0.1836
360.1746	0.1966
360.3831	0.1657
360.5916	0.1727
360.8002	0.1653
361.0087	0.171
361.2172	0.1791
361.4256	0.1779
361.6341	0.1813
361.8426	0.1658
362.051	0.193
362.2594	0.1814
362.4678	0.175
362.6762	0.195
362.8846	0.18
363.093	0.1789
363.3014	0.1925
363.5097	0.1838
363.718	0.1783
363.9264	0.1799
364.1347	0.1749
364.343	0.1919
364.5513	0.198
364.7595	0.1882
364.9678	0.1831
365.176	0.1883
365.3842	0.1912
365.5925	0.1899
365.8007	0.1949
366.0089	0.1984
366.217	0.1831
366.4252	0.2165
366.6333	0.2077
366.8415	0.2106
367.0496	0.1881
367.2577	0.2191
367.4658	0.2223
367.6739	0.2029
367.882	0.2325
368.09	0.1996
368.2981	0.2117
368.5061	0.1956
368.7141	0.2018
368.9221	0.2099
369.1301	0.2124
369.3381	0.1934
369.5461	0.2006
369.754	0.2288
369.962	0.2145
370.1699	0.209
370.3778	0.2251
370.5857	0.1875
370.7936	0.2221
371.0015	0.223
371.2093	0.2114
371.4172	0.2144
371.625	0.2159
371.8328	0.2255
372.0406	0.219
372.2484	0.2185
372.4562	0.2201
372.664	0.2339
372.8717	0.225
373.0795	0.195
373.2872	0.2052
373.4949	0.2175
373.7026	0.2365
373.9103	0.2307
374.118	0.2326
374.3256	0.2192
374.5333	0.2248
374.7409	0.2332
374.9485	0.2416
375.1561	0.2204
375.3637	0.2387
375.5713	0.2217
375.7789	0.2292
375.9864	0.2251
376.194	0.2298
376.4015	0.2459
376.609	0.2383
376.8165	0.2295
377.024	0.2335
377.2315	0.2243
377.4389	0.2267
377.6464	0.2374
377.8538	0.2399
378.0612	0.2394
378.2686	0.2313
378.476	0.2527
378.6834	0.2467
378.8908	0.2416
379.0981	0.2342
379.3055	0.2493
379.5128	0.2239
379.7201	0.2319
379.9274	0.247
380.1347	0.2316
380.342	0.2676
380.5492	0.2486
380.7565	0.2364
380.9637	0.2686
381.1709	0.2348
381.3781	0.2514
381.5853	0.2576
381.7925	0.2471
381.9997	0.2526
382.2068	0.2646
382.4139	0.2454
382.6211	0.2499
382.8282	0.2587
383.0353	0.2446
383.2424	0.2307
383.4494	0.2444
383.6565	0.24
383.8635	0.2538
384.0706	0.258
384.2776	0.2571
384.4846	0.2468
384.6916	0.2567
384.8986	0.2543
385.1055	0.251
385.3125	0.2609
385.5194	0.2497
385.7263	0.259
385.9333	0.2566
386.1402	0.2527
386.347	0.2386
386.5539	0.2451
386.7608	0.2702
386.9676	0.2344
387.1744	0.2567
387.3813	0.2458
387.5881	0.258
387.7948	0.2478
388.0016	0.2495
388.2084	0.2569
388.4151	0.2375
388.6219	0.2547
388.8286	0.252
389.0353	0.248
389.242	0.2475
389.4487	0.2443
389.6553	0.2296
389.862	0.2173
390.0686	0.2307
390.2753	0.2447
390.4819	0.2461
390.6885	0.2393
390.8951	0.2427
391.1016	0.2344
391.3082	0.2282
391.5147	0.238
391.7213	0.2247
391.9278	0.2287
392.1343	0.2287
392.3408	0.2323
392.5473	0.2243
392.7537	0.2185
392.9602	0.2201
393.1666	0.2295
393.373	0.228
393.5794	0.2333
393.7858	0.2306
393.9922	0.2044
394.1986	0.2275
394.4049	0.2348
394.6113	0.2044
394.8176	0.2171
395.0239	0.2343
395.2302	0.2192
395.4365	0.2228
395.6428	0.2364
395.8491	0.2083
396.0553	0.2189
396.2615	0.2152
396.4678	0.214
396.674	0.2131
396.8802	0.2216
397.0863	0.2346
397.2925	0.209
397.4987	0.2183
397.7048	0.1968
397.9109	0.2119
398.117	0.2076
398.3231	0.2009
398.5292	0.2152
398.7353	0.217
398.9413	0.2042
399.1474	0.2174
399.3534	0.2167
399.5594	0.1892
399.7654	0.2097
399.9714	0.2235
400.1774	0.2019
400.3833	0.2087
400.5893	0.2046
400.7952	0.1954
401.0011	0.2124
401.207	0.2168
401.4129	0.2001
401.6188	0.2233
401.8247	0.2021
402.0305	0.2083
402.2364	0.2226
402.4422	0.2302
402.648	0.2158
402.8538	0.2239
403.0596	0.1912
403.2654	0.2166
403.4711	0.1896
403.6768	0.2209
403.8826	0.2201
404.0883	0.2038
404.294	0.2278
404.4997	0.2073
404.7054	0.2192
404.911	0.1898
405.1167	0.2072
405.3223	0.2269
405.5279	0.2208
405.7335	0.2255
405.9391	0.2158
406.1447	0.2092
406.3502	0.2251
406.5558	0.2094
406.7613	0.2142
406.9668	0.2141
407.1724	0.1998
407.3778	0.2076
407.5833	0.2004
407.7888	0.2015
407.9942	0.2156
408.1997	0.1981
408.4051	0.208
408.6105	0.2114
408.8159	0.1994
409.0213	0.2039
409.2267	0.2166
409.432	0.1924
409.6374	0.2044
409.8427	0.1937
410.048	0.2095
410.2533	0.2343
410.4586	0.1979
410.6639	0.1775
410.8691	0.1865
411.0744	0.2057
411.2796	0.1896
411.4848	0.1981
411.69	0.1968
411.8952	0.2052
412.1004	0.1957
412.3056	0.2085
412.5107	0.1978
412.7158	0.2154
412.921	0.2059
413.1261	0.1968
413.3312	0.1985
413.5362	0.2032
413.7413	0.1932
413.9464	0.2047
414.1514	0.1913
414.3564	0.1941
414.5614	0.1852
414.7664	0.1985
414.9714	0.2033
415.1764	0.2062
415.3813	0.2297
415.5863	0.1934
415.7912	0.2103
415.9961	0.2163
416.201	0.1973
416.4059	0.2088
416.6108	0.198
416.8156	0.202
417.0205	0.1938
417.2253	0.1804
417.4301	0.2061
417.6349	0.1846
417.8397	0.191
418.0445	0.2232
418.2492	0.2036
418.454	0.194
418.6587	0.1865
418.8634	0.1849
419.0681	0.1956
419.2728	0.2051
419.4775	0.1844
419.6822	0.1769
419.8868	0.1722
420.0915	0.1892
420.2961	0.1726
420.5007	0.1688
420.7053	0.1891
420.9099	0.2033
421.1144	0.1909
421.319	0.1805
421.5235	0.1754
421.728	0.19
421.9325	0.1923
422.137	0.2025
422.3415	0.1744
422.546	0.1896
422.7504	0.1801
422.9549	0.1733
423.1593	0.192
423.3637	0.2003
423.5681	0.1901
423.7725	0.1725
423.9769	0.1678
424.1812	0.1625
424.3856	0.1734
424.5899	0.1842
424.7942	0.1666
424.9985	0.1644
425.2028	0.1685
425.4071	0.1902
425.6113	0.1656
425.8156	0.1906
426.0198	0.1868
426.224	0.1434
