Data from MonoPyChalIsomerACN10uM350nmA_Absorbance_14-35-38-915.txt Node
Date: Fri Jul 05 14:35:38 BST 2024
User: LASERRRRR
Spectrometer: FLMT03099
Trigger mode: 0
Integration Time (sec): 1.000000E-1
Scans to average: 1
Electric dark correction enabled: true
Nonlinearity correction enabled: false
Boxcar width: 0
XAxis mode: Wavelengths
Number of Pixels in Spectrum: 3648
>>>>>Begin Spectral Data<<<<<
179.3399	0.0335
179.5586	0.0335
179.7771	0.0335
179.9957	-0.0427
180.2143	-0
180.4329	-0.348
180.6514	-0
180.8699	-0
181.0885	-0.0293
181.307	0.1906
181.5255	-0
181.744	-0.7773
181.9625	-0
182.181	-0
182.3994	0.8862
182.6179	-0
182.8363	0.4913
183.0547	-0
183.2732	0.056
183.4916	0.083
183.71	0.0328
183.9284	0.2293
184.1467	0.1041
184.3651	0.0673
184.5835	-0.0587
184.8018	0.0888
185.0201	0.0521
185.2385	0.1102
185.4568	0.0399
185.6751	0.0304
185.8934	0.1991
186.1117	-0.0034
186.3299	0.1836
186.5482	0.174
186.7664	-0.1268
186.9847	-0.0042
187.2029	-0.0634
187.4211	0.0099
187.6393	0.2906
187.8575	-0.0054
188.0757	0.1719
188.2939	0.0279
188.512	-0.0993
188.7302	0.1535
188.9483	0.1339
189.1665	0.1313
189.3846	-0
189.6027	0.41
189.8208	0.3486
190.0389	0.1015
190.257	-0.0607
190.475	0.223
190.6931	0.1927
190.9111	0.2676
191.1292	0.0849
191.3472	0.4672
191.5652	0.3143
191.7832	0.2511
192.0012	0.4922
192.2192	0.3295
192.4371	0.8177
192.6551	0.3876
192.873	0.4167
193.091	0.4533
193.3089	0.363
193.5268	0.5792
193.7447	0.7087
193.9626	0.4462
194.1805	0.7893
194.3984	0.9294
194.6162	0.5598
194.8341	0.5682
195.0519	0.4872
195.2697	0.8681
195.4875	0.4758
195.7054	0.4954
195.9231	0.5819
196.1409	0.6019
196.3587	0.5057
196.5765	0.6319
196.7942	0.681
197.012	0.5152
197.2297	0.6029
197.4474	0.7617
197.6651	0.5171
197.8828	0.6546
198.1005	0.5868
198.3182	0.6624
198.5358	0.6659
198.7535	0.5499
198.9711	0.4584
199.1888	0.5896
199.4064	0.808
199.624	0.5351
199.8416	0.5483
200.0592	0.5962
200.2767	0.7218
200.4943	0.7351
200.7119	0.6243
200.9294	0.6725
201.1469	0.6334
201.3645	0.642
201.582	0.6007
201.7995	0.6347
202.017	0.6207
202.2344	0.5709
202.4519	0.6486
202.6694	0.6792
202.8868	0.6036
203.1042	0.753
203.3217	0.6343
203.5391	0.6674
203.7565	0.6263
203.9739	0.6519
204.1913	0.62
204.4086	0.525
204.626	0.7414
204.8433	0.7418
205.0607	0.6025
205.278	0.5846
205.4953	0.642
205.7126	0.5925
205.9299	0.819
206.1472	0.6415
206.3644	0.587
206.5817	0.6127
206.7989	0.6855
207.0162	0.7337
207.2334	0.7067
207.4506	0.649
207.6678	0.6458
207.885	0.6719
208.1022	0.6296
208.3194	0.6846
208.5365	0.7111
208.7537	0.6368
208.9708	0.6058
209.1879	0.7271
209.405	0.6592
209.6222	0.6485
209.8392	0.6708
210.0563	0.6445
210.2734	0.6705
210.4905	0.6687
210.7075	0.6927
210.9245	0.5424
211.1416	0.7089
211.3586	0.6084
211.5756	0.5708
211.7926	0.5482
212.0096	0.6065
212.2265	0.6215
212.4435	0.5098
212.6604	0.621
212.8774	0.5593
213.0943	0.6281
213.3112	0.5607
213.5281	0.5181
213.745	0.4967
213.9619	0.4675
214.1788	0.4853
214.3956	0.5045
214.6125	0.4438
214.8293	0.437
215.0461	0.4719
215.2629	0.4481
215.4798	0.455
215.6965	0.444
215.9133	0.4518
216.1301	0.3837
216.3469	0.4151
216.5636	0.4095
216.7803	0.37
216.9971	0.39
217.2138	0.3788
217.4305	0.3654
217.6472	0.3428
217.8639	0.3723
218.0805	0.3246
218.2972	0.3076
218.5138	0.3155
218.7305	0.318
218.9471	0.3073
219.1637	0.2776
219.3803	0.2866
219.5969	0.2765
219.8135	0.2697
220.0301	0.2756
220.2466	0.2633
220.4632	0.2518
220.6797	0.2206
220.8962	0.252
221.1127	0.2684
221.3292	0.2349
221.5457	0.2382
221.7622	0.2125
221.9787	0.2431
222.1951	0.2433
222.4116	0.2503
222.628	0.2436
222.8444	0.2588
223.0608	0.2535
223.2772	0.2407
223.4936	0.2518
223.71	0.2471
223.9264	0.2706
224.1427	0.2326
224.3591	0.2433
224.5754	0.2457
224.7917	0.2403
225.008	0.2538
225.2243	0.2525
225.4406	0.2776
225.6569	0.2582
225.8732	0.2569
226.0894	0.2562
226.3057	0.2704
226.5219	0.2925
226.7381	0.2625
226.9543	0.2618
227.1705	0.2738
227.3867	0.2783
227.6029	0.2902
227.8191	0.3254
228.0352	0.3002
228.2513	0.2943
228.4675	0.3125
228.6836	0.3084
228.8997	0.3005
229.1158	0.3009
229.3319	0.3174
229.548	0.3078
229.764	0.3116
229.9801	0.32
230.1961	0.3241
230.4121	0.3201
230.6282	0.3325
230.8442	0.338
231.0602	0.347
231.2761	0.3413
231.4921	0.3376
231.7081	0.3622
231.924	0.3496
232.14	0.3522
232.3559	0.341
232.5718	0.3687
232.7877	0.3555
233.0036	0.348
233.2195	0.3556
233.4353	0.3522
233.6512	0.361
233.867	0.3532
234.0829	0.3621
234.2987	0.3578
234.5145	0.3914
234.7303	0.3767
234.9461	0.3892
235.1619	0.389
235.3776	0.385
235.5934	0.3747
235.8091	0.385
236.0249	0.3725
236.2406	0.3704
236.4563	0.3701
236.672	0.4018
236.8877	0.4102
237.1034	0.3973
237.319	0.387
237.5347	0.4124
237.7503	0.3981
237.966	0.3972
238.1816	0.4069
238.3972	0.4088
238.6128	0.4098
238.8284	0.4007
239.0439	0.4098
239.2595	0.3973
239.475	0.402
239.6906	0.4225
239.9061	0.3839
240.1216	0.4021
240.3371	0.3981
240.5526	0.3854
240.7681	0.4032
240.9836	0.3739
241.199	0.4082
241.4145	0.3979
241.6299	0.386
241.8453	0.3884
242.0607	0.3881
242.2761	0.3664
242.4915	0.3713
242.7069	0.3669
242.9223	0.3633
243.1376	0.351
243.353	0.3585
243.5683	0.3606
243.7836	0.3292
243.9989	0.3375
244.2142	0.3083
244.4295	0.3158
244.6448	0.2945
244.86	0.3006
245.0753	0.2944
245.2905	0.2847
245.5057	0.2779
245.721	0.2765
245.9362	0.2771
246.1514	0.2757
246.3665	0.255
246.5817	0.2412
246.7969	0.2564
247.012	0.2665
247.2271	0.2435
247.4423	0.2497
247.6574	0.2369
247.8725	0.226
248.0876	0.2403
248.3026	0.2194
248.5177	0.219
248.7328	0.2013
248.9478	0.2116
249.1628	0.2398
249.3779	0.2085
249.5929	0.2081
249.8079	0.2147
250.0228	0.2048
250.2378	0.2137
250.4528	0.1966
250.6677	0.1955
250.8827	0.1989
251.0976	0.1768
251.3125	0.194
251.5274	0.1767
251.7423	0.1878
251.9572	0.1847
252.172	0.1731
252.3869	0.1878
252.6017	0.1837
252.8166	0.1765
253.0314	0.1648
253.2462	0.1781
253.461	0.1916
253.6758	0.1615
253.8906	0.1729
254.1053	0.1719
254.3201	0.159
254.5348	0.1777
254.7496	0.1867
254.9643	0.1738
255.179	0.1774
255.3937	0.1639
255.6083	0.1703
255.823	0.171
256.0377	0.1658
256.2523	0.175
256.467	0.1563
256.6816	0.162
256.8962	0.1697
257.1108	0.1679
257.3254	0.1648
257.54	0.166
257.7545	0.166
257.9691	0.1634
258.1836	0.1754
258.3981	0.1671
258.6127	0.1781
258.8272	0.1708
259.0417	0.1631
259.2561	0.1612
259.4706	0.1735
259.6851	0.1647
259.8995	0.1636
260.114	0.1677
260.3284	0.1731
260.5428	0.1608
260.7572	0.1691
260.9716	0.1644
261.186	0.1557
261.4003	0.1711
261.6147	0.1704
261.829	0.165
262.0433	0.1735
262.2577	0.1595
262.472	0.1705
262.6863	0.1663
262.9005	0.1741
263.1148	0.1553
263.3291	0.148
263.5433	0.16
263.7576	0.1567
263.9718	0.1691
264.186	0.1615
264.4002	0.155
264.6144	0.1656
264.8286	0.1743
265.0427	0.155
265.2569	0.1587
265.471	0.1543
265.6851	0.1532
265.8993	0.1667
266.1134	0.1609
266.3275	0.1623
266.5415	0.15
266.7556	0.1745
266.9697	0.1658
267.1837	0.1563
267.3978	0.1565
267.6118	0.1703
267.8258	0.172
268.0398	0.1514
268.2538	0.1544
268.4677	0.1645
268.6817	0.1575
268.8957	0.1558
269.1096	0.1587
269.3235	0.1547
269.5374	0.1609
269.7514	0.1551
269.9652	0.1518
270.1791	0.1486
270.393	0.1522
270.6068	0.1452
270.8207	0.156
271.0345	0.1535
271.2483	0.1574
271.4622	0.1327
271.676	0.1552
271.8897	0.143
272.1035	0.1377
272.3173	0.1363
272.531	0.1399
272.7448	0.1489
272.9585	0.1359
273.1722	0.1618
273.3859	0.1486
273.5996	0.142
273.8133	0.1482
274.0269	0.138
274.2406	0.135
274.4542	0.1456
274.6679	0.1345
274.8815	0.1413
275.0951	0.1579
275.3087	0.1593
275.5223	0.1551
275.7358	0.1475
275.9494	0.148
276.1629	0.1426
276.3765	0.1393
276.59	0.1472
276.8035	0.1418
277.017	0.1468
277.2305	0.1382
277.444	0.1546
277.6574	0.1459
277.8709	0.157
278.0843	0.1539
278.2978	0.1477
278.5112	0.1486
278.7246	0.151
278.938	0.1494
279.1513	0.1606
279.3647	0.1568
279.5781	0.1498
279.7914	0.143
280.0047	0.156
280.2181	0.1529
280.4314	0.1606
280.6447	0.1539
280.8579	0.1443
281.0712	0.1568
281.2845	0.1548
281.4977	0.1499
281.711	0.1448
281.9242	0.1633
282.1374	0.1591
282.3506	0.146
282.5638	0.161
282.7769	0.16
282.9901	0.148
283.2033	0.162
283.4164	0.1573
283.6295	0.1549
283.8426	0.1463
284.0557	0.1653
284.2688	0.1504
284.4819	0.1568
284.695	0.155
284.908	0.1593
285.1211	0.1538
285.3341	0.1706
285.5471	0.1651
285.7601	0.1554
285.9731	0.1516
286.1861	0.1504
286.3991	0.1614
286.612	0.1664
286.825	0.1589
287.0379	0.1704
287.2508	0.149
287.4637	0.1561
287.6766	0.1499
287.8895	0.1678
288.1024	0.188
288.3152	0.1602
288.5281	0.1537
288.7409	0.1627
288.9538	0.1695
289.1666	0.1519
289.3794	0.1668
289.5922	0.1617
289.8049	0.1652
290.0177	0.1627
290.2304	0.1618
290.4432	0.1604
290.6559	0.1705
290.8686	0.1659
291.0813	0.1629
291.294	0.172
291.5067	0.1608
291.7194	0.1579
291.932	0.163
292.1447	0.1573
292.3573	0.1528
292.5699	0.1674
292.7825	0.1607
292.9951	0.1623
293.2077	0.1688
293.4203	0.1594
293.6328	0.1535
293.8454	0.1686
294.0579	0.1662
294.2704	0.1645
294.4829	0.1522
294.6954	0.1661
294.9079	0.1662
295.1204	0.1725
295.3328	0.1661
295.5453	0.1605
295.7577	0.1674
295.9701	0.1606
296.1825	0.1629
296.3949	0.1588
296.6073	0.1644
296.8197	0.1532
297.0321	0.1777
297.2444	0.1574
297.4567	0.1649
297.6691	0.1608
297.8814	0.1587
298.0937	0.1616
298.306	0.1619
298.5182	0.1628
298.7305	0.1655
298.9428	0.1592
299.155	0.1687
299.3672	0.1593
299.5794	0.165
299.7916	0.1584
300.0038	0.1617
300.216	0.162
300.4282	0.1761
300.6403	0.1555
300.8525	0.1682
301.0646	0.1601
301.2767	0.1528
301.4888	0.1654
301.7009	0.1649
301.913	0.16
302.125	0.1732
302.3371	0.1542
302.5491	0.1609
302.7612	0.176
302.9732	0.1679
303.1852	0.1613
303.3972	0.1541
303.6092	0.159
303.8211	0.1537
304.0331	0.1562
304.245	0.1526
304.457	0.1528
304.6689	0.1487
304.8808	0.1714
305.0927	0.1549
305.3046	0.1532
305.5164	0.159
305.7283	0.1527
305.9401	0.1563
306.152	0.1457
306.3638	0.1612
306.5756	0.1495
306.7874	0.1368
306.9992	0.149
307.2109	0.1417
307.4227	0.1272
307.6344	0.1336
307.8462	0.1345
308.0579	0.1393
308.2696	0.1255
308.4813	0.1234
308.693	0.1371
308.9046	0.1404
309.1163	0.1356
309.328	0.1315
309.5396	0.1269
309.7512	0.1198
309.9628	0.1205
310.1744	0.1264
310.386	0.1214
310.5976	0.1141
310.8091	0.1198
311.0207	0.1174
311.2322	0.1241
311.4437	0.1146
311.6552	0.1139
311.8667	0.1252
312.0782	0.1005
312.2897	0.1118
312.5012	0.1164
312.7126	0.1057
312.924	0.1057
313.1355	0.1187
313.3469	0.1146
313.5583	0.1112
313.7696	0.1056
313.981	0.117
314.1924	0.115
314.4037	0.1071
314.6151	0.1168
314.8264	0.0904
315.0377	0.1035
315.249	0.1037
315.4603	0.0994
315.6716	0.0968
315.8828	0.0964
316.0941	0.1036
316.3053	0.0939
316.5165	0.0997
316.7277	0.0891
316.9389	0.1005
317.1501	0.1015
317.3613	0.0987
317.5724	0.0892
317.7836	0.092
317.9947	0.0965
318.2058	0.0943
318.417	0.0919
318.6281	0.0888
318.8391	0.094
319.0502	0.099
319.2613	0.1032
319.4723	0.1061
319.6834	0.0955
319.8944	0.0962
320.1054	0.0976
320.3164	0.0943
320.5274	0.0908
320.7383	0.1064
320.9493	0.0985
321.1602	0.1159
321.3712	0.09
321.5821	0.0885
321.793	0.0992
322.0039	0.0956
322.2148	0.1039
322.4257	0.1015
322.6365	0.1008
322.8474	0.1064
323.0582	0.1054
323.269	0.1041
323.4798	0.1118
323.6906	0.1127
323.9014	0.0921
324.1122	0.1069
324.3229	0.0968
324.5337	0.0878
324.7444	0.099
324.9551	0.1122
325.1658	0.1114
325.3765	0.1095
325.5872	0.1016
325.7979	0.0892
326.0085	0.0999
326.2192	0.1177
326.4298	0.1101
326.6404	0.0954
326.851	0.0966
327.0616	0.103
327.2722	0.1042
327.4828	0.1069
327.6933	0.1088
327.9039	0.1134
328.1144	0.1198
328.3249	0.1033
328.5354	0.1026
328.7459	0.1115
328.9564	0.0985
329.1669	0.0942
329.3773	0.1028
329.5878	0.1058
329.7982	0.1121
330.0086	0.1037
330.219	0.0997
330.4294	0.1051
330.6398	0.1058
330.8502	0.1009
331.0605	0.1165
331.2708	0.1111
331.4812	0.1076
331.6915	0.1122
331.9018	0.0999
332.1121	0.0926
332.3224	0.1029
332.5326	0.1135
332.7429	0.1101
332.9531	0.1186
333.1633	0.1152
333.3735	0.109
333.5837	0.1171
333.7939	0.0911
334.0041	0.1188
334.2143	0.1206
334.4244	0.1157
334.6346	0.0867
334.8447	0.1235
335.0548	0.1003
335.2649	0.0941
335.475	0.1151
335.685	0.0947
335.8951	0.1087
336.1051	0.1062
336.3152	0.1265
336.5252	0.1125
336.7352	0.12
336.9452	0.1179
337.1552	0.1116
337.3652	0.1094
337.5751	0.1105
337.7851	0.1118
337.995	0.1067
338.2049	0.1131
338.4148	0.1144
338.6247	0.114
338.8346	0.1072
339.0445	0.1073
339.2543	0.1169
339.4642	0.1163
339.674	0.1034
339.8838	0.1111
340.0936	0.118
340.3034	0.1363
340.5132	0.1102
340.7229	0.1308
340.9327	0.112
341.1424	0.1129
341.3522	0.1316
341.5619	0.12
341.7716	0.1281
341.9813	0.1205
342.1909	0.1244
342.4006	0.1342
342.6102	0.1281
342.8199	0.1272
343.0295	0.1215
343.2391	0.1205
343.4487	0.1258
343.6583	0.1238
343.8679	0.126
344.0774	0.1295
344.287	0.1281
344.4965	0.1218
344.706	0.1273
344.9155	0.1242
345.125	0.128
345.3345	0.1266
345.544	0.1267
345.7534	0.1352
345.9629	0.1165
346.1723	0.1396
346.3817	0.1238
346.5911	0.1478
346.8005	0.1383
347.0099	0.1322
347.2193	0.142
347.4286	0.1303
347.638	0.1286
347.8473	0.1395
348.0566	0.1331
348.2659	0.1351
348.4752	0.1381
348.6845	0.1433
348.8937	0.13
349.103	0.1299
349.3122	0.1207
349.5214	0.1317
349.7306	0.1273
349.9398	0.1388
350.149	0.1483
350.3582	0.1391
350.5674	0.1489
350.7765	0.1497
350.9856	0.1468
351.1948	0.1465
351.4039	0.136
351.613	0.1467
351.822	0.1464
352.0311	0.1426
352.2402	0.1412
352.4492	0.1554
352.6582	0.1634
352.8672	0.1567
353.0762	0.1455
353.2852	0.1454
353.4942	0.1421
353.7032	0.1439
353.9121	0.1581
354.1211	0.152
354.33	0.1505
354.5389	0.148
354.7478	0.1577
354.9567	0.1516
355.1655	0.1342
355.3744	0.1567
355.5833	0.1582
355.7921	0.1667
356.0009	0.1653
356.2097	0.1726
356.4185	0.1581
356.6273	0.1714
356.8361	0.1601
357.0448	0.1473
357.2536	0.1514
357.4623	0.1598
357.671	0.1551
357.8797	0.1646
358.0884	0.1646
358.2971	0.1506
358.5057	0.1586
358.7144	0.171
358.923	0.1575
359.1316	0.1847
359.3402	0.1699
359.5488	0.1593
359.7574	0.161
359.966	0.1811
360.1746	0.1739
360.3831	0.1713
360.5916	0.1687
360.8002	0.1631
361.0087	0.1794
361.2172	0.1856
361.4256	0.1709
361.6341	0.1821
361.8426	0.1766
362.051	0.1884
362.2594	0.194
362.4678	0.1806
362.6762	0.1983
362.8846	0.1699
363.093	0.1839
363.3014	0.1763
363.5097	0.1761
363.718	0.1807
363.9264	0.1783
364.1347	0.1876
364.343	0.1913
364.5513	0.1957
364.7595	0.1899
364.9678	0.1936
365.176	0.1973
365.3842	0.1943
365.5925	0.2037
365.8007	0.192
366.0089	0.1925
366.217	0.2036
366.4252	0.2016
366.6333	0.2002
366.8415	0.2025
367.0496	0.1959
367.2577	0.2116
367.4658	0.2143
367.6739	0.2036
367.882	0.2042
368.09	0.201
368.2981	0.2199
368.5061	0.2064
368.7141	0.2096
368.9221	0.218
369.1301	0.2047
369.3381	0.1865
369.5461	0.2139
369.754	0.2026
369.962	0.2232
370.1699	0.2213
370.3778	0.2229
370.5857	0.1978
370.7936	0.2309
371.0015	0.2202
371.2093	0.2121
371.4172	0.2213
371.625	0.2193
371.8328	0.2031
372.0406	0.2193
372.2484	0.2295
372.4562	0.2214
372.664	0.2122
372.8717	0.2295
373.0795	0.2041
373.2872	0.2156
373.4949	0.219
373.7026	0.2145
373.9103	0.2198
374.118	0.2238
374.3256	0.2298
374.5333	0.2351
374.7409	0.2295
374.9485	0.2337
375.1561	0.2301
375.3637	0.2342
375.5713	0.235
375.7789	0.239
375.9864	0.23
376.194	0.2321
376.4015	0.2604
376.609	0.2327
376.8165	0.2332
377.024	0.2313
377.2315	0.2233
377.4389	0.2201
377.6464	0.2385
377.8538	0.2446
378.0612	0.2417
378.2686	0.2402
378.476	0.2499
378.6834	0.2389
378.8908	0.2311
379.0981	0.2474
379.3055	0.2441
379.5128	0.2346
379.7201	0.2338
379.9274	0.2434
380.1347	0.2445
380.342	0.2599
380.5492	0.2547
380.7565	0.254
380.9637	0.2448
381.1709	0.2358
381.3781	0.2431
381.5853	0.2625
381.7925	0.2487
381.9997	0.2636
382.2068	0.2486
382.4139	0.2565
382.6211	0.2458
382.8282	0.2495
383.0353	0.2495
383.2424	0.2466
383.4494	0.2572
383.6565	0.2444
383.8635	0.2508
384.0706	0.2562
384.2776	0.2605
384.4846	0.2455
384.6916	0.2405
384.8986	0.263
385.1055	0.2521
385.3125	0.2652
385.5194	0.2395
385.7263	0.257
385.9333	0.2475
386.1402	0.2523
386.347	0.2457
386.5539	0.2525
386.7608	0.2735
386.9676	0.2385
387.1744	0.246
387.3813	0.2437
387.5881	0.2512
387.7948	0.228
388.0016	0.2382
388.2084	0.2492
388.4151	0.246
388.6219	0.2536
388.8286	0.2475
389.0353	0.2619
389.242	0.2572
389.4487	0.2357
389.6553	0.2292
389.862	0.2349
390.0686	0.2168
390.2753	0.2607
390.4819	0.2413
390.6885	0.2406
390.8951	0.2493
391.1016	0.2409
391.3082	0.2276
391.5147	0.2413
391.7213	0.2405
391.9278	0.2266
392.1343	0.2266
392.3408	0.2178
392.5473	0.228
392.7537	0.2246
392.9602	0.2228
393.1666	0.2348
393.373	0.2428
393.5794	0.2166
393.7858	0.2383
393.9922	0.225
394.1986	0.2221
394.4049	0.225
394.6113	0.2215
394.8176	0.2058
395.0239	0.2323
395.2302	0.2205
395.4365	0.2208
395.6428	0.2132
395.8491	0.1914
396.0553	0.2087
396.2615	0.2277
396.4678	0.2202
396.674	0.2132
396.8802	0.2031
397.0863	0.2169
397.2925	0.1949
397.4987	0.2087
397.7048	0.2098
397.9109	0.23
398.117	0.2107
398.3231	0.209
398.5292	0.2163
398.7353	0.2199
398.9413	0.1944
399.1474	0.2087
399.3534	0.2004
399.5594	0.1905
399.7654	0.2106
399.9714	0.2301
400.1774	0.2091
400.3833	0.1966
400.5893	0.2143
400.7952	0.2066
401.0011	0.2123
401.207	0.2035
401.4129	0.2084
401.6188	0.221
401.8247	0.2186
402.0305	0.1972
402.2364	0.2141
402.4422	0.2222
402.648	0.1981
402.8538	0.227
403.0596	0.192
403.2654	0.219
403.4711	0.1942
403.6768	0.2191
403.8826	0.2132
404.0883	0.2173
404.294	0.2079
404.4997	0.2056
404.7054	0.1994
404.911	0.2042
405.1167	0.2032
405.3223	0.2256
405.5279	0.2231
405.7335	0.2162
405.9391	0.2207
406.1447	0.2053
406.3502	0.2333
406.5558	0.2027
406.7613	0.2209
406.9668	0.2117
407.1724	0.2098
407.3778	0.1983
407.5833	0.2058
407.7888	0.2083
407.9942	0.2127
408.1997	0.2232
408.4051	0.2158
408.6105	0.2176
408.8159	0.192
409.0213	0.209
409.2267	0.2213
409.432	0.1978
409.6374	0.2114
409.8427	0.2135
410.048	0.2218
410.2533	0.1934
410.4586	0.2095
410.6639	0.2139
410.8691	0.2053
411.0744	0.2179
411.2796	0.181
411.4848	0.2169
411.69	0.1954
411.8952	0.2123
412.1004	0.1928
412.3056	0.2182
412.5107	0.2068
412.7158	0.2101
412.921	0.1926
413.1261	0.2054
413.3312	0.2126
413.5362	0.199
413.7413	0.2035
413.9464	0.1939
414.1514	0.1933
414.3564	0.2172
414.5614	0.1699
414.7664	0.2123
414.9714	0.2047
415.1764	0.1984
415.3813	0.2062
415.5863	0.1918
415.7912	0.1907
415.9961	0.1951
416.201	0.2008
416.4059	0.1961
416.6108	0.1948
416.8156	0.1929
417.0205	0.2048
417.2253	0.1999
417.4301	0.2026
417.6349	0.1941
417.8397	0.1914
418.0445	0.2009
418.2492	0.1971
418.454	0.1939
418.6587	0.1994
418.8634	0.2106
419.0681	0.1916
419.2728	0.1915
419.4775	0.1831
419.6822	0.1907
419.8868	0.1797
420.0915	0.1866
420.2961	0.1887
420.5007	0.1976
420.7053	0.2047
420.9099	0.1913
421.1144	0.1747
421.319	0.1725
421.5235	0.1847
421.728	0.1847
421.9325	0.1866
422.137	0.205
422.3415	0.1773
422.546	0.1927
422.7504	0.1747
422.9549	0.1779
423.1593	0.1819
423.3637	0.1868
423.5681	0.1769
423.7725	0.1851
423.9769	0.1668
424.1812	0.1778
424.3856	0.1795
424.5899	0.1856
424.7942	0.1951
424.9985	0.184
425.2028	0.1698
425.4071	0.1915
425.6113	0.1775
425.8156	0.1881
426.0198	0.1697
426.224	0.1489
426.4282	0.1644
426.6324	0.1547
426.8366	0.1523
427.0407	0.1505
