Data from MonoPyChalIsomerACN10uM350nmA_Absorbance_14-35-39-116.txt Node
Date: Fri Jul 05 14:35:39 BST 2024
User: LASERRRRR
Spectrometer: FLMT03099
Trigger mode: 0
Integration Time (sec): 1.000000E-1
Scans to average: 1
Electric dark correction enabled: true
Nonlinearity correction enabled: false
Boxcar width: 0
XAxis mode: Wavelengths
Number of Pixels in Spectrum: 3648
>>>>>Begin Spectral Data<<<<<
179.3399	-0
179.5586	-0
179.7771	-0
179.9957	-0
180.2143	-0
180.4329	-0.3053
180.6514	0.2088
180.8699	-0
181.0885	-0.2343
181.307	0.0789
181.5255	-0.8944
181.744	0.1214
181.9625	-0
182.181	-0
182.3994	-0
182.6179	-0
182.8363	-0.2642
183.0547	-0.1669
183.2732	0.16
183.4916	0.4626
183.71	0.1719
183.9284	0.0521
184.1467	-0.0397
184.3651	0.2208
184.5835	0.1712
184.8018	0.044
185.0201	-0.1461
185.2385	-0.069
185.4568	1.0184
185.6751	0.145
185.8934	0.0873
186.1117	0.1365
186.3299	0.1632
186.5482	0.2565
186.7664	0.0522
186.9847	0.025
187.2029	0.0643
187.4211	-0.1054
187.6393	0.3037
187.8575	-0.0744
188.0757	0.3142
188.2939	0.1033
188.512	0.0362
188.7302	-0.1784
188.9483	-0.0794
189.1665	0.3478
189.3846	0.3927
189.6027	0.1623
189.8208	0.1242
190.0389	0.0439
190.257	0.2627
190.475	0.415
190.6931	0.0638
190.9111	0.5551
191.1292	0.1353
191.3472	0.4298
191.5652	0.2098
191.7832	0.2338
192.0012	0.3981
192.2192	0.2499
192.4371	0.5373
192.6551	0.3233
192.873	0.4886
193.091	0.3861
193.3089	0.5688
193.5268	0.5004
193.7447	0.5011
193.9626	0.3975
194.1805	0.689
194.3984	1.1628
194.6162	0.6441
194.8341	0.6812
195.0519	0.6143
195.2697	0.564
195.4875	0.5855
195.7054	0.5417
195.9231	0.7093
196.1409	0.4845
196.3587	0.4872
196.5765	0.5484
196.7942	0.6152
197.012	0.4268
197.2297	0.5697
197.4474	0.7399
197.6651	0.4696
197.8828	0.5052
198.1005	0.5638
198.3182	0.5886
198.5358	0.7988
198.7535	0.4745
198.9711	0.5477
199.1888	0.5796
199.4064	0.677
199.624	0.5676
199.8416	0.6447
200.0592	0.675
200.2767	0.6179
200.4943	0.6863
200.7119	0.6983
200.9294	0.5855
201.1469	0.5281
201.3645	0.5156
201.582	0.5629
201.7995	0.7711
202.017	0.6631
202.2344	0.5912
202.4519	0.7513
202.6694	0.5641
202.8868	0.5892
203.1042	0.6523
203.3217	0.7064
203.5391	0.5736
203.7565	0.749
203.9739	0.6005
204.1913	0.6225
204.4086	0.671
204.626	0.7219
204.8433	0.6006
205.0607	0.588
205.278	0.6941
205.4953	0.5986
205.7126	0.6321
205.9299	0.6674
206.1472	0.7161
206.3644	0.6811
206.5817	0.6237
206.7989	0.669
207.0162	0.6518
207.2334	0.6618
207.4506	0.7524
207.6678	0.6099
207.885	0.6839
208.1022	0.6812
208.3194	0.665
208.5365	0.7039
208.7537	0.5882
208.9708	0.5253
209.1879	0.6803
209.405	0.6444
209.6222	0.6408
209.8392	0.6712
210.0563	0.6132
210.2734	0.6371
210.4905	0.6184
210.7075	0.6372
210.9245	0.5881
211.1416	0.6333
211.3586	0.56
211.5756	0.6145
211.7926	0.616
212.0096	0.5512
212.2265	0.5582
212.4435	0.6044
212.6604	0.5816
212.8774	0.5658
213.0943	0.6237
213.3112	0.5194
213.5281	0.5275
213.745	0.5159
213.9619	0.4848
214.1788	0.4847
214.3956	0.4595
214.6125	0.484
214.8293	0.4301
215.0461	0.4399
215.2629	0.4287
215.4798	0.4914
215.6965	0.415
215.9133	0.4382
216.1301	0.4366
216.3469	0.4587
216.5636	0.4218
216.7803	0.3742
216.9971	0.3989
217.2138	0.3755
217.4305	0.4
217.6472	0.378
217.8639	0.374
218.0805	0.3281
218.2972	0.3286
218.5138	0.3174
218.7305	0.312
218.9471	0.2958
219.1637	0.2848
219.3803	0.3026
219.5969	0.2949
219.8135	0.2488
220.0301	0.2988
220.2466	0.2854
220.4632	0.2642
220.6797	0.2345
220.8962	0.2288
221.1127	0.2657
221.3292	0.233
221.5457	0.249
221.7622	0.2138
221.9787	0.2522
222.1951	0.2387
222.4116	0.2369
222.628	0.2439
222.8444	0.2566
223.0608	0.2399
223.2772	0.2363
223.4936	0.2753
223.71	0.2705
223.9264	0.2704
224.1427	0.2558
224.3591	0.2333
224.5754	0.2821
224.7917	0.2768
225.008	0.2416
225.2243	0.2582
225.4406	0.2737
225.6569	0.2552
225.8732	0.2603
226.0894	0.2527
226.3057	0.2649
226.5219	0.2785
226.7381	0.2693
226.9543	0.2573
227.1705	0.2971
227.3867	0.2978
227.6029	0.3023
227.8191	0.2937
228.0352	0.287
228.2513	0.322
228.4675	0.3148
228.6836	0.3029
228.8997	0.3116
229.1158	0.3114
229.3319	0.3101
229.548	0.3103
229.764	0.3293
229.9801	0.3198
230.1961	0.3312
230.4121	0.3256
230.6282	0.3219
230.8442	0.319
231.0602	0.3536
231.2761	0.337
231.4921	0.3464
231.7081	0.3251
231.924	0.3503
232.14	0.3519
232.3559	0.3566
232.5718	0.3766
232.7877	0.3542
233.0036	0.3297
233.2195	0.3669
233.4353	0.3442
233.6512	0.377
233.867	0.3452
234.0829	0.3557
234.2987	0.3413
234.5145	0.3643
234.7303	0.362
234.9461	0.3854
235.1619	0.3888
235.3776	0.3805
235.5934	0.3677
235.8091	0.3747
236.0249	0.3631
236.2406	0.3922
236.4563	0.3728
236.672	0.3953
236.8877	0.3912
237.1034	0.3835
237.319	0.376
237.5347	0.4044
237.7503	0.4006
237.966	0.4089
238.1816	0.4204
238.3972	0.4129
238.6128	0.4051
238.8284	0.4168
239.0439	0.4075
239.2595	0.3951
239.475	0.3971
239.6906	0.4042
239.9061	0.392
240.1216	0.3916
240.3371	0.4039
240.5526	0.423
240.7681	0.4107
240.9836	0.4028
241.199	0.4099
241.4145	0.3776
241.6299	0.3618
241.8453	0.3853
242.0607	0.3628
242.2761	0.3615
242.4915	0.3686
242.7069	0.3632
242.9223	0.3626
243.1376	0.3519
243.353	0.3339
243.5683	0.337
243.7836	0.3242
243.9989	0.3373
244.2142	0.3048
244.4295	0.3168
244.6448	0.3171
244.86	0.2936
245.0753	0.2898
245.2905	0.291
245.5057	0.2763
245.721	0.283
245.9362	0.2564
246.1514	0.268
246.3665	0.2658
246.5817	0.2535
246.7969	0.2597
247.012	0.2366
247.2271	0.2516
247.4423	0.2602
247.6574	0.2549
247.8725	0.2474
248.0876	0.2158
248.3026	0.2286
248.5177	0.2285
248.7328	0.2112
248.9478	0.2282
249.1628	0.2155
249.3779	0.2202
249.5929	0.2002
249.8079	0.2178
250.0228	0.2009
250.2378	0.1988
250.4528	0.2049
250.6677	0.1906
250.8827	0.1963
251.0976	0.1884
251.3125	0.1988
251.5274	0.19
251.7423	0.1855
251.9572	0.1927
252.172	0.175
252.3869	0.1885
252.6017	0.1726
252.8166	0.1685
253.0314	0.1782
253.2462	0.1661
253.461	0.1861
253.6758	0.1702
253.8906	0.1651
254.1053	0.1697
254.3201	0.1794
254.5348	0.1886
254.7496	0.1863
254.9643	0.1671
255.179	0.1749
255.3937	0.1547
255.6083	0.1652
255.823	0.1633
256.0377	0.176
256.2523	0.1696
256.467	0.1438
256.6816	0.178
256.8962	0.1726
257.1108	0.1645
257.3254	0.1744
257.54	0.1596
257.7545	0.1631
257.9691	0.1706
258.1836	0.1643
258.3981	0.1752
258.6127	0.1753
258.8272	0.1709
259.0417	0.1629
259.2561	0.1659
259.4706	0.1612
259.6851	0.1566
259.8995	0.1538
260.114	0.1605
260.3284	0.1737
260.5428	0.1673
260.7572	0.1756
260.9716	0.1698
261.186	0.1606
261.4003	0.1601
261.6147	0.1626
261.829	0.1682
262.0433	0.1665
262.2577	0.1627
262.472	0.181
262.6863	0.1636
262.9005	0.1655
263.1148	0.1696
263.3291	0.1483
263.5433	0.1583
263.7576	0.1716
263.9718	0.1656
264.186	0.1688
264.4002	0.1586
264.6144	0.1721
264.8286	0.1661
265.0427	0.1551
265.2569	0.1631
265.471	0.1549
265.6851	0.1498
265.8993	0.16
266.1134	0.1526
266.3275	0.1597
266.5415	0.1586
266.7556	0.165
266.9697	0.1545
267.1837	0.163
267.3978	0.1722
267.6118	0.1669
267.8258	0.175
268.0398	0.1546
268.2538	0.1724
268.4677	0.1626
268.6817	0.1656
268.8957	0.1576
269.1096	0.1712
269.3235	0.1602
269.5374	0.1508
269.7514	0.1535
269.9652	0.1576
270.1791	0.1591
270.393	0.148
270.6068	0.1548
270.8207	0.1477
271.0345	0.1537
271.2483	0.1603
271.4622	0.1382
271.676	0.1501
271.8897	0.1363
272.1035	0.1463
272.3173	0.1563
272.531	0.1502
272.7448	0.1524
272.9585	0.1371
273.1722	0.1454
273.3859	0.1562
273.5996	0.1403
273.8133	0.1556
274.0269	0.1383
274.2406	0.139
274.4542	0.1415
274.6679	0.1345
274.8815	0.1515
275.0951	0.1451
275.3087	0.1493
275.5223	0.1496
275.7358	0.1487
275.9494	0.1519
276.1629	0.1412
276.3765	0.1445
276.59	0.1446
276.8035	0.1537
277.017	0.1518
277.2305	0.1405
277.444	0.1501
277.6574	0.1396
277.8709	0.1523
278.0843	0.1359
278.2978	0.1411
278.5112	0.1416
278.7246	0.1476
278.938	0.1427
279.1513	0.1521
279.3647	0.1588
279.5781	0.1467
279.7914	0.1431
280.0047	0.1619
280.2181	0.1601
280.4314	0.154
280.6447	0.1656
280.8579	0.1455
281.0712	0.163
281.2845	0.1496
281.4977	0.1538
281.711	0.136
281.9242	0.148
282.1374	0.1626
282.3506	0.1474
282.5638	0.1621
282.7769	0.15
282.9901	0.161
283.2033	0.1549
283.4164	0.1663
283.6295	0.1442
283.8426	0.1493
284.0557	0.1587
284.2688	0.1755
284.4819	0.1563
284.695	0.1559
284.908	0.1557
285.1211	0.1451
285.3341	0.1581
285.5471	0.1705
285.7601	0.1477
285.9731	0.1551
286.1861	0.147
286.3991	0.1619
286.612	0.1655
286.825	0.1639
287.0379	0.1581
287.2508	0.1568
287.4637	0.1697
287.6766	0.1563
287.8895	0.1593
288.1024	0.176
288.3152	0.164
288.5281	0.1612
288.7409	0.1688
288.9538	0.1665
289.1666	0.1542
289.3794	0.1611
289.5922	0.1613
289.8049	0.1676
290.0177	0.1606
290.2304	0.1696
290.4432	0.1682
290.6559	0.1679
290.8686	0.1743
291.0813	0.162
291.294	0.1588
291.5067	0.1682
291.7194	0.1607
291.932	0.1731
292.1447	0.1566
292.3573	0.1631
292.5699	0.1639
292.7825	0.182
292.9951	0.1586
293.2077	0.1681
293.4203	0.1788
293.6328	0.1565
293.8454	0.1716
294.0579	0.1617
294.2704	0.17
294.4829	0.1605
294.6954	0.1778
294.9079	0.1627
295.1204	0.1643
295.3328	0.1536
295.5453	0.1628
295.7577	0.1559
295.9701	0.1507
296.1825	0.1602
296.3949	0.1613
296.6073	0.1523
296.8197	0.1574
297.0321	0.1743
297.2444	0.1528
297.4567	0.1731
297.6691	0.1652
297.8814	0.1426
298.0937	0.1621
298.306	0.1722
298.5182	0.1674
298.7305	0.1618
298.9428	0.155
299.155	0.1654
299.3672	0.1491
299.5794	0.1652
299.7916	0.1592
300.0038	0.1641
300.216	0.1584
300.4282	0.1673
300.6403	0.15
300.8525	0.1679
301.0646	0.1536
301.2767	0.1675
301.4888	0.1637
301.7009	0.1596
301.913	0.1552
302.125	0.1647
302.3371	0.1603
302.5491	0.1567
302.7612	0.1628
302.9732	0.1686
303.1852	0.1642
303.3972	0.1595
303.6092	0.1566
303.8211	0.1557
304.0331	0.1527
304.245	0.1468
304.457	0.1598
304.6689	0.1573
304.8808	0.1561
305.0927	0.1588
305.3046	0.1549
305.5164	0.1583
305.7283	0.1489
305.9401	0.1405
306.152	0.1546
306.3638	0.1631
306.5756	0.1479
306.7874	0.1418
306.9992	0.1507
307.2109	0.149
307.4227	0.1317
307.6344	0.1358
307.8462	0.1381
308.0579	0.139
308.2696	0.1365
308.4813	0.1301
308.693	0.1257
308.9046	0.1361
309.1163	0.1273
309.328	0.1263
309.5396	0.1246
309.7512	0.1196
309.9628	0.1086
310.1744	0.1221
310.386	0.1257
310.5976	0.1198
310.8091	0.1206
311.0207	0.1128
311.2322	0.1182
311.4437	0.1185
311.6552	0.1048
311.8667	0.1149
312.0782	0.1028
312.2897	0.1008
312.5012	0.1077
312.7126	0.0984
312.924	0.0972
313.1355	0.1106
313.3469	0.1042
313.5583	0.1115
313.7696	0.1022
313.981	0.1066
314.1924	0.0962
314.4037	0.0959
314.6151	0.1079
314.8264	0.1016
315.0377	0.0955
315.249	0.1047
315.4603	0.1057
315.6716	0.0991
315.8828	0.0944
316.0941	0.0954
316.3053	0.1022
316.5165	0.0976
316.7277	0.0893
316.9389	0.1146
317.1501	0.0957
317.3613	0.1069
317.5724	0.0941
317.7836	0.1007
317.9947	0.0943
318.2058	0.1027
318.417	0.0948
318.6281	0.0853
318.8391	0.0907
319.0502	0.0944
319.2613	0.1051
319.4723	0.1036
319.6834	0.1062
319.8944	0.0879
320.1054	0.1003
320.3164	0.1108
320.5274	0.095
320.7383	0.0993
320.9493	0.1049
321.1602	0.1093
321.3712	0.0827
321.5821	0.1059
321.793	0.1045
322.0039	0.098
322.2148	0.0898
322.4257	0.1095
322.6365	0.108
322.8474	0.0992
323.0582	0.1054
323.269	0.1012
323.4798	0.1131
323.6906	0.1037
323.9014	0.1102
324.1122	0.1063
324.3229	0.1005
324.5337	0.1018
324.7444	0.0884
324.9551	0.1108
325.1658	0.1065
325.3765	0.1018
325.5872	0.1107
325.7979	0.1026
326.0085	0.1067
326.2192	0.1118
326.4298	0.1005
326.6404	0.0986
326.851	0.0922
327.0616	0.0964
327.2722	0.0973
327.4828	0.1188
327.6933	0.0982
327.9039	0.1132
328.1144	0.1109
328.3249	0.1139
328.5354	0.1029
328.7459	0.1052
328.9564	0.1002
329.1669	0.0923
329.3773	0.1013
329.5878	0.0961
329.7982	0.103
330.0086	0.1094
330.219	0.1138
330.4294	0.1022
330.6398	0.0995
330.8502	0.0963
331.0605	0.1081
331.2708	0.1086
331.4812	0.1106
331.6915	0.1258
331.9018	0.0995
332.1121	0.1012
332.3224	0.1054
332.5326	0.1119
332.7429	0.1166
332.9531	0.1106
333.1633	0.1067
333.3735	0.1015
333.5837	0.1118
333.7939	0.1116
334.0041	0.1144
334.2143	0.1186
334.4244	0.1144
334.6346	0.0889
334.8447	0.1229
335.0548	0.109
335.2649	0.0999
335.475	0.1216
335.685	0.1166
335.8951	0.1038
336.1051	0.1127
336.3152	0.1287
336.5252	0.1093
336.7352	0.1199
336.9452	0.1058
337.1552	0.1205
337.3652	0.1028
337.5751	0.1072
337.7851	0.1126
337.995	0.1018
338.2049	0.1145
338.4148	0.1138
338.6247	0.1177
338.8346	0.1111
339.0445	0.0986
339.2543	0.1106
339.4642	0.1241
339.674	0.1066
339.8838	0.1016
340.0936	0.1217
340.3034	0.1154
340.5132	0.1187
340.7229	0.1138
340.9327	0.1086
341.1424	0.1147
341.3522	0.1395
341.5619	0.1298
341.7716	0.1132
341.9813	0.1243
342.1909	0.1054
342.4006	0.1267
342.6102	0.1276
342.8199	0.1215
343.0295	0.1398
343.2391	0.115
343.4487	0.1563
343.6583	0.1329
343.8679	0.1188
344.0774	0.1297
344.287	0.1308
344.4965	0.1218
344.706	0.1249
344.9155	0.1258
345.125	0.1234
345.3345	0.1371
345.544	0.1209
345.7534	0.1253
345.9629	0.1259
346.1723	0.1159
346.3817	0.128
346.5911	0.135
346.8005	0.1338
347.0099	0.1299
347.2193	0.1401
347.4286	0.1309
347.638	0.1376
347.8473	0.1318
348.0566	0.1357
348.2659	0.1478
348.4752	0.1402
348.6845	0.132
348.8937	0.132
349.103	0.154
349.3122	0.1181
349.5214	0.1342
349.7306	0.1446
349.9398	0.1339
350.149	0.1296
350.3582	0.1425
350.5674	0.1488
350.7765	0.1495
350.9856	0.1364
351.1948	0.1439
351.4039	0.1219
351.613	0.1426
351.822	0.1483
352.0311	0.1353
352.2402	0.1421
352.4492	0.1639
352.6582	0.1615
352.8672	0.1427
353.0762	0.1625
353.2852	0.1461
353.4942	0.1452
353.7032	0.1522
353.9121	0.1477
354.1211	0.1532
354.33	0.1485
354.5389	0.1673
354.7478	0.1491
354.9567	0.1552
355.1655	0.1512
355.3744	0.1485
355.5833	0.159
355.7921	0.1674
356.0009	0.1577
356.2097	0.1759
356.4185	0.1657
356.6273	0.1647
356.8361	0.1622
357.0448	0.1444
357.2536	0.1494
357.4623	0.1554
357.671	0.1701
357.8797	0.1532
358.0884	0.1748
358.2971	0.1694
358.5057	0.1677
358.7144	0.173
358.923	0.1675
359.1316	0.1581
359.3402	0.1592
359.5488	0.1723
359.7574	0.1527
359.966	0.1769
360.1746	0.1667
360.3831	0.185
360.5916	0.1732
360.8002	0.1751
361.0087	0.1789
361.2172	0.1846
361.4256	0.1751
361.6341	0.1882
361.8426	0.1793
362.051	0.1807
362.2594	0.1761
362.4678	0.1844
362.6762	0.1998
362.8846	0.1927
363.093	0.1783
363.3014	0.1788
363.5097	0.1808
363.718	0.1977
363.9264	0.1798
364.1347	0.1731
364.343	0.1928
364.5513	0.2064
364.7595	0.2031
364.9678	0.2037
365.176	0.185
365.3842	0.1927
365.5925	0.1929
365.8007	0.1917
366.0089	0.1974
366.217	0.1857
366.4252	0.194
366.6333	0.2035
366.8415	0.2036
367.0496	0.1857
367.2577	0.1966
367.4658	0.2147
367.6739	0.21
367.882	0.2074
368.09	0.2036
368.2981	0.1994
368.5061	0.2026
368.7141	0.2128
368.9221	0.2269
369.1301	0.2026
369.3381	0.2057
369.5461	0.213
369.754	0.2059
369.962	0.2138
370.1699	0.2293
370.3778	0.2123
370.5857	0.2065
370.7936	0.213
371.0015	0.2055
371.2093	0.2183
371.4172	0.2342
371.625	0.2033
371.8328	0.2292
372.0406	0.2164
372.2484	0.2091
372.4562	0.2256
372.664	0.2133
372.8717	0.2296
373.0795	0.197
373.2872	0.2203
373.4949	0.2258
373.7026	0.2164
373.9103	0.233
374.118	0.2338
374.3256	0.2311
374.5333	0.2379
374.7409	0.2313
374.9485	0.2422
375.1561	0.2229
375.3637	0.2338
375.5713	0.2344
375.7789	0.2341
375.9864	0.2305
376.194	0.2061
376.4015	0.2326
376.609	0.2535
376.8165	0.2313
377.024	0.2504
377.2315	0.2227
377.4389	0.2437
377.6464	0.2241
377.8538	0.2429
378.0612	0.2385
378.2686	0.2283
378.476	0.2508
378.6834	0.2491
378.8908	0.255
379.0981	0.2397
379.3055	0.2327
379.5128	0.2432
379.7201	0.2475
379.9274	0.2461
380.1347	0.2341
380.342	0.2643
380.5492	0.2401
380.7565	0.2483
380.9637	0.257
381.1709	0.2365
381.3781	0.2398
381.5853	0.2607
381.7925	0.2452
381.9997	0.2599
382.2068	0.2518
382.4139	0.2609
382.6211	0.2398
382.8282	0.2439
383.0353	0.2491
383.2424	0.2571
383.4494	0.2622
383.6565	0.2433
383.8635	0.2659
384.0706	0.253
384.2776	0.2516
384.4846	0.2397
384.6916	0.2508
384.8986	0.244
385.1055	0.2569
385.3125	0.2636
385.5194	0.241
385.7263	0.2516
385.9333	0.2447
386.1402	0.2458
386.347	0.2586
386.5539	0.2525
386.7608	0.2607
386.9676	0.2449
387.1744	0.2547
387.3813	0.2551
387.5881	0.2439
387.7948	0.2505
388.0016	0.2421
388.2084	0.2468
388.4151	0.2404
388.6219	0.2691
388.8286	0.2461
389.0353	0.2719
389.242	0.2472
389.4487	0.2329
389.6553	0.2418
389.862	0.2233
390.0686	0.2297
390.2753	0.2481
390.4819	0.2439
390.6885	0.2452
390.8951	0.2512
391.1016	0.2387
391.3082	0.2279
391.5147	0.2418
391.7213	0.2355
391.9278	0.2317
392.1343	0.2444
392.3408	0.2256
392.5473	0.2394
392.7537	0.2406
392.9602	0.2232
393.1666	0.2385
393.373	0.2426
393.5794	0.2287
393.7858	0.2128
393.9922	0.2104
394.1986	0.2577
394.4049	0.238
394.6113	0.2338
394.8176	0.2011
395.0239	0.2209
395.2302	0.1951
395.4365	0.2294
395.6428	0.2226
395.8491	0.1958
396.0553	0.2214
396.2615	0.2226
396.4678	0.2139
396.674	0.2075
396.8802	0.2021
397.0863	0.2129
397.2925	0.212
397.4987	0.2023
397.7048	0.2038
397.9109	0.2385
398.117	0.2091
398.3231	0.2102
398.5292	0.1894
398.7353	0.2089
398.9413	0.2119
399.1474	0.209
399.3534	0.2143
399.5594	0.1939
399.7654	0.2215
399.9714	0.2297
400.1774	0.2105
400.3833	0.2127
400.5893	0.2274
400.7952	0.2275
401.0011	0.1917
401.207	0.2095
401.4129	0.2007
401.6188	0.2218
401.8247	0.2263
402.0305	0.2057
402.2364	0.1989
402.4422	0.2262
402.648	0.2125
402.8538	0.232
403.0596	0.2093
403.2654	0.2254
403.4711	0.2039
403.6768	0.2148
403.8826	0.2226
404.0883	0.2257
404.294	0.2071
404.4997	0.2153
404.7054	0.2225
404.911	0.1926
405.1167	0.2069
405.3223	0.2282
405.5279	0.2223
405.7335	0.217
405.9391	0.218
406.1447	0.2387
406.3502	0.2112
406.5558	0.2134
406.7613	0.2163
406.9668	0.213
407.1724	0.2057
407.3778	0.206
407.5833	0.2145
407.7888	0.2059
407.9942	0.2144
408.1997	0.2058
408.4051	0.2079
408.6105	0.2137
408.8159	0.2076
409.0213	0.1935
409.2267	0.2199
409.432	0.2162
409.6374	0.2146
409.8427	0.2211
410.048	0.2176
410.2533	0.1949
410.4586	0.2083
410.6639	0.2019
410.8691	0.208
411.0744	0.1944
411.2796	0.1947
411.4848	0.2042
411.69	0.2093
411.8952	0.2023
412.1004	0.1889
412.3056	0.1949
412.5107	0.1935
412.7158	0.216
412.921	0.2181
413.1261	0.2028
413.3312	0.1963
413.5362	0.1969
413.7413	0.1835
413.9464	0.1951
414.1514	0.2119
414.3564	0.1943
414.5614	0.1936
414.7664	0.2051
414.9714	0.2123
415.1764	0.1975
415.3813	0.2137
415.5863	0.2196
415.7912	0.1925
415.9961	0.1843
416.201	0.2073
416.4059	0.2164
416.6108	0.1987
416.8156	0.2144
417.0205	0.1939
417.2253	0.1787
417.4301	0.2144
417.6349	0.1733
417.8397	0.1967
418.0445	0.1919
418.2492	0.1969
418.454	0.1932
418.6587	0.1992
418.8634	0.188
419.0681	0.1859
419.2728	0.1883
419.4775	0.1858
419.6822	0.1976
419.8868	0.1769
420.0915	0.1839
420.2961	0.1928
420.5007	0.1767
420.7053	0.1959
420.9099	0.1911
421.1144	0.1868
421.319	0.181
421.5235	0.181
421.728	0.196
421.9325	0.1912
422.137	0.1961
422.3415	0.1681
422.546	0.1871
422.7504	0.1813
422.9549	0.19
423.1593	0.1881
423.3637	0.1834
423.5681	0.1741
423.7725	0.1584
423.9769	0.1695
424.1812	0.1555
424.3856	0.1687
424.5899	0.1646
424.7942	0.1785
424.9985	0.1781
425.2028	0.1696
425.4071	0.1901
425.6113	0.1618
425.8156	0.1847
426.0198	0.18
426.224	0.1501
426.4282	0.164
426.6324	0.1694
