Data from MonoPyChalIsomerACN10uM350nmA_Absorbance_14-35-37-115.txt Node
Date: Fri Jul 05 14:35:37 BST 2024
User: LASERRRRR
Spectrometer: FLMT03099
Trigger mode: 0
Integration Time (sec): 1.000000E-1
Scans to average: 1
Electric dark correction enabled: true
Nonlinearity correction enabled: false
Boxcar width: 0
XAxis mode: Wavelengths
Number of Pixels in Spectrum: 3648
>>>>>Begin Spectral Data<<<<<
179.3399	-0.2345
179.5586	-0.2345
179.7771	-0.2345
179.9957	-0
180.2143	-0.4398
180.4329	0.065
180.6514	-0
180.8699	-0.3233
181.0885	-0.0856
181.307	0.3676
181.5255	-0.6021
181.744	-0
181.9625	0.6335
182.181	-0.9795
182.3994	0.2289
182.6179	-0
182.8363	0.1431
183.0547	-0.2483
183.2732	0.0863
183.4916	0.2162
183.71	0.3083
183.9284	0.271
184.1467	-0.1158
184.3651	-0.0763
184.5835	0.0161
184.8018	-0.051
185.0201	-0.0654
185.2385	-0.0367
185.4568	0.2773
185.6751	0.3894
185.8934	0.1842
186.1117	0.0982
186.3299	0.2791
186.5482	0.2828
186.7664	0.0586
186.9847	-0.131
187.2029	0.1575
187.4211	-0.0016
187.6393	0.1108
187.8575	0.1953
188.0757	0.1248
188.2939	0.0206
188.512	0.2918
188.7302	0.1246
188.9483	0.174
189.1665	0.1586
189.3846	-0.1796
189.6027	0.3877
189.8208	0.2978
190.0389	0.0921
190.257	0.1328
190.475	0.1495
190.6931	0.2909
190.9111	0.3398
191.1292	0.163
191.3472	0.4049
191.5652	0.2482
191.7832	0.2391
192.0012	0.3679
192.2192	0.4075
192.4371	0.463
192.6551	0.4052
192.873	0.3921
193.091	0.5193
193.3089	0.6483
193.5268	0.6285
193.7447	0.552
193.9626	0.3871
194.1805	0.5956
194.3984	0.5185
194.6162	0.4919
194.8341	0.5745
195.0519	0.606
195.2697	0.7078
195.4875	0.5772
195.7054	0.6058
195.9231	0.5424
196.1409	0.7248
196.3587	0.7363
196.5765	0.622
196.7942	0.6328
197.012	0.5256
197.2297	0.7118
197.4474	0.5585
197.6651	0.5795
197.8828	0.5772
198.1005	0.4773
198.3182	0.5638
198.5358	0.7385
198.7535	0.7431
198.9711	0.5179
199.1888	0.7488
199.4064	0.6881
199.624	0.6806
199.8416	0.5369
200.0592	0.6722
200.2767	0.8064
200.4943	0.7159
200.7119	0.668
200.9294	0.712
201.1469	0.5794
201.3645	0.5705
201.582	0.6068
201.7995	0.7309
202.017	0.697
202.2344	0.5938
202.4519	0.7424
202.6694	0.6323
202.8868	0.5896
203.1042	0.7575
203.3217	0.7011
203.5391	0.6315
203.7565	0.5638
203.9739	0.6595
204.1913	0.611
204.4086	0.6553
204.626	0.7199
204.8433	0.7158
205.0607	0.7153
205.278	0.6209
205.4953	0.6471
205.7126	0.546
205.9299	0.6966
206.1472	0.619
206.3644	0.632
206.5817	0.6403
206.7989	0.6902
207.0162	0.6283
207.2334	0.6245
207.4506	0.648
207.6678	0.6101
207.885	0.6823
208.1022	0.7115
208.3194	0.7082
208.5365	0.7157
208.7537	0.642
208.9708	0.6106
209.1879	0.6911
209.405	0.7372
209.6222	0.641
209.8392	0.646
210.0563	0.6062
210.2734	0.6776
210.4905	0.7558
210.7075	0.6574
210.9245	0.6062
211.1416	0.6321
211.3586	0.6181
211.5756	0.5901
211.7926	0.6313
212.0096	0.6168
212.2265	0.5726
212.4435	0.548
212.6604	0.6162
212.8774	0.6154
213.0943	0.5905
213.3112	0.5877
213.5281	0.5148
213.745	0.4862
213.9619	0.5201
214.1788	0.4718
214.3956	0.4628
214.6125	0.4759
214.8293	0.4151
215.0461	0.4539
215.2629	0.4429
215.4798	0.4984
215.6965	0.4383
215.9133	0.4452
216.1301	0.4067
216.3469	0.426
216.5636	0.4244
216.7803	0.3657
216.9971	0.4477
217.2138	0.3953
217.4305	0.3715
217.6472	0.3425
217.8639	0.3719
218.0805	0.3433
218.2972	0.3395
218.5138	0.3395
218.7305	0.3129
218.9471	0.3145
219.1637	0.2807
219.3803	0.264
219.5969	0.3034
219.8135	0.2707
220.0301	0.2728
220.2466	0.2878
220.4632	0.2606
220.6797	0.2555
220.8962	0.2514
221.1127	0.2654
221.3292	0.2421
221.5457	0.2529
221.7622	0.2229
221.9787	0.267
222.1951	0.2446
222.4116	0.244
222.628	0.2389
222.8444	0.2548
223.0608	0.28
223.2772	0.2493
223.4936	0.2611
223.71	0.2503
223.9264	0.2745
224.1427	0.2321
224.3591	0.2407
224.5754	0.2418
224.7917	0.2343
225.008	0.2767
225.2243	0.2535
225.4406	0.2914
225.6569	0.2597
225.8732	0.2797
226.0894	0.2601
226.3057	0.2601
226.5219	0.2689
226.7381	0.253
226.9543	0.2913
227.1705	0.2859
227.3867	0.2899
227.6029	0.2965
227.8191	0.2894
228.0352	0.2813
228.2513	0.3283
228.4675	0.2994
228.6836	0.2956
228.8997	0.297
229.1158	0.3038
229.3319	0.3054
229.548	0.3175
229.764	0.3082
229.9801	0.3179
230.1961	0.3162
230.4121	0.327
230.6282	0.3412
230.8442	0.3264
231.0602	0.3542
231.2761	0.3625
231.4921	0.3425
231.7081	0.3541
231.924	0.35
232.14	0.356
232.3559	0.3315
232.5718	0.3462
232.7877	0.3743
233.0036	0.3431
233.2195	0.3611
233.4353	0.3642
233.6512	0.3535
233.867	0.3452
234.0829	0.3658
234.2987	0.3831
234.5145	0.3622
234.7303	0.3539
234.9461	0.3874
235.1619	0.38
235.3776	0.3805
235.5934	0.3798
235.8091	0.344
236.0249	0.374
236.2406	0.3976
236.4563	0.3692
236.672	0.3824
236.8877	0.3886
237.1034	0.4071
237.319	0.3786
237.5347	0.4233
237.7503	0.4084
237.966	0.4004
238.1816	0.4179
238.3972	0.4202
238.6128	0.3925
238.8284	0.421
239.0439	0.4173
239.2595	0.4005
239.475	0.4183
239.6906	0.4208
239.9061	0.4018
240.1216	0.4147
240.3371	0.4008
240.5526	0.3941
240.7681	0.4071
240.9836	0.3904
241.199	0.3938
241.4145	0.3733
241.6299	0.3789
241.8453	0.3947
242.0607	0.3947
242.2761	0.3643
242.4915	0.3592
242.7069	0.363
242.9223	0.3666
243.1376	0.3467
243.353	0.3389
243.5683	0.3523
243.7836	0.3303
243.9989	0.3348
244.2142	0.3196
244.4295	0.3206
244.6448	0.3061
244.86	0.3081
245.0753	0.2925
245.2905	0.2931
245.5057	0.2711
245.721	0.2709
245.9362	0.282
246.1514	0.2811
246.3665	0.2587
246.5817	0.2662
246.7969	0.2362
247.012	0.2537
247.2271	0.2508
247.4423	0.2509
247.6574	0.2449
247.8725	0.2304
248.0876	0.2378
248.3026	0.23
248.5177	0.2255
248.7328	0.2033
248.9478	0.2021
249.1628	0.2319
249.3779	0.2227
249.5929	0.1999
249.8079	0.2238
250.0228	0.2023
250.2378	0.2069
250.4528	0.2085
250.6677	0.1837
250.8827	0.1997
251.0976	0.2063
251.3125	0.1898
251.5274	0.1848
251.7423	0.189
251.9572	0.1844
252.172	0.1744
252.3869	0.1722
252.6017	0.1666
252.8166	0.1676
253.0314	0.1722
253.2462	0.1696
253.461	0.1865
253.6758	0.1639
253.8906	0.1695
254.1053	0.176
254.3201	0.1688
254.5348	0.1805
254.7496	0.1757
254.9643	0.1556
255.179	0.1757
255.3937	0.1631
255.6083	0.1783
255.823	0.1733
256.0377	0.168
256.2523	0.1638
256.467	0.1568
256.6816	0.1748
256.8962	0.1745
257.1108	0.1681
257.3254	0.1763
257.54	0.1593
257.7545	0.17
257.9691	0.1798
258.1836	0.1638
258.3981	0.1747
258.6127	0.1864
258.8272	0.1734
259.0417	0.1723
259.2561	0.1564
259.4706	0.1793
259.6851	0.1784
259.8995	0.1761
260.114	0.1637
260.3284	0.1707
260.5428	0.1609
260.7572	0.1736
260.9716	0.17
261.186	0.1598
261.4003	0.1578
261.6147	0.1733
261.829	0.1655
262.0433	0.1614
262.2577	0.1603
262.472	0.1652
262.6863	0.1684
262.9005	0.1667
263.1148	0.1657
263.3291	0.1499
263.5433	0.1572
263.7576	0.165
263.9718	0.1608
264.186	0.1442
264.4002	0.1614
264.6144	0.175
264.8286	0.1684
265.0427	0.1609
265.2569	0.1568
265.471	0.1528
265.6851	0.1517
265.8993	0.1594
266.1134	0.1459
266.3275	0.1576
266.5415	0.1535
266.7556	0.1635
266.9697	0.1703
267.1837	0.1671
267.3978	0.1708
267.6118	0.1701
267.8258	0.1805
268.0398	0.1529
268.2538	0.1644
268.4677	0.1625
268.6817	0.1543
268.8957	0.1549
269.1096	0.1714
269.3235	0.1661
269.5374	0.158
269.7514	0.1495
269.9652	0.147
270.1791	0.1495
270.393	0.1512
270.6068	0.1598
270.8207	0.1485
271.0345	0.1504
271.2483	0.1514
271.4622	0.1449
271.676	0.1621
271.8897	0.1424
272.1035	0.154
272.3173	0.1456
272.531	0.1467
272.7448	0.1406
272.9585	0.1427
273.1722	0.1614
273.3859	0.1471
273.5996	0.1353
273.8133	0.1495
274.0269	0.1501
274.2406	0.1287
274.4542	0.1404
274.6679	0.1348
274.8815	0.1397
275.0951	0.1499
275.3087	0.1503
275.5223	0.1515
275.7358	0.143
275.9494	0.1458
276.1629	0.1471
276.3765	0.1362
276.59	0.1591
276.8035	0.1527
277.017	0.1502
277.2305	0.1343
277.444	0.1534
277.6574	0.1535
277.8709	0.1468
278.0843	0.1411
278.2978	0.1389
278.5112	0.1305
278.7246	0.1513
278.938	0.1547
279.1513	0.1361
279.3647	0.1588
279.5781	0.1419
279.7914	0.1518
280.0047	0.1638
280.2181	0.1616
280.4314	0.1439
280.6447	0.158
280.8579	0.163
281.0712	0.1575
281.2845	0.1448
281.4977	0.1457
281.711	0.145
281.9242	0.1515
282.1374	0.1514
282.3506	0.1475
282.5638	0.1604
282.7769	0.1488
282.9901	0.1512
283.2033	0.1636
283.4164	0.1733
283.6295	0.1525
283.8426	0.1555
284.0557	0.1574
284.2688	0.1663
284.4819	0.1584
284.695	0.1547
284.908	0.1592
285.1211	0.1575
285.3341	0.1608
285.5471	0.1652
285.7601	0.1577
285.9731	0.1559
286.1861	0.1519
286.3991	0.1732
286.612	0.1656
286.825	0.1585
287.0379	0.1747
287.2508	0.1636
287.4637	0.1654
287.6766	0.1566
287.8895	0.1739
288.1024	0.1889
288.3152	0.1669
288.5281	0.1482
288.7409	0.165
288.9538	0.1617
289.1666	0.167
289.3794	0.1738
289.5922	0.1578
289.8049	0.1625
290.0177	0.1617
290.2304	0.1512
290.4432	0.1685
290.6559	0.1682
290.8686	0.1689
291.0813	0.1761
291.294	0.1681
291.5067	0.1745
291.7194	0.1688
291.932	0.1731
292.1447	0.1691
292.3573	0.1728
292.5699	0.1651
292.7825	0.1639
292.9951	0.1655
293.2077	0.1661
293.4203	0.1628
293.6328	0.1499
293.8454	0.1715
294.0579	0.1596
294.2704	0.1631
294.4829	0.1487
294.6954	0.1704
294.9079	0.1585
295.1204	0.167
295.3328	0.1626
295.5453	0.17
295.7577	0.1686
295.9701	0.1663
296.1825	0.1752
296.3949	0.1578
296.6073	0.1637
296.8197	0.1534
297.0321	0.1747
297.2444	0.156
297.4567	0.1702
297.6691	0.1663
297.8814	0.1564
298.0937	0.1601
298.306	0.1585
298.5182	0.163
298.7305	0.1692
298.9428	0.1544
299.155	0.1725
299.3672	0.1577
299.5794	0.1526
299.7916	0.1707
300.0038	0.1662
300.216	0.1599
300.4282	0.1762
300.6403	0.1584
300.8525	0.1629
301.0646	0.1613
301.2767	0.1671
301.4888	0.1501
301.7009	0.1653
301.913	0.1573
302.125	0.1761
302.3371	0.1574
302.5491	0.1635
302.7612	0.1652
302.9732	0.1663
303.1852	0.1669
303.3972	0.1694
303.6092	0.1447
303.8211	0.1586
304.0331	0.1563
304.245	0.1514
304.457	0.1544
304.6689	0.1451
304.8808	0.1646
305.0927	0.1463
305.3046	0.1595
305.5164	0.1637
305.7283	0.1477
305.9401	0.1551
306.152	0.1511
306.3638	0.1543
306.5756	0.1441
306.7874	0.1435
306.9992	0.1528
307.2109	0.1447
307.4227	0.124
307.6344	0.14
307.8462	0.1426
308.0579	0.1408
308.2696	0.1348
308.4813	0.1278
308.693	0.136
308.9046	0.1327
309.1163	0.1264
309.328	0.1366
309.5396	0.1216
309.7512	0.1254
309.9628	0.1233
310.1744	0.1205
310.386	0.1247
310.5976	0.1295
310.8091	0.1206
311.0207	0.1234
311.2322	0.1259
311.4437	0.1092
311.6552	0.1181
311.8667	0.1244
312.0782	0.1012
312.2897	0.1135
312.5012	0.1148
312.7126	0.1016
312.924	0.1075
313.1355	0.1121
313.3469	0.1016
313.5583	0.1143
313.7696	0.1122
313.981	0.1115
314.1924	0.1059
314.4037	0.1055
314.6151	0.1121
314.8264	0.0977
315.0377	0.0982
315.249	0.1062
315.4603	0.1107
315.6716	0.1112
315.8828	0.0955
316.0941	0.0999
316.3053	0.1023
316.5165	0.093
316.7277	0.086
316.9389	0.1035
317.1501	0.0934
317.3613	0.1096
317.5724	0.0886
317.7836	0.0964
317.9947	0.0943
318.2058	0.0942
318.417	0.0852
318.6281	0.0852
318.8391	0.0952
319.0502	0.09
319.2613	0.097
319.4723	0.0962
319.6834	0.1048
319.8944	0.0931
320.1054	0.1046
320.3164	0.0995
320.5274	0.0967
320.7383	0.1049
320.9493	0.1021
321.1602	0.1014
321.3712	0.098
321.5821	0.1012
321.793	0.0947
322.0039	0.1013
322.2148	0.0989
322.4257	0.1021
322.6365	0.1121
322.8474	0.1134
323.0582	0.0976
323.269	0.0957
323.4798	0.1179
323.6906	0.1042
323.9014	0.1102
324.1122	0.105
324.3229	0.084
324.5337	0.1103
324.7444	0.096
324.9551	0.1126
325.1658	0.0978
325.3765	0.1079
325.5872	0.1083
325.7979	0.1082
326.0085	0.1082
326.2192	0.1089
326.4298	0.1073
326.6404	0.1049
326.851	0.1055
327.0616	0.0979
327.2722	0.1081
327.4828	0.1135
327.6933	0.1045
327.9039	0.1095
328.1144	0.1094
328.3249	0.1076
328.5354	0.113
328.7459	0.1089
328.9564	0.0996
329.1669	0.1002
329.3773	0.1074
329.5878	0.1133
329.7982	0.1022
330.0086	0.1095
330.219	0.1095
330.4294	0.0984
330.6398	0.1106
330.8502	0.1038
331.0605	0.1121
331.2708	0.1092
331.4812	0.1089
331.6915	0.1128
331.9018	0.1101
332.1121	0.1078
332.3224	0.0998
332.5326	0.1152
332.7429	0.1036
332.9531	0.1141
333.1633	0.1008
333.3735	0.1113
333.5837	0.1148
333.7939	0.1036
334.0041	0.1233
334.2143	0.1181
334.4244	0.0937
334.6346	0.0897
334.8447	0.1184
335.0548	0.1076
335.2649	0.1067
335.475	0.1165
335.685	0.1066
335.8951	0.1104
336.1051	0.1164
336.3152	0.1275
336.5252	0.1264
336.7352	0.1126
336.9452	0.1144
337.1552	0.1218
337.3652	0.1004
337.5751	0.1146
337.7851	0.1274
337.995	0.0933
338.2049	0.1195
338.4148	0.112
338.6247	0.1159
338.8346	0.1211
339.0445	0.1109
339.2543	0.1083
339.4642	0.1073
339.674	0.1172
339.8838	0.1183
340.0936	0.1213
340.3034	0.1123
340.5132	0.1118
340.7229	0.1105
340.9327	0.1137
341.1424	0.1128
341.3522	0.12
341.5619	0.1267
341.7716	0.1283
341.9813	0.1327
342.1909	0.1164
342.4006	0.1289
342.6102	0.1301
342.8199	0.1285
343.0295	0.1421
343.2391	0.1216
343.4487	0.1322
343.6583	0.1299
343.8679	0.1176
344.0774	0.1346
344.287	0.1204
344.4965	0.1216
344.706	0.1334
344.9155	0.1246
345.125	0.1297
345.3345	0.1326
345.544	0.1249
345.7534	0.1322
345.9629	0.1196
346.1723	0.1348
346.3817	0.1073
346.5911	0.1348
346.8005	0.1357
347.0099	0.1253
347.2193	0.1348
347.4286	0.1315
347.638	0.1481
347.8473	0.1329
348.0566	0.1411
348.2659	0.1455
348.4752	0.1336
348.6845	0.1199
348.8937	0.1382
349.103	0.1424
349.3122	0.1278
349.5214	0.1348
349.7306	0.1321
349.9398	0.1243
350.149	0.1407
350.3582	0.1296
350.5674	0.153
350.7765	0.1403
350.9856	0.1422
351.1948	0.1511
351.4039	0.1478
351.613	0.1434
351.822	0.1506
352.0311	0.161
352.2402	0.1411
352.4492	0.1539
352.6582	0.1443
352.8672	0.1511
353.0762	0.1604
353.2852	0.148
353.4942	0.1392
353.7032	0.1534
353.9121	0.1595
354.1211	0.1579
354.33	0.1587
354.5389	0.1567
354.7478	0.1591
354.9567	0.1499
355.1655	0.1441
355.3744	0.1454
355.5833	0.1583
355.7921	0.164
356.0009	0.1524
356.2097	0.1759
356.4185	0.171
356.6273	0.1696
356.8361	0.1634
357.0448	0.1417
357.2536	0.1557
357.4623	0.1484
357.671	0.1826
357.8797	0.1592
358.0884	0.1637
358.2971	0.1578
358.5057	0.1718
358.7144	0.1783
358.923	0.1675
359.1316	0.1604
359.3402	0.1662
359.5488	0.1795
359.7574	0.1787
359.966	0.1785
360.1746	0.1822
360.3831	0.1739
360.5916	0.1674
360.8002	0.1795
361.0087	0.1866
361.2172	0.1727
361.4256	0.189
361.6341	0.1875
361.8426	0.1889
362.051	0.1879
362.2594	0.1808
362.4678	0.1825
362.6762	0.209
362.8846	0.1931
363.093	0.1776
363.3014	0.1837
363.5097	0.1679
363.718	0.1812
363.9264	0.1882
364.1347	0.1963
364.343	0.2066
364.5513	0.2012
364.7595	0.1957
364.9678	0.2084
365.176	0.2026
365.3842	0.1882
365.5925	0.1946
365.8007	0.2015
366.0089	0.2055
366.217	0.2037
366.4252	0.212
366.6333	0.2187
366.8415	0.1856
367.0496	0.1935
367.2577	0.2206
367.4658	0.2176
367.6739	0.2138
367.882	0.2109
368.09	0.2141
368.2981	0.2196
368.5061	0.207
368.7141	0.2218
368.9221	0.2214
369.1301	0.2011
369.3381	0.2128
369.5461	0.2172
369.754	0.2316
369.962	0.2219
370.1699	0.2236
370.3778	0.2105
370.5857	0.1977
370.7936	0.2208
371.0015	0.2296
371.2093	0.2351
371.4172	0.2277
371.625	0.2023
371.8328	0.2171
372.0406	0.2158
372.2484	0.2246
372.4562	0.2314
372.664	0.2246
372.8717	0.249
373.0795	0.2184
373.2872	0.226
373.4949	0.2239
373.7026	0.2401
373.9103	0.2284
374.118	0.2273
374.3256	0.2288
374.5333	0.2222
374.7409	0.2234
374.9485	0.2349
375.1561	0.2317
375.3637	0.2391
375.5713	0.247
375.7789	0.2183
375.9864	0.24
376.194	0.2296
376.4015	0.2486
376.609	0.2372
376.8165	0.2385
377.024	0.2345
377.2315	0.2374
377.4389	0.2372
377.6464	0.2277
377.8538	0.2345
378.0612	0.2353
378.2686	0.2574
378.476	0.2492
378.6834	0.2458
378.8908	0.2459
379.0981	0.2537
379.3055	0.2457
379.5128	0.2433
379.7201	0.2473
379.9274	0.2332
380.1347	0.251
380.342	0.2623
380.5492	0.2521
380.7565	0.2399
380.9637	0.2334
381.1709	0.2452
381.3781	0.2486
381.5853	0.2693
381.7925	0.2605
381.9997	0.2548
382.2068	0.2646
382.4139	0.254
382.6211	0.2448
382.8282	0.2487
383.0353	0.2396
383.2424	0.242
383.4494	0.2555
383.6565	0.2482
383.8635	0.2545
384.0706	0.2467
384.2776	0.2566
384.4846	0.2467
384.6916	0.2601
384.8986	0.2529
385.1055	0.2705
385.3125	0.2614
385.5194	0.2494
385.7263	0.2582
385.9333	0.262
386.1402	0.2319
386.347	0.2642
386.5539	0.2567
386.7608	0.2784
386.9676	0.2385
387.1744	0.264
387.3813	0.2377
387.5881	0.2491
387.7948	0.2526
388.0016	0.2636
388.2084	0.255
388.4151	0.2489
388.6219	0.2611
388.8286	0.2619
389.0353	0.245
389.242	0.262
389.4487	0.24
389.6553	0.2512
389.862	0.2211
390.0686	0.2569
390.2753	0.2603
390.4819	0.2344
390.6885	0.2285
390.8951	0.2597
391.1016	0.2316
391.3082	0.2377
391.5147	0.2554
391.7213	0.2447
391.9278	0.2403
392.1343	0.2364
392.3408	0.2362
392.5473	0.2386
392.7537	0.2294
392.9602	0.2346
393.1666	0.2233
393.373	0.2354
393.5794	0.2379
393.7858	0.2225
393.9922	0.2134
394.1986	0.206
394.4049	0.22
394.6113	0.2066
394.8176	0.2182
395.0239	0.2293
395.2302	0.2156
395.4365	0.2398
395.6428	0.2194
395.8491	0.2128
396.0553	0.2358
396.2615	0.2175
396.4678	0.2178
396.674	0.209
396.8802	0.2187
397.0863	0.222
397.2925	0.217
397.4987	0.2153
397.7048	0.2026
397.9109	0.2263
398.117	0.2075
398.3231	0.2168
398.5292	0.2136
398.7353	0.2227
398.9413	0.2052
399.1474	0.2151
399.3534	0.2114
399.5594	0.2036
399.7654	0.2289
399.9714	0.2252
400.1774	0.2195
400.3833	0.1934
400.5893	0.2136
400.7952	0.2233
401.0011	0.2166
401.207	0.2177
401.4129	0.2145
401.6188	0.2371
401.8247	0.1977
402.0305	0.2116
402.2364	0.2104
402.4422	0.2144
402.648	0.2177
402.8538	0.2269
403.0596	0.2039
403.2654	0.2122
403.4711	0.2252
403.6768	0.2216
403.8826	0.234
404.0883	0.2396
404.294	0.2248
404.4997	0.2163
404.7054	0.2169
404.911	0.2149
405.1167	0.1935
405.3223	0.2235
405.5279	0.2248
405.7335	0.2191
405.9391	0.221
406.1447	0.2075
406.3502	0.2396
406.5558	0.2089
406.7613	0.2058
406.9668	0.2081
407.1724	0.2145
407.3778	0.2035
407.5833	0.2076
407.7888	0.2013
407.9942	0.2292
408.1997	0.1859
408.4051	0.2063
408.6105	0.2143
408.8159	0.2105
409.0213	0.1962
409.2267	0.2151
409.432	0.2192
409.6374	0.2244
409.8427	0.2103
410.048	0.2058
410.2533	0.2148
410.4586	0.2186
410.6639	0.1904
410.8691	0.1914
411.0744	0.1884
411.2796	0.1999
411.4848	0.2142
411.69	0.2094
411.8952	0.2294
412.1004	0.1987
412.3056	0.2157
412.5107	0.1957
412.7158	0.2291
412.921	0.2092
413.1261	0.1961
413.3312	0.1938
413.5362	0.1918
413.7413	0.2038
413.9464	0.2247
414.1514	0.2148
414.3564	0.2222
414.5614	0.1896
414.7664	0.2096
414.9714	0.1946
415.1764	0.2166
415.3813	0.2209
415.5863	0.2098
415.7912	0.2199
415.9961	0.201
416.201	0.2016
416.4059	0.2178
416.6108	0.2061
416.8156	0.2142
417.0205	0.2113
417.2253	0.1899
417.4301	0.2066
417.6349	0.1879
417.8397	0.2082
418.0445	0.2305
418.2492	0.2043
418.454	0.2243
418.6587	0.1946
418.8634	0.2054
419.0681	0.1897
419.2728	0.2128
419.4775	0.1981
419.6822	0.1804
419.8868	0.1822
420.0915	0.1995
420.2961	0.1885
420.5007	0.2063
420.7053	0.1901
420.9099	0.1819
421.1144	0.1947
421.319	0.1893
421.5235	0.1866
421.728	0.1885
421.9325	0.1842
422.137	0.2073
422.3415	0.178
422.546	0.1791
422.7504	0.1725
422.9549	0.1924
423.1593	0.188
423.3637	0.1878
423.5681	0.1734
423.7725	0.1731
423.9769	0.1926
424.1812	0.1608
424.3856	0.1834
424.5899	0.1726
424.7942	0.1758
424.9985	0.1697
425.2028	0.1754
425.4071	0.1955
425.6113	0.1628
425.8156	0.1887
426.0198	0.1907
426.224	0.1625
426.4282	0.1869
