Data from MonoPyChalIsomerACN10uM350nmA_Absorbance_14-35-36-414.txt Node
Date: Fri Jul 05 14:35:36 BST 2024
User: LASERRRRR
Spectrometer: FLMT03099
Trigger mode: 0
Integration Time (sec): 1.000000E-1
Scans to average: 1
Electric dark correction enabled: true
Nonlinearity correction enabled: false
Boxcar width: 0
XAxis mode: Wavelengths
Number of Pixels in Spectrum: 3648
>>>>>Begin Spectral Data<<<<<
179.3399	0.0042
179.5586	0.0042
179.7771	0.0042
179.9957	0.5948
180.2143	-0
180.4329	-0.0527
180.6514	1.0703
180.8699	-0
181.0885	-0.0248
181.307	0.1363
181.5255	-0.5934
181.744	-0.5733
181.9625	-0
182.181	-0.6819
182.3994	0.2241
182.6179	-0
182.8363	-0.0095
183.0547	-0.4295
183.2732	-0.1684
183.4916	0.0123
183.71	0.1628
183.9284	0.1409
184.1467	-0.0067
184.3651	-0.0012
184.5835	0.2316
184.8018	0.0466
185.0201	-0.1584
185.2385	-0.1576
185.4568	0.1231
185.6751	-0.151
185.8934	0.2876
186.1117	0.022
186.3299	-0.0152
186.5482	0.0715
186.7664	-0.0792
186.9847	-0.08
187.2029	-0.0073
187.4211	0.0286
187.6393	0.2388
187.8575	0.1884
188.0757	0.1791
188.2939	0.0625
188.512	0.1062
188.7302	-0.0908
188.9483	0.0246
189.1665	0.0981
189.3846	-0.2476
189.6027	0.1399
189.8208	0.1905
190.0389	0.0452
190.257	0.1674
190.475	0.2267
190.6931	0.1006
190.9111	0.5389
191.1292	0.193
191.3472	0.4062
191.5652	0.1991
191.7832	0.3865
192.0012	0.5174
192.2192	0.4503
192.4371	0.6011
192.6551	0.3384
192.873	0.2899
193.091	0.4468
193.3089	0.5642
193.5268	0.4168
193.7447	0.5576
193.9626	0.685
194.1805	0.7526
194.3984	0.7623
194.6162	0.5774
194.8341	0.4675
195.0519	0.7823
195.2697	0.5431
195.4875	0.7535
195.7054	0.6199
195.9231	0.6301
196.1409	0.4759
196.3587	0.7548
196.5765	0.6463
196.7942	0.5237
197.012	0.6184
197.2297	0.491
197.4474	0.784
197.6651	0.6436
197.8828	0.6017
198.1005	0.6659
198.3182	0.5318
198.5358	0.7779
198.7535	0.6175
198.9711	0.4676
199.1888	0.6223
199.4064	0.7299
199.624	0.4995
199.8416	0.5654
200.0592	0.6217
200.2767	0.6276
200.4943	0.6876
200.7119	0.6371
200.9294	0.6933
201.1469	0.5026
201.3645	0.4996
201.582	0.5851
201.7995	0.5007
202.017	0.5653
202.2344	0.5989
202.4519	0.6427
202.6694	0.651
202.8868	0.6227
203.1042	0.7519
203.3217	0.6611
203.5391	0.6181
203.7565	0.6172
203.9739	0.6072
204.1913	0.646
204.4086	0.6254
204.626	0.7132
204.8433	0.6318
205.0607	0.6172
205.278	0.7386
205.4953	0.6541
205.7126	0.657
205.9299	0.6859
206.1472	0.6354
206.3644	0.5949
206.5817	0.7003
206.7989	0.7651
207.0162	0.6077
207.2334	0.7473
207.4506	0.6004
207.6678	0.6628
207.885	0.6637
208.1022	0.6642
208.3194	0.6311
208.5365	0.6049
208.7537	0.6581
208.9708	0.5144
209.1879	0.6184
209.405	0.6908
209.6222	0.6382
209.8392	0.6208
210.0563	0.591
210.2734	0.6319
210.4905	0.6561
210.7075	0.556
210.9245	0.6114
211.1416	0.7529
211.3586	0.6171
211.5756	0.5952
211.7926	0.6473
212.0096	0.6221
212.2265	0.5295
212.4435	0.5874
212.6604	0.6061
212.8774	0.5792
213.0943	0.5951
213.3112	0.5486
213.5281	0.5609
213.745	0.4654
213.9619	0.5475
214.1788	0.4801
214.3956	0.4847
214.6125	0.4732
214.8293	0.4146
215.0461	0.4818
215.2629	0.4303
215.4798	0.4493
215.6965	0.4066
215.9133	0.4304
216.1301	0.4349
216.3469	0.4469
216.5636	0.4111
216.7803	0.3897
216.9971	0.3939
217.2138	0.4027
217.4305	0.3717
217.6472	0.353
217.8639	0.3637
218.0805	0.3522
218.2972	0.3173
218.5138	0.3221
218.7305	0.3152
218.9471	0.312
219.1637	0.2914
219.3803	0.2688
219.5969	0.2704
219.8135	0.2605
220.0301	0.2689
220.2466	0.2947
220.4632	0.2718
220.6797	0.2432
220.8962	0.2557
221.1127	0.2662
221.3292	0.2381
221.5457	0.2357
221.7622	0.2297
221.9787	0.2572
222.1951	0.2236
222.4116	0.2489
222.628	0.2572
222.8444	0.2596
223.0608	0.2362
223.2772	0.2415
223.4936	0.2539
223.71	0.2571
223.9264	0.2541
224.1427	0.2562
224.3591	0.2417
224.5754	0.2564
224.7917	0.2679
225.008	0.2595
225.2243	0.26
225.4406	0.2921
225.6569	0.2757
225.8732	0.2638
226.0894	0.2442
226.3057	0.2668
226.5219	0.2736
226.7381	0.2669
226.9543	0.2914
227.1705	0.2795
227.3867	0.2965
227.6029	0.2949
227.8191	0.3047
228.0352	0.294
228.2513	0.3059
228.4675	0.3096
228.6836	0.2986
228.8997	0.2853
229.1158	0.3075
229.3319	0.3102
229.548	0.3226
229.764	0.3241
229.9801	0.3177
230.1961	0.3154
230.4121	0.3351
230.6282	0.3301
230.8442	0.3251
231.0602	0.3318
231.2761	0.3298
231.4921	0.349
231.7081	0.3489
231.924	0.3451
232.14	0.3649
232.3559	0.331
232.5718	0.3698
232.7877	0.3419
233.0036	0.3482
233.2195	0.3695
233.4353	0.3551
233.6512	0.3579
233.867	0.3726
234.0829	0.3703
234.2987	0.388
234.5145	0.358
234.7303	0.378
234.9461	0.3845
235.1619	0.3619
235.3776	0.3694
235.5934	0.3871
235.8091	0.3555
236.0249	0.3651
236.2406	0.3934
236.4563	0.3929
236.672	0.3951
236.8877	0.3811
237.1034	0.3829
237.319	0.4013
237.5347	0.3973
237.7503	0.3828
237.966	0.3969
238.1816	0.394
238.3972	0.4013
238.6128	0.3947
238.8284	0.4094
239.0439	0.3962
239.2595	0.3939
239.475	0.4017
239.6906	0.3927
239.9061	0.4049
240.1216	0.3872
240.3371	0.4068
240.5526	0.4049
240.7681	0.4113
240.9836	0.385
241.199	0.3944
241.4145	0.3833
241.6299	0.3719
241.8453	0.3735
242.0607	0.3652
242.2761	0.3605
242.4915	0.3694
242.7069	0.372
242.9223	0.3563
243.1376	0.3569
243.353	0.3446
243.5683	0.3463
243.7836	0.3204
243.9989	0.3294
244.2142	0.3049
244.4295	0.2996
244.6448	0.3137
244.86	0.3039
245.0753	0.2916
245.2905	0.2715
245.5057	0.2733
245.721	0.2621
245.9362	0.2704
246.1514	0.275
246.3665	0.2708
246.5817	0.2545
246.7969	0.2605
247.012	0.247
247.2271	0.243
247.4423	0.2422
247.6574	0.2443
247.8725	0.2429
248.0876	0.2369
248.3026	0.2302
248.5177	0.2402
248.7328	0.2052
248.9478	0.2098
249.1628	0.222
249.3779	0.2197
249.5929	0.2044
249.8079	0.2229
250.0228	0.2067
250.2378	0.2084
250.4528	0.2002
250.6677	0.1905
250.8827	0.2076
251.0976	0.2043
251.3125	0.185
251.5274	0.1752
251.7423	0.1852
251.9572	0.1813
252.172	0.184
252.3869	0.1969
252.6017	0.176
252.8166	0.177
253.0314	0.1685
253.2462	0.1752
253.461	0.1879
253.6758	0.1903
253.8906	0.1788
254.1053	0.1677
254.3201	0.167
254.5348	0.1796
254.7496	0.1788
254.9643	0.1666
255.179	0.1639
255.3937	0.166
255.6083	0.1702
255.823	0.1722
256.0377	0.1744
256.2523	0.1612
256.467	0.1564
256.6816	0.1658
256.8962	0.1668
257.1108	0.1552
257.3254	0.1799
257.54	0.17
257.7545	0.1654
257.9691	0.1771
258.1836	0.1664
258.3981	0.187
258.6127	0.1736
258.8272	0.1601
259.0417	0.1554
259.2561	0.1607
259.4706	0.171
259.6851	0.1607
259.8995	0.1738
260.114	0.1515
260.3284	0.1564
260.5428	0.1518
260.7572	0.1758
260.9716	0.1594
261.186	0.1581
261.4003	0.1712
261.6147	0.1712
261.829	0.1544
262.0433	0.1664
262.2577	0.16
262.472	0.1618
262.6863	0.1563
262.9005	0.1623
263.1148	0.1655
263.3291	0.1435
263.5433	0.1531
263.7576	0.1627
263.9718	0.1739
264.186	0.153
264.4002	0.1538
264.6144	0.1641
264.8286	0.1634
265.0427	0.1656
265.2569	0.1562
265.471	0.1526
265.6851	0.1529
265.8993	0.1657
266.1134	0.1491
266.3275	0.1559
266.5415	0.1576
266.7556	0.1554
266.9697	0.1615
267.1837	0.1721
267.3978	0.1669
267.6118	0.1734
267.8258	0.1766
268.0398	0.155
268.2538	0.177
268.4677	0.1648
268.6817	0.1593
268.8957	0.164
269.1096	0.1712
269.3235	0.164
269.5374	0.1439
269.7514	0.1585
269.9652	0.1533
270.1791	0.1499
270.393	0.153
270.6068	0.1487
270.8207	0.1392
271.0345	0.1483
271.2483	0.1609
271.4622	0.1529
271.676	0.1543
271.8897	0.1428
272.1035	0.1506
272.3173	0.1437
272.531	0.1472
272.7448	0.1445
272.9585	0.1326
273.1722	0.1571
273.3859	0.1485
273.5996	0.1451
273.8133	0.1512
274.0269	0.1415
274.2406	0.1292
274.4542	0.1462
274.6679	0.1373
274.8815	0.1495
275.0951	0.1447
275.3087	0.1491
275.5223	0.1474
275.7358	0.1408
275.9494	0.1433
276.1629	0.1395
276.3765	0.1349
276.59	0.1499
276.8035	0.1556
277.017	0.1439
277.2305	0.1291
277.444	0.1619
277.6574	0.139
277.8709	0.1484
278.0843	0.1361
278.2978	0.135
278.5112	0.15
278.7246	0.1458
278.938	0.1474
279.1513	0.148
279.3647	0.1634
279.5781	0.1469
279.7914	0.1475
280.0047	0.1631
280.2181	0.1509
280.4314	0.1582
280.6447	0.1593
280.8579	0.1483
281.0712	0.1529
281.2845	0.1475
281.4977	0.1587
281.711	0.1425
281.9242	0.1532
282.1374	0.1542
282.3506	0.155
282.5638	0.1505
282.7769	0.154
282.9901	0.1553
283.2033	0.1704
283.4164	0.163
283.6295	0.1502
283.8426	0.1578
284.0557	0.1455
284.2688	0.1558
284.4819	0.1555
284.695	0.1526
284.908	0.1569
285.1211	0.1508
285.3341	0.1574
285.5471	0.1593
285.7601	0.1557
285.9731	0.1485
286.1861	0.1558
286.3991	0.1679
286.612	0.1729
286.825	0.166
287.0379	0.1652
287.2508	0.1592
287.4637	0.1679
287.6766	0.1581
287.8895	0.1657
288.1024	0.1907
288.3152	0.1747
288.5281	0.1594
288.7409	0.1778
288.9538	0.1631
289.1666	0.1603
289.3794	0.156
289.5922	0.1696
289.8049	0.1647
290.0177	0.1639
290.2304	0.1698
290.4432	0.1717
290.6559	0.1748
290.8686	0.1719
291.0813	0.1612
291.294	0.1599
291.5067	0.1777
291.7194	0.1647
291.932	0.1721
292.1447	0.1662
292.3573	0.1503
292.5699	0.1612
292.7825	0.1652
292.9951	0.1666
293.2077	0.1546
293.4203	0.1696
293.6328	0.168
293.8454	0.1614
294.0579	0.1623
294.2704	0.1657
294.4829	0.1605
294.6954	0.1708
294.9079	0.1689
295.1204	0.1632
295.3328	0.1603
295.5453	0.172
295.7577	0.1611
295.9701	0.1496
296.1825	0.1649
296.3949	0.1653
296.6073	0.1588
296.8197	0.1534
297.0321	0.1697
297.2444	0.1523
297.4567	0.17
297.6691	0.1671
297.8814	0.1491
298.0937	0.1641
298.306	0.1585
298.5182	0.166
298.7305	0.1733
298.9428	0.1617
299.155	0.1639
299.3672	0.1626
299.5794	0.1604
299.7916	0.1601
300.0038	0.168
300.216	0.1767
300.4282	0.1687
300.6403	0.1582
300.8525	0.1614
301.0646	0.1644
301.2767	0.1627
301.4888	0.1692
301.7009	0.1652
301.913	0.1664
302.125	0.1595
302.3371	0.1621
302.5491	0.162
302.7612	0.1618
302.9732	0.1569
303.1852	0.1666
303.3972	0.1664
303.6092	0.1452
303.8211	0.1516
304.0331	0.156
304.245	0.155
304.457	0.1476
304.6689	0.1448
304.8808	0.1735
305.0927	0.1499
305.3046	0.1628
305.5164	0.1671
305.7283	0.1392
305.9401	0.1471
306.152	0.1592
306.3638	0.1583
306.5756	0.1412
306.7874	0.149
306.9992	0.1553
307.2109	0.1363
307.4227	0.1303
307.6344	0.1426
307.8462	0.1449
308.0579	0.14
308.2696	0.1437
308.4813	0.1242
308.693	0.1333
308.9046	0.1423
309.1163	0.1379
309.328	0.1241
309.5396	0.1274
309.7512	0.1281
309.9628	0.1255
310.1744	0.1215
310.386	0.1196
310.5976	0.1113
310.8091	0.1146
311.0207	0.1239
311.2322	0.1235
311.4437	0.1108
311.6552	0.1102
311.8667	0.1154
312.0782	0.1024
312.2897	0.0985
312.5012	0.1213
312.7126	0.1022
312.924	0.1021
313.1355	0.1211
313.3469	0.1095
313.5583	0.1107
313.7696	0.1046
313.981	0.1161
314.1924	0.1032
314.4037	0.1052
314.6151	0.1077
314.8264	0.0899
315.0377	0.0984
315.249	0.1031
315.4603	0.1097
315.6716	0.1074
315.8828	0.1018
316.0941	0.1086
316.3053	0.0852
316.5165	0.0885
316.7277	0.0935
316.9389	0.1053
317.1501	0.0987
317.3613	0.0987
317.5724	0.0911
317.7836	0.0984
317.9947	0.103
318.2058	0.092
318.417	0.0924
318.6281	0.0841
318.8391	0.0979
319.0502	0.0978
319.2613	0.1013
319.4723	0.1018
319.6834	0.1062
319.8944	0.0904
320.1054	0.0996
320.3164	0.1053
320.5274	0.0968
320.7383	0.0927
320.9493	0.0955
321.1602	0.1063
321.3712	0.0793
321.5821	0.0974
321.793	0.11
322.0039	0.0994
322.2148	0.0833
322.4257	0.1028
322.6365	0.1057
322.8474	0.0994
323.0582	0.0947
323.269	0.0919
323.4798	0.1032
323.6906	0.0948
323.9014	0.1034
324.1122	0.1177
324.3229	0.1006
324.5337	0.0961
324.7444	0.0822
324.9551	0.1132
325.1658	0.1165
325.3765	0.1049
325.5872	0.104
325.7979	0.0985
326.0085	0.1021
326.2192	0.1128
326.4298	0.1149
326.6404	0.0875
326.851	0.0986
327.0616	0.0989
327.2722	0.0991
327.4828	0.1052
327.6933	0.1066
327.9039	0.1003
328.1144	0.1145
328.3249	0.1173
328.5354	0.0967
328.7459	0.1039
328.9564	0.0902
329.1669	0.1086
329.3773	0.1051
329.5878	0.11
329.7982	0.0977
330.0086	0.1023
330.219	0.101
330.4294	0.0993
330.6398	0.1111
330.8502	0.0968
331.0605	0.108
331.2708	0.1046
331.4812	0.1066
331.6915	0.1119
331.9018	0.1055
332.1121	0.1034
332.3224	0.1254
332.5326	0.1036
332.7429	0.1119
332.9531	0.1179
333.1633	0.1161
333.3735	0.1106
333.5837	0.1129
333.7939	0.1061
334.0041	0.1156
334.2143	0.1256
334.4244	0.1031
334.6346	0.1022
334.8447	0.1195
335.0548	0.1097
335.2649	0.104
335.475	0.1188
335.685	0.1073
335.8951	0.1194
336.1051	0.1105
336.3152	0.1126
336.5252	0.1075
336.7352	0.1058
336.9452	0.1009
337.1552	0.1197
337.3652	0.1082
337.5751	0.1041
337.7851	0.1194
337.995	0.1128
338.2049	0.1202
338.4148	0.1177
338.6247	0.1127
338.8346	0.116
339.0445	0.1064
339.2543	0.1071
339.4642	0.1094
339.674	0.0964
339.8838	0.1157
340.0936	0.1248
340.3034	0.1357
340.5132	0.1065
340.7229	0.1194
340.9327	0.1137
341.1424	0.1225
341.3522	0.1107
341.5619	0.1201
341.7716	0.123
341.9813	0.1262
342.1909	0.1165
342.4006	0.1351
342.6102	0.1389
342.8199	0.1186
343.0295	0.1226
343.2391	0.1259
343.4487	0.1275
343.6583	0.1173
343.8679	0.1155
344.0774	0.1296
344.287	0.1343
344.4965	0.1179
344.706	0.1403
344.9155	0.1225
345.125	0.1173
345.3345	0.1223
345.544	0.126
345.7534	0.128
345.9629	0.1292
346.1723	0.1232
346.3817	0.1289
346.5911	0.1268
346.8005	0.1196
347.0099	0.1223
347.2193	0.1382
347.4286	0.1199
347.638	0.1335
347.8473	0.1331
348.0566	0.1327
348.2659	0.1323
348.4752	0.1341
348.6845	0.1349
348.8937	0.1381
349.103	0.1476
349.3122	0.1218
349.5214	0.1241
349.7306	0.1294
349.9398	0.1294
350.149	0.131
350.3582	0.1309
350.5674	0.1415
350.7765	0.1405
350.9856	0.1359
351.1948	0.1412
351.4039	0.1209
351.613	0.1297
351.822	0.1525
352.0311	0.1439
352.2402	0.1319
352.4492	0.1486
352.6582	0.1609
352.8672	0.1393
353.0762	0.1561
353.2852	0.1425
353.4942	0.1472
353.7032	0.1453
353.9121	0.1496
354.1211	0.1473
354.33	0.1429
354.5389	0.159
354.7478	0.1484
354.9567	0.1545
355.1655	0.1488
355.3744	0.1456
355.5833	0.1623
355.7921	0.167
356.0009	0.1528
356.2097	0.1568
356.4185	0.1806
356.6273	0.1748
356.8361	0.1656
357.0448	0.1573
357.2536	0.1632
357.4623	0.1475
357.671	0.1659
357.8797	0.1672
358.0884	0.1702
358.2971	0.1562
358.5057	0.1623
358.7144	0.1778
358.923	0.1735
359.1316	0.1718
359.3402	0.1737
359.5488	0.1729
359.7574	0.1616
359.966	0.1912
360.1746	0.1762
360.3831	0.1774
360.5916	0.1772
360.8002	0.1748
361.0087	0.1947
361.2172	0.1819
361.4256	0.1734
361.6341	0.1935
361.8426	0.1805
362.051	0.1797
362.2594	0.1751
362.4678	0.1852
362.6762	0.2089
362.8846	0.1951
363.093	0.1785
363.3014	0.1855
363.5097	0.1757
363.718	0.1715
363.9264	0.1995
364.1347	0.185
364.343	0.1927
364.5513	0.2047
364.7595	0.202
364.9678	0.1835
365.176	0.2081
365.3842	0.1968
365.5925	0.1965
365.8007	0.1942
366.0089	0.1988
366.217	0.1851
366.4252	0.2201
366.6333	0.2136
366.8415	0.1963
367.0496	0.212
367.2577	0.1958
367.4658	0.2081
367.6739	0.2063
367.882	0.2065
368.09	0.1888
368.2981	0.2068
368.5061	0.2044
368.7141	0.2179
368.9221	0.2068
369.1301	0.2162
369.3381	0.2087
369.5461	0.2178
369.754	0.1953
369.962	0.231
370.1699	0.2145
370.3778	0.2212
370.5857	0.2003
370.7936	0.2193
371.0015	0.2238
371.2093	0.2194
371.4172	0.2206
371.625	0.2184
371.8328	0.2112
372.0406	0.2163
372.2484	0.2088
372.4562	0.214
372.664	0.2074
372.8717	0.2204
373.0795	0.2302
373.2872	0.2221
373.4949	0.2183
373.7026	0.2361
373.9103	0.2359
374.118	0.2383
374.3256	0.2177
374.5333	0.2194
374.7409	0.227
374.9485	0.2449
375.1561	0.2469
375.3637	0.2269
375.5713	0.2444
375.7789	0.2213
375.9864	0.248
376.194	0.2209
376.4015	0.2544
376.609	0.2479
376.8165	0.2384
377.024	0.2359
377.2315	0.2217
377.4389	0.2422
377.6464	0.253
377.8538	0.2313
378.0612	0.236
378.2686	0.2499
378.476	0.2545
378.6834	0.2442
378.8908	0.246
379.0981	0.2486
379.3055	0.2422
379.5128	0.2426
379.7201	0.2469
379.9274	0.2459
380.1347	0.2515
380.342	0.2699
380.5492	0.2495
380.7565	0.2534
380.9637	0.2396
381.1709	0.2513
381.3781	0.2464
381.5853	0.2751
381.7925	0.2505
381.9997	0.2465
382.2068	0.2579
382.4139	0.2389
382.6211	0.2449
382.8282	0.2684
383.0353	0.2531
383.2424	0.2385
383.4494	0.2669
383.6565	0.2533
383.8635	0.2417
384.0706	0.2512
384.2776	0.2526
384.4846	0.2479
384.6916	0.2581
384.8986	0.2573
385.1055	0.2485
385.3125	0.2588
385.5194	0.2425
385.7263	0.2667
385.9333	0.2579
386.1402	0.2481
386.347	0.2475
386.5539	0.2638
386.7608	0.2572
386.9676	0.2455
387.1744	0.251
387.3813	0.2331
387.5881	0.2583
387.7948	0.2584
388.0016	0.245
388.2084	0.2683
388.4151	0.2303
388.6219	0.2596
388.8286	0.2491
389.0353	0.2638
389.242	0.2635
389.4487	0.2356
389.6553	0.2268
389.862	0.2379
390.0686	0.2484
390.2753	0.2445
390.4819	0.261
390.6885	0.251
390.8951	0.2457
391.1016	0.2397
391.3082	0.2431
391.5147	0.2535
391.7213	0.2443
391.9278	0.2276
392.1343	0.2287
392.3408	0.2348
392.5473	0.2344
392.7537	0.2382
392.9602	0.2266
393.1666	0.2269
393.373	0.2348
393.5794	0.2556
393.7858	0.2342
393.9922	0.2011
394.1986	0.2389
394.4049	0.2247
394.6113	0.2242
394.8176	0.2131
395.0239	0.2399
395.2302	0.2117
395.4365	0.2246
395.6428	0.2384
395.8491	0.2191
396.0553	0.221
396.2615	0.2192
396.4678	0.2142
396.674	0.215
396.8802	0.2048
397.0863	0.226
397.2925	0.2099
397.4987	0.2179
397.7048	0.207
397.9109	0.2159
398.117	0.2135
398.3231	0.2181
398.5292	0.2257
398.7353	0.2217
398.9413	0.2091
399.1474	0.2139
399.3534	0.215
399.5594	0.2101
399.7654	0.2254
399.9714	0.2151
400.1774	0.209
400.3833	0.1943
400.5893	0.2061
400.7952	0.2174
401.0011	0.2174
401.207	0.2327
401.4129	0.2088
401.6188	0.228
401.8247	0.2155
402.0305	0.2074
402.2364	0.2061
402.4422	0.2268
402.648	0.2199
402.8538	0.2262
403.0596	0.2092
403.2654	0.2196
403.4711	0.2106
403.6768	0.2154
403.8826	0.2303
404.0883	0.22
404.294	0.2208
404.4997	0.2196
404.7054	0.2149
404.911	0.2046
405.1167	0.2236
405.3223	0.2324
405.5279	0.2301
405.7335	0.2196
405.9391	0.2422
406.1447	0.2102
406.3502	0.2249
406.5558	0.2106
406.7613	0.2099
406.9668	0.2278
407.1724	0.2245
407.3778	0.2157
407.5833	0.2371
407.7888	0.204
407.9942	0.2264
408.1997	0.2152
408.4051	0.2054
408.6105	0.2233
408.8159	0.1985
409.0213	0.2014
409.2267	0.2048
409.432	0.2178
409.6374	0.2335
409.8427	0.2065
410.048	0.213
410.2533	0.2057
410.4586	0.2006
410.6639	0.1929
410.8691	0.1929
411.0744	0.2008
411.2796	0.2178
411.4848	0.204
411.69	0.2022
411.8952	0.211
412.1004	0.2
412.3056	0.2165
412.5107	0.1986
412.7158	0.2206
412.921	0.2053
413.1261	0.219
413.3312	0.2005
413.5362	0.2027
413.7413	0.2068
413.9464	0.2062
414.1514	0.2092
414.3564	0.2101
414.5614	0.1937
414.7664	0.223
414.9714	0.1993
415.1764	0.2069
415.3813	0.212
415.5863	0.2098
415.7912	0.2096
415.9961	0.2156
416.201	0.206
416.4059	0.2103
416.6108	0.1896
416.8156	0.2023
417.0205	0.2
417.2253	0.194
417.4301	0.1954
417.6349	0.2017
417.8397	0.1951
418.0445	0.2234
418.2492	0.2085
418.454	0.2045
418.6587	0.1988
418.8634	0.1955
419.0681	0.1776
419.2728	0.1976
419.4775	0.1847
419.6822	0.208
419.8868	0.1847
420.0915	0.189
420.2961	0.1893
420.5007	0.1749
420.7053	0.1836
420.9099	0.1957
421.1144	0.1917
421.319	0.1807
421.5235	0.183
421.728	0.1976
421.9325	0.1967
422.137	0.197
422.3415	0.1853
422.546	0.188
422.7504	0.1927
422.9549	0.2023
423.1593	0.1803
423.3637	0.2039
423.5681	0.1926
423.7725	0.1868
423.9769	0.1674
424.1812	0.1614
424.3856	0.1732
424.5899	0.1726
424.7942	0.1874
424.9985	0.1743
425.2028	0.1681
425.4071	0.1984
425.6113	0.1587
425.8156	0.1869
426.0198	0.1707
426.224	0.1511
426.4282	0.1734
