Data from MonoPyChalIsomerACN10uM350nmA_Absorbance_14-35-33-515.txt Node
Date: Fri Jul 05 14:35:33 BST 2024
User: LASERRRRR
Spectrometer: FLMT03099
Trigger mode: 0
Integration Time (sec): 1.000000E-1
Scans to average: 1
Electric dark correction enabled: true
Nonlinearity correction enabled: false
Boxcar width: 0
XAxis mode: Wavelengths
Number of Pixels in Spectrum: 3648
>>>>>Begin Spectral Data<<<<<
179.3399	-0.1074
179.5586	-0.1074
179.7771	-0.1074
179.9957	-0
180.2143	0.0637
180.4329	-0.0894
180.6514	-0
180.8699	-0
181.0885	-0
181.307	0.4528
181.5255	-0.7762
181.744	-0.6138
181.9625	-0
182.181	-0.7754
182.3994	-0
182.6179	0.2413
182.8363	-0.0736
183.0547	-0.3198
183.2732	0.0132
183.4916	0.0786
183.71	0.1891
183.9284	0.0981
184.1467	-0.1
184.3651	-0.0484
184.5835	-0.1205
184.8018	0.2013
185.0201	-0.0225
185.2385	0.0857
185.4568	0.0459
185.6751	0.0505
185.8934	0.1885
186.1117	0.0123
186.3299	0.0391
186.5482	0.3756
186.7664	0.036
186.9847	-0.0382
187.2029	0.0348
187.4211	0.0406
187.6393	0.2434
187.8575	-0.0698
188.0757	0.1277
188.2939	0.0963
188.512	0.1907
188.7302	0.0855
188.9483	0.0348
189.1665	0.4211
189.3846	0.1036
189.6027	0.0719
189.8208	0.2641
190.0389	0.1446
190.257	0.3525
190.475	0.1172
190.6931	0.2589
190.9111	0.5339
191.1292	0.1581
191.3472	0.4682
191.5652	0.3306
191.7832	0.4756
192.0012	0.6075
192.2192	0.3051
192.4371	0.5122
192.6551	0.3545
192.873	0.315
193.091	0.323
193.3089	0.6184
193.5268	0.4233
193.7447	0.6231
193.9626	0.6093
194.1805	0.6115
194.3984	0.9909
194.6162	0.499
194.8341	0.4552
195.0519	0.6779
195.2697	0.6345
195.4875	0.5254
195.7054	0.6739
195.9231	0.3749
196.1409	0.5608
196.3587	0.5815
196.5765	0.5449
196.7942	0.5678
197.012	0.531
197.2297	0.6115
197.4474	1.0825
197.6651	0.5206
197.8828	0.5794
198.1005	0.5285
198.3182	0.5361
198.5358	0.7499
198.7535	0.6001
198.9711	0.5107
199.1888	0.7363
199.4064	1.0532
199.624	0.5469
199.8416	0.5487
200.0592	0.6482
200.2767	0.6946
200.4943	0.6443
200.7119	0.6793
200.9294	0.6885
201.1469	0.5719
201.3645	0.6713
201.582	0.5839
201.7995	0.7444
202.017	0.6133
202.2344	0.6433
202.4519	0.639
202.6694	0.6266
202.8868	0.6447
203.1042	0.6701
203.3217	0.6865
203.5391	0.6756
203.7565	0.5689
203.9739	0.5907
204.1913	0.6556
204.4086	0.7176
204.626	0.7025
204.8433	0.6448
205.0607	0.5915
205.278	0.6939
205.4953	0.6023
205.7126	0.7038
205.9299	0.6803
206.1472	0.6843
206.3644	0.5549
206.5817	0.695
206.7989	0.7616
207.0162	0.6007
207.2334	0.7416
207.4506	0.5876
207.6678	0.6727
207.885	0.6555
208.1022	0.6811
208.3194	0.6765
208.5365	0.5937
208.7537	0.6557
208.9708	0.5298
209.1879	0.6313
209.405	0.6954
209.6222	0.7128
209.8392	0.6086
210.0563	0.5532
210.2734	0.6326
210.4905	0.6294
210.7075	0.611
210.9245	0.5384
211.1416	0.6389
211.3586	0.6922
211.5756	0.5665
211.7926	0.6534
212.0096	0.6153
212.2265	0.5475
212.4435	0.5996
212.6604	0.5695
212.8774	0.5381
213.0943	0.6401
213.3112	0.533
213.5281	0.5038
213.745	0.4682
213.9619	0.4952
214.1788	0.4972
214.3956	0.4762
214.6125	0.4474
214.8293	0.4599
215.0461	0.462
215.2629	0.4333
215.4798	0.4362
215.6965	0.3966
215.9133	0.4662
216.1301	0.4078
216.3469	0.4115
216.5636	0.4151
216.7803	0.4135
216.9971	0.4121
217.2138	0.367
217.4305	0.3364
217.6472	0.3608
217.8639	0.3708
218.0805	0.3614
218.2972	0.2865
218.5138	0.3214
218.7305	0.3257
218.9471	0.3056
219.1637	0.3117
219.3803	0.2686
219.5969	0.2605
219.8135	0.2448
220.0301	0.2666
220.2466	0.275
220.4632	0.254
220.6797	0.2594
220.8962	0.2431
221.1127	0.259
221.3292	0.2482
221.5457	0.265
221.7622	0.2423
221.9787	0.256
222.1951	0.2316
222.4116	0.2632
222.628	0.2472
222.8444	0.2506
223.0608	0.2351
223.2772	0.2603
223.4936	0.2344
223.71	0.2463
223.9264	0.2603
224.1427	0.2338
224.3591	0.2503
224.5754	0.2755
224.7917	0.2621
225.008	0.2504
225.2243	0.2445
225.4406	0.2989
225.6569	0.2694
225.8732	0.2556
226.0894	0.2594
226.3057	0.2734
226.5219	0.3036
226.7381	0.2695
226.9543	0.2924
227.1705	0.2716
227.3867	0.2721
227.6029	0.3011
227.8191	0.2794
228.0352	0.2864
228.2513	0.3118
228.4675	0.2999
228.6836	0.3106
228.8997	0.307
229.1158	0.3122
229.3319	0.3208
229.548	0.3272
229.764	0.2979
229.9801	0.3159
230.1961	0.3272
230.4121	0.3599
230.6282	0.3319
230.8442	0.3198
231.0602	0.3533
231.2761	0.3444
231.4921	0.3305
231.7081	0.3583
231.924	0.353
232.14	0.3678
232.3559	0.3483
232.5718	0.3492
232.7877	0.3497
233.0036	0.3581
233.2195	0.3589
233.4353	0.3588
233.6512	0.3534
233.867	0.3862
234.0829	0.3552
234.2987	0.357
234.5145	0.3678
234.7303	0.3859
234.9461	0.3808
235.1619	0.3668
235.3776	0.3832
235.5934	0.3822
235.8091	0.3795
236.0249	0.3598
236.2406	0.3669
236.4563	0.389
236.672	0.4016
236.8877	0.382
237.1034	0.3827
237.319	0.402
237.5347	0.4025
237.7503	0.3856
237.966	0.4067
238.1816	0.4156
238.3972	0.4128
238.6128	0.3914
238.8284	0.3883
239.0439	0.4148
239.2595	0.4064
239.475	0.4147
239.6906	0.4179
239.9061	0.4055
240.1216	0.4052
240.3371	0.4028
240.5526	0.3804
240.7681	0.4146
240.9836	0.3829
241.199	0.3942
241.4145	0.3889
241.6299	0.3764
241.8453	0.3815
242.0607	0.374
242.2761	0.3579
242.4915	0.3577
242.7069	0.3603
242.9223	0.3535
243.1376	0.351
243.353	0.339
243.5683	0.3427
243.7836	0.3135
243.9989	0.3109
244.2142	0.3036
244.4295	0.2973
244.6448	0.3086
244.86	0.2899
245.0753	0.2759
245.2905	0.2828
245.5057	0.2675
245.721	0.2651
245.9362	0.2518
246.1514	0.2596
246.3665	0.2668
246.5817	0.2568
246.7969	0.2607
247.012	0.2347
247.2271	0.2342
247.4423	0.2445
247.6574	0.2268
247.8725	0.2296
248.0876	0.2151
248.3026	0.2119
248.5177	0.211
248.7328	0.2137
248.9478	0.2069
249.1628	0.2098
249.3779	0.2113
249.5929	0.2078
249.8079	0.2172
250.0228	0.2001
250.2378	0.2021
250.4528	0.2053
250.6677	0.1738
250.8827	0.1905
251.0976	0.186
251.3125	0.1836
251.5274	0.1715
251.7423	0.1834
251.9572	0.1913
252.172	0.1799
252.3869	0.1821
252.6017	0.1715
252.8166	0.1747
253.0314	0.1591
253.2462	0.1654
253.461	0.184
253.6758	0.1861
253.8906	0.1848
254.1053	0.1618
254.3201	0.17
254.5348	0.1712
254.7496	0.1842
254.9643	0.1708
255.179	0.1698
255.3937	0.1627
255.6083	0.1754
255.823	0.1777
256.0377	0.1598
256.2523	0.1668
256.467	0.1526
256.6816	0.1784
256.8962	0.1751
257.1108	0.1648
257.3254	0.1758
257.54	0.1541
257.7545	0.1628
257.9691	0.1732
258.1836	0.1586
258.3981	0.1748
258.6127	0.1763
258.8272	0.1607
259.0417	0.1712
259.2561	0.1531
259.4706	0.1618
259.6851	0.1655
259.8995	0.1687
260.114	0.1705
260.3284	0.1637
260.5428	0.1509
260.7572	0.1628
260.9716	0.1783
261.186	0.1637
261.4003	0.1712
261.6147	0.1536
261.829	0.1655
262.0433	0.1585
262.2577	0.1482
262.472	0.1637
262.6863	0.1515
262.9005	0.1652
263.1148	0.1649
263.3291	0.1459
263.5433	0.1682
263.7576	0.1571
263.9718	0.1567
264.186	0.1596
264.4002	0.1636
264.6144	0.1544
264.8286	0.1642
265.0427	0.1596
265.2569	0.1612
265.471	0.1513
265.6851	0.1556
265.8993	0.146
266.1134	0.1628
266.3275	0.1431
266.5415	0.1557
266.7556	0.1691
266.9697	0.1605
267.1837	0.1577
267.3978	0.1572
267.6118	0.1592
267.8258	0.1727
268.0398	0.1612
268.2538	0.1653
268.4677	0.1584
268.6817	0.1585
268.8957	0.1584
269.1096	0.1553
269.3235	0.156
269.5374	0.1525
269.7514	0.15
269.9652	0.1524
270.1791	0.1445
270.393	0.1442
270.6068	0.1521
270.8207	0.1352
271.0345	0.1431
271.2483	0.1424
271.4622	0.1347
271.676	0.143
271.8897	0.1381
272.1035	0.1366
272.3173	0.1337
272.531	0.1438
272.7448	0.1402
272.9585	0.1295
273.1722	0.1393
273.3859	0.1506
273.5996	0.124
273.8133	0.1527
274.0269	0.1381
274.2406	0.135
274.4542	0.1448
274.6679	0.1344
274.8815	0.1457
275.0951	0.1482
275.3087	0.1508
275.5223	0.1446
275.7358	0.1381
275.9494	0.1449
276.1629	0.1303
276.3765	0.1296
276.59	0.1352
276.8035	0.1398
277.017	0.1222
277.2305	0.128
277.444	0.1437
277.6574	0.1294
277.8709	0.1483
278.0843	0.1379
278.2978	0.1364
278.5112	0.1349
278.7246	0.1402
278.938	0.1306
279.1513	0.1437
279.3647	0.1618
279.5781	0.1393
279.7914	0.1433
280.0047	0.1538
280.2181	0.1388
280.4314	0.1395
280.6447	0.147
280.8579	0.1455
281.0712	0.146
281.2845	0.1576
281.4977	0.1414
281.711	0.1459
281.9242	0.1435
282.1374	0.1559
282.3506	0.1411
282.5638	0.145
282.7769	0.1505
282.9901	0.1609
283.2033	0.1593
283.4164	0.1561
283.6295	0.1516
283.8426	0.149
284.0557	0.1561
284.2688	0.1589
284.4819	0.1578
284.695	0.1446
284.908	0.1621
285.1211	0.1468
285.3341	0.1556
285.5471	0.1607
285.7601	0.1652
285.9731	0.1463
286.1861	0.1591
286.3991	0.1644
286.612	0.1684
286.825	0.1661
287.0379	0.1599
287.2508	0.1534
287.4637	0.1642
287.6766	0.1604
287.8895	0.1691
288.1024	0.1757
288.3152	0.1557
288.5281	0.149
288.7409	0.1636
288.9538	0.1656
289.1666	0.1676
289.3794	0.1574
289.5922	0.1681
289.8049	0.1562
290.0177	0.1621
290.2304	0.1738
290.4432	0.1763
290.6559	0.1597
290.8686	0.1713
291.0813	0.1652
291.294	0.163
291.5067	0.1831
291.7194	0.1666
291.932	0.1773
292.1447	0.1616
292.3573	0.1576
292.5699	0.1661
292.7825	0.1806
292.9951	0.1627
293.2077	0.1649
293.4203	0.1615
293.6328	0.1606
293.8454	0.1792
294.0579	0.1697
294.2704	0.1742
294.4829	0.147
294.6954	0.1639
294.9079	0.1521
295.1204	0.1752
295.3328	0.164
295.5453	0.1627
295.7577	0.1629
295.9701	0.1665
296.1825	0.1726
296.3949	0.1647
296.6073	0.158
296.8197	0.155
297.0321	0.171
297.2444	0.1521
297.4567	0.1643
297.6691	0.1608
297.8814	0.1522
298.0937	0.1588
298.306	0.1667
298.5182	0.1702
298.7305	0.1724
298.9428	0.1636
299.155	0.1668
299.3672	0.1584
299.5794	0.1658
299.7916	0.1487
300.0038	0.177
300.216	0.1678
300.4282	0.1691
300.6403	0.1614
300.8525	0.1671
301.0646	0.1568
301.2767	0.1682
301.4888	0.1591
301.7009	0.1792
301.913	0.1644
302.125	0.1716
302.3371	0.1631
302.5491	0.1672
302.7612	0.1748
302.9732	0.1674
303.1852	0.1667
303.3972	0.1716
303.6092	0.1529
303.8211	0.1473
304.0331	0.1567
304.245	0.155
304.457	0.1552
304.6689	0.1498
304.8808	0.1615
305.0927	0.1529
305.3046	0.1558
305.5164	0.1621
305.7283	0.1496
305.9401	0.1457
306.152	0.1494
306.3638	0.1524
306.5756	0.1481
306.7874	0.1435
306.9992	0.1463
307.2109	0.146
307.4227	0.1336
307.6344	0.1395
307.8462	0.1288
308.0579	0.1371
308.2696	0.1386
308.4813	0.1247
308.693	0.1375
308.9046	0.144
309.1163	0.1319
309.328	0.1238
309.5396	0.1231
309.7512	0.1183
309.9628	0.1043
310.1744	0.1182
310.386	0.1255
310.5976	0.118
310.8091	0.1202
311.0207	0.1135
311.2322	0.1179
311.4437	0.1159
311.6552	0.1059
311.8667	0.1147
312.0782	0.0964
312.2897	0.112
312.5012	0.1118
312.7126	0.0977
312.924	0.0913
313.1355	0.1146
313.3469	0.1054
313.5583	0.1088
313.7696	0.1057
313.981	0.1196
314.1924	0.0978
314.4037	0.1031
314.6151	0.1086
314.8264	0.0928
315.0377	0.0975
315.249	0.1006
315.4603	0.1038
315.6716	0.1031
315.8828	0.0909
316.0941	0.0975
316.3053	0.096
316.5165	0.0938
316.7277	0.0832
316.9389	0.1002
317.1501	0.107
317.3613	0.0991
317.5724	0.0836
317.7836	0.096
317.9947	0.0964
318.2058	0.0959
318.417	0.0832
318.6281	0.0876
318.8391	0.0921
319.0502	0.0811
319.2613	0.0897
319.4723	0.099
319.6834	0.0894
319.8944	0.0855
320.1054	0.0929
320.3164	0.0981
320.5274	0.082
320.7383	0.0906
320.9493	0.0905
321.1602	0.1051
321.3712	0.0825
321.5821	0.0876
321.793	0.0875
322.0039	0.0991
322.2148	0.0909
322.4257	0.088
322.6365	0.0981
322.8474	0.0976
323.0582	0.0981
323.269	0.1049
323.4798	0.1078
323.6906	0.0973
323.9014	0.0959
324.1122	0.1008
324.3229	0.0954
324.5337	0.0968
324.7444	0.0895
324.9551	0.1152
325.1658	0.1038
325.3765	0.1007
325.5872	0.0947
325.7979	0.0989
326.0085	0.1056
326.2192	0.1009
326.4298	0.0982
326.6404	0.0874
326.851	0.0949
327.0616	0.102
327.2722	0.0922
327.4828	0.0988
327.6933	0.0889
327.9039	0.0905
328.1144	0.1012
328.3249	0.1057
328.5354	0.0983
328.7459	0.0991
328.9564	0.0915
329.1669	0.1011
329.3773	0.0972
329.5878	0.1036
329.7982	0.0964
330.0086	0.1045
330.219	0.0984
330.4294	0.089
330.6398	0.0903
330.8502	0.0891
331.0605	0.0989
331.2708	0.1092
331.4812	0.1059
331.6915	0.1065
331.9018	0.0949
332.1121	0.0983
332.3224	0.1072
332.5326	0.1118
332.7429	0.1056
332.9531	0.1199
333.1633	0.1113
333.3735	0.0982
333.5837	0.1078
333.7939	0.0904
334.0041	0.1044
334.2143	0.1112
334.4244	0.1091
334.6346	0.091
334.8447	0.1135
335.0548	0.0916
335.2649	0.095
335.475	0.1075
335.685	0.1039
335.8951	0.106
336.1051	0.1099
336.3152	0.1032
336.5252	0.1004
336.7352	0.117
336.9452	0.1105
337.1552	0.1098
337.3652	0.098
337.5751	0.1014
337.7851	0.1043
337.995	0.0927
338.2049	0.1176
338.4148	0.1072
338.6247	0.1134
338.8346	0.1047
339.0445	0.1085
339.2543	0.1085
339.4642	0.1099
339.674	0.1052
339.8838	0.1028
340.0936	0.1092
340.3034	0.1286
340.5132	0.1237
340.7229	0.1078
340.9327	0.1096
341.1424	0.1052
341.3522	0.1125
341.5619	0.1171
341.7716	0.1219
341.9813	0.1162
342.1909	0.1131
342.4006	0.1154
342.6102	0.117
342.8199	0.12
343.0295	0.108
343.2391	0.122
343.4487	0.1242
343.6583	0.1062
343.8679	0.1133
344.0774	0.1227
344.287	0.118
344.4965	0.1187
344.706	0.1208
344.9155	0.1202
345.125	0.1211
345.3345	0.1207
345.544	0.1276
345.7534	0.1213
345.9629	0.1193
346.1723	0.13
346.3817	0.1234
346.5911	0.122
346.8005	0.1295
347.0099	0.1226
347.2193	0.1255
347.4286	0.1306
347.638	0.121
347.8473	0.1275
348.0566	0.1334
348.2659	0.1417
348.4752	0.1195
348.6845	0.1226
348.8937	0.1352
349.103	0.1404
349.3122	0.1215
349.5214	0.1272
349.7306	0.1224
349.9398	0.1352
350.149	0.1287
350.3582	0.1332
350.5674	0.1503
350.7765	0.1337
350.9856	0.1322
351.1948	0.1475
351.4039	0.1213
351.613	0.1142
351.822	0.1441
352.0311	0.1474
352.2402	0.1389
352.4492	0.1528
352.6582	0.1531
352.8672	0.1412
353.0762	0.1494
353.2852	0.1371
353.4942	0.1265
353.7032	0.1505
353.9121	0.1585
354.1211	0.1567
354.33	0.155
354.5389	0.1524
354.7478	0.1448
354.9567	0.1478
355.1655	0.1523
355.3744	0.1585
355.5833	0.1616
355.7921	0.1702
356.0009	0.1521
356.2097	0.1653
356.4185	0.1738
356.6273	0.1627
356.8361	0.1582
357.0448	0.1564
357.2536	0.1581
357.4623	0.1607
357.671	0.1603
357.8797	0.1527
358.0884	0.1715
358.2971	0.1578
358.5057	0.165
358.7144	0.177
358.923	0.1511
359.1316	0.1764
359.3402	0.1653
359.5488	0.1599
359.7574	0.1719
359.966	0.1718
360.1746	0.1813
360.3831	0.1712
360.5916	0.1783
360.8002	0.1591
361.0087	0.1919
361.2172	0.1801
361.4256	0.1761
361.6341	0.1869
361.8426	0.1868
362.051	0.1836
362.2594	0.178
362.4678	0.1885
362.6762	0.2055
362.8846	0.1756
363.093	0.1813
363.3014	0.1892
363.5097	0.1719
363.718	0.1835
363.9264	0.1836
364.1347	0.18
364.343	0.1895
364.5513	0.2112
364.7595	0.215
364.9678	0.1934
365.176	0.1915
365.3842	0.1948
365.5925	0.2112
365.8007	0.2062
366.0089	0.1979
366.217	0.1903
366.4252	0.1961
366.6333	0.2162
366.8415	0.2047
367.0496	0.2054
367.2577	0.2096
367.4658	0.2338
367.6739	0.2142
367.882	0.221
368.09	0.2109
368.2981	0.212
368.5061	0.1959
368.7141	0.2332
368.9221	0.2139
369.1301	0.2217
369.3381	0.2032
369.5461	0.2082
369.754	0.2307
369.962	0.2274
370.1699	0.2138
370.3778	0.2248
370.5857	0.2097
370.7936	0.2127
371.0015	0.2192
371.2093	0.2245
371.4172	0.2359
371.625	0.2225
371.8328	0.2195
372.0406	0.232
372.2484	0.2331
372.4562	0.2368
372.664	0.2271
372.8717	0.249
373.0795	0.2069
373.2872	0.2367
373.4949	0.2326
373.7026	0.2419
373.9103	0.2334
374.118	0.2522
374.3256	0.2391
374.5333	0.2223
374.7409	0.2212
374.9485	0.2381
375.1561	0.2461
375.3637	0.2523
375.5713	0.2516
375.7789	0.2345
375.9864	0.2445
376.194	0.2361
376.4015	0.2509
376.609	0.2604
376.8165	0.229
377.024	0.2321
377.2315	0.232
377.4389	0.2419
377.6464	0.2628
377.8538	0.244
378.0612	0.2393
378.2686	0.2562
378.476	0.2606
378.6834	0.2522
378.8908	0.2656
379.0981	0.2698
379.3055	0.249
379.5128	0.261
379.7201	0.263
379.9274	0.2441
380.1347	0.2466
380.342	0.2613
380.5492	0.2442
380.7565	0.2587
380.9637	0.2519
381.1709	0.2611
381.3781	0.2586
381.5853	0.2795
381.7925	0.2703
381.9997	0.2673
382.2068	0.2807
382.4139	0.2709
382.6211	0.2629
382.8282	0.2613
383.0353	0.2553
383.2424	0.2545
383.4494	0.2715
383.6565	0.2609
383.8635	0.2534
384.0706	0.2762
384.2776	0.2714
384.4846	0.2641
384.6916	0.2667
384.8986	0.2661
385.1055	0.2645
385.3125	0.2594
385.5194	0.2571
385.7263	0.2781
385.9333	0.2538
386.1402	0.2521
386.347	0.2711
386.5539	0.252
386.7608	0.2698
386.9676	0.2446
387.1744	0.2516
387.3813	0.2469
387.5881	0.2642
387.7948	0.2632
388.0016	0.2446
388.2084	0.2773
388.4151	0.2688
388.6219	0.2816
388.8286	0.2672
389.0353	0.2714
389.242	0.2649
389.4487	0.2668
389.6553	0.2442
389.862	0.2432
390.0686	0.2449
390.2753	0.2688
390.4819	0.2693
390.6885	0.2551
390.8951	0.2746
391.1016	0.2644
391.3082	0.2579
391.5147	0.2616
391.7213	0.2384
391.9278	0.2632
392.1343	0.243
392.3408	0.2411
392.5473	0.232
392.7537	0.2288
392.9602	0.239
393.1666	0.2425
393.373	0.2458
393.5794	0.2456
393.7858	0.2283
393.9922	0.2241
394.1986	0.2465
394.4049	0.2454
394.6113	0.2165
394.8176	0.2272
395.0239	0.2307
395.2302	0.2371
395.4365	0.2369
395.6428	0.2418
395.8491	0.2265
396.0553	0.2234
396.2615	0.2399
396.4678	0.2193
396.674	0.2144
396.8802	0.2254
397.0863	0.2254
397.2925	0.2178
397.4987	0.2148
397.7048	0.2118
397.9109	0.2451
398.117	0.2279
398.3231	0.2303
398.5292	0.2357
398.7353	0.2433
398.9413	0.2197
399.1474	0.2283
399.3534	0.2117
399.5594	0.1991
399.7654	0.2345
399.9714	0.2431
400.1774	0.2243
400.3833	0.2182
400.5893	0.2267
400.7952	0.2404
401.0011	0.2353
401.207	0.2235
401.4129	0.2237
401.6188	0.212
401.8247	0.2323
402.0305	0.2145
402.2364	0.216
402.4422	0.2271
402.648	0.2406
402.8538	0.2323
403.0596	0.217
403.2654	0.2216
403.4711	0.2239
403.6768	0.2422
403.8826	0.2288
404.0883	0.2396
404.294	0.231
404.4997	0.2256
404.7054	0.2312
404.911	0.2148
405.1167	0.228
405.3223	0.2358
405.5279	0.2365
405.7335	0.2273
405.9391	0.238
406.1447	0.2206
406.3502	0.2497
406.5558	0.2093
406.7613	0.2247
406.9668	0.2266
407.1724	0.2184
407.3778	0.2204
407.5833	0.2105
407.7888	0.2268
407.9942	0.2413
408.1997	0.2266
408.4051	0.2231
408.6105	0.2302
408.8159	0.2137
409.0213	0.2147
409.2267	0.2267
409.432	0.2019
409.6374	0.2402
409.8427	0.2214
410.048	0.2181
410.2533	0.2171
410.4586	0.2216
410.6639	0.219
410.8691	0.2114
411.0744	0.2109
411.2796	0.2123
411.4848	0.2265
411.69	0.2146
411.8952	0.2253
412.1004	0.2006
412.3056	0.2397
412.5107	0.2247
412.7158	0.2421
412.921	0.2229
413.1261	0.2263
413.3312	0.2141
413.5362	0.2142
413.7413	0.2149
413.9464	0.2198
414.1514	0.2028
414.3564	0.2122
414.5614	0.2082
414.7664	0.2033
414.9714	0.2002
415.1764	0.2014
415.3813	0.2248
415.5863	0.2346
415.7912	0.2219
415.9961	0.2188
416.201	0.2049
416.4059	0.2033
416.6108	0.2208
416.8156	0.2267
417.0205	0.2051
417.2253	0.1956
417.4301	0.2205
417.6349	0.2091
417.8397	0.1982
418.0445	0.1938
418.2492	0.2017
418.454	0.1968
418.6587	0.195
418.8634	0.1986
419.0681	0.2233
419.2728	0.2092
419.4775	0.2172
419.6822	0.2036
419.8868	0.1814
420.0915	0.2068
420.2961	0.1985
420.5007	0.2039
420.7053	0.2142
420.9099	0.2026
421.1144	0.2046
421.319	0.1863
421.5235	0.1981
421.728	0.1951
421.9325	0.2011
422.137	0.2083
422.3415	0.1892
422.546	0.1939
422.7504	0.195
422.9549	0.2206
423.1593	0.2018
423.3637	0.1975
423.5681	0.1861
423.7725	0.1761
423.9769	0.1814
424.1812	0.1768
424.3856	0.1664
424.5899	0.1848
424.7942	0.1811
424.9985	0.1908
425.2028	0.1781
425.4071	0.221
425.6113	0.1703
425.8156	0.1735
426.0198	0.1923
426.224	0.1646
426.4282	0.1705
