Data from MonoPyChalIsomerACN10uM350nmA_Absorbance_14-35-37-315.txt Node
Date: Fri Jul 05 14:35:37 BST 2024
User: LASERRRRR
Spectrometer: FLMT03099
Trigger mode: 0
Integration Time (sec): 1.000000E-1
Scans to average: 1
Electric dark correction enabled: true
Nonlinearity correction enabled: false
Boxcar width: 0
XAxis mode: Wavelengths
Number of Pixels in Spectrum: 3648
>>>>>Begin Spectral Data<<<<<
179.3399	-0.4035
179.5586	-0.4035
179.7771	-0.4035
179.9957	-0
180.2143	-0
180.4329	-0.3282
180.6514	0.7854
180.8699	-0.1104
181.0885	-0.3668
181.307	0.196
181.5255	-1.0627
181.744	-0.4754
181.9625	-0
182.181	-0
182.3994	0.3626
182.6179	0.3923
182.8363	-0
183.0547	-0.5155
183.2732	0.0359
183.4916	0.1752
183.71	0.2226
183.9284	0.1399
184.1467	0.2851
184.3651	-0.047
184.5835	0.0877
184.8018	0.1447
185.0201	-0.0856
185.2385	0.0349
185.4568	0.1412
185.6751	0.0796
185.8934	0.1314
186.1117	0.108
186.3299	0.0021
186.5482	0.4011
186.7664	-0.0384
186.9847	0.0512
187.2029	0.144
187.4211	0.0975
187.6393	0.0722
187.8575	-0.0975
188.0757	0.3098
188.2939	0.1042
188.512	-0.034
188.7302	-0.0251
188.9483	0.461
189.1665	0.1091
189.3846	-0.1789
189.6027	0.2056
189.8208	0.1685
190.0389	0.1584
190.257	0.0326
190.475	0.4623
190.6931	0.1658
190.9111	0.6504
191.1292	0.1362
191.3472	0.6474
191.5652	0.2016
191.7832	0.3145
192.0012	0.5686
192.2192	0.3168
192.4371	0.7259
192.6551	0.6101
192.873	0.5083
193.091	0.5814
193.3089	0.5708
193.5268	0.4428
193.7447	0.641
193.9626	0.4326
194.1805	0.6194
194.3984	0.6372
194.6162	0.5621
194.8341	0.5236
195.0519	0.4623
195.2697	0.5379
195.4875	0.5149
195.7054	0.6418
195.9231	0.5572
196.1409	0.7554
196.3587	0.5828
196.5765	0.5756
196.7942	0.6786
197.012	0.5814
197.2297	0.6009
197.4474	1.0391
197.6651	0.6083
197.8828	0.5775
198.1005	0.5027
198.3182	0.6605
198.5358	0.7772
198.7535	0.6869
198.9711	0.5364
199.1888	0.6488
199.4064	0.8871
199.624	0.6848
199.8416	0.6034
200.0592	0.6429
200.2767	0.6991
200.4943	0.5397
200.7119	0.7956
200.9294	0.6091
201.1469	0.5844
201.3645	0.5707
201.582	0.607
201.7995	0.7139
202.017	0.5988
202.2344	0.6195
202.4519	0.8994
202.6694	0.6695
202.8868	0.5537
203.1042	0.742
203.3217	0.6792
203.5391	0.7206
203.7565	0.6045
203.9739	0.6231
204.1913	0.5702
204.4086	0.7133
204.626	0.6544
204.8433	0.7431
205.0607	0.6034
205.278	0.653
205.4953	0.6368
205.7126	0.7115
205.9299	0.7351
206.1472	0.6333
206.3644	0.6435
206.5817	0.6752
206.7989	0.7533
207.0162	0.6925
207.2334	0.7469
207.4506	0.6761
207.6678	0.5886
207.885	0.6417
208.1022	0.6193
208.3194	0.6622
208.5365	0.6295
208.7537	0.6643
208.9708	0.6293
209.1879	0.7056
209.405	0.6849
209.6222	0.7077
209.8392	0.6766
210.0563	0.6135
210.2734	0.6794
210.4905	0.6695
210.7075	0.6272
210.9245	0.5826
211.1416	0.7149
211.3586	0.6412
211.5756	0.606
211.7926	0.6053
212.0096	0.5734
212.2265	0.6544
212.4435	0.5816
212.6604	0.6124
212.8774	0.5856
213.0943	0.6286
213.3112	0.5343
213.5281	0.5372
213.745	0.5144
213.9619	0.5596
214.1788	0.4949
214.3956	0.4708
214.6125	0.476
214.8293	0.4865
215.0461	0.477
215.2629	0.4589
215.4798	0.4437
215.6965	0.4331
215.9133	0.4377
216.1301	0.418
216.3469	0.4481
216.5636	0.4021
216.7803	0.372
216.9971	0.4141
217.2138	0.3819
217.4305	0.3689
217.6472	0.3485
217.8639	0.387
218.0805	0.361
218.2972	0.3362
218.5138	0.3293
218.7305	0.3081
218.9471	0.3141
219.1637	0.3004
219.3803	0.2691
219.5969	0.2714
219.8135	0.2471
220.0301	0.29
220.2466	0.2982
220.4632	0.2676
220.6797	0.2288
220.8962	0.2408
221.1127	0.2629
221.3292	0.2655
221.5457	0.2327
221.7622	0.2404
221.9787	0.2522
222.1951	0.2539
222.4116	0.2653
222.628	0.2473
222.8444	0.2567
223.0608	0.2358
223.2772	0.249
223.4936	0.2737
223.71	0.2416
223.9264	0.2773
224.1427	0.2537
224.3591	0.2498
224.5754	0.2504
224.7917	0.2682
225.008	0.2686
225.2243	0.2566
225.4406	0.2957
225.6569	0.253
225.8732	0.2668
226.0894	0.2615
226.3057	0.2584
226.5219	0.2993
226.7381	0.2699
226.9543	0.293
227.1705	0.275
227.3867	0.279
227.6029	0.2989
227.8191	0.3013
228.0352	0.3063
228.2513	0.3213
228.4675	0.3137
228.6836	0.3019
228.8997	0.3009
229.1158	0.3209
229.3319	0.3049
229.548	0.3076
229.764	0.3334
229.9801	0.3069
230.1961	0.317
230.4121	0.3293
230.6282	0.3392
230.8442	0.3204
231.0602	0.3573
231.2761	0.3544
231.4921	0.3461
231.7081	0.3499
231.924	0.3484
232.14	0.3507
232.3559	0.3323
232.5718	0.3671
232.7877	0.3548
233.0036	0.3447
233.2195	0.3584
233.4353	0.3609
233.6512	0.37
233.867	0.3565
234.0829	0.3647
234.2987	0.374
234.5145	0.3839
234.7303	0.3695
234.9461	0.3885
235.1619	0.3701
235.3776	0.3672
235.5934	0.415
235.8091	0.3715
236.0249	0.3778
236.2406	0.388
236.4563	0.4033
236.672	0.3843
236.8877	0.3924
237.1034	0.408
237.319	0.4034
237.5347	0.4069
237.7503	0.4018
237.966	0.3968
238.1816	0.4213
238.3972	0.4039
238.6128	0.391
238.8284	0.3833
239.0439	0.4115
239.2595	0.4112
239.475	0.4189
239.6906	0.4244
239.9061	0.3971
240.1216	0.4064
240.3371	0.4016
240.5526	0.412
240.7681	0.4146
240.9836	0.3892
241.199	0.4144
241.4145	0.391
241.6299	0.3782
241.8453	0.395
242.0607	0.3705
242.2761	0.384
242.4915	0.3908
242.7069	0.354
242.9223	0.3599
243.1376	0.3489
243.353	0.3586
243.5683	0.3532
243.7836	0.332
243.9989	0.3348
244.2142	0.3133
244.4295	0.3141
244.6448	0.3143
244.86	0.2909
245.0753	0.2767
245.2905	0.2821
245.5057	0.2923
245.721	0.2876
245.9362	0.2632
246.1514	0.2797
246.3665	0.2565
246.5817	0.2572
246.7969	0.241
247.012	0.2512
247.2271	0.2349
247.4423	0.2631
247.6574	0.2468
247.8725	0.2325
248.0876	0.2243
248.3026	0.2233
248.5177	0.2199
248.7328	0.2327
248.9478	0.208
249.1628	0.2061
249.3779	0.2163
249.5929	0.1993
249.8079	0.2202
250.0228	0.2032
250.2378	0.2084
250.4528	0.2051
250.6677	0.1808
250.8827	0.1975
251.0976	0.201
251.3125	0.1782
251.5274	0.1819
251.7423	0.1687
251.9572	0.182
252.172	0.175
252.3869	0.1811
252.6017	0.1735
252.8166	0.1648
253.0314	0.1782
253.2462	0.1695
253.461	0.1785
253.6758	0.174
253.8906	0.184
254.1053	0.1613
254.3201	0.1718
254.5348	0.1826
254.7496	0.1777
254.9643	0.1688
255.179	0.1734
255.3937	0.1633
255.6083	0.1596
255.823	0.1783
256.0377	0.159
256.2523	0.1827
256.467	0.142
256.6816	0.1686
256.8962	0.1749
257.1108	0.1617
257.3254	0.1763
257.54	0.1657
257.7545	0.1722
257.9691	0.1726
258.1836	0.174
258.3981	0.1862
258.6127	0.171
258.8272	0.1698
259.0417	0.1663
259.2561	0.1637
259.4706	0.1728
259.6851	0.1741
259.8995	0.1569
260.114	0.1573
260.3284	0.1751
260.5428	0.1664
260.7572	0.162
260.9716	0.1599
261.186	0.1577
261.4003	0.1498
261.6147	0.1653
261.829	0.1602
262.0433	0.1678
262.2577	0.1631
262.472	0.1714
262.6863	0.168
262.9005	0.1663
263.1148	0.1663
263.3291	0.1574
263.5433	0.1643
263.7576	0.1766
263.9718	0.1663
264.186	0.1584
264.4002	0.1571
264.6144	0.162
264.8286	0.1664
265.0427	0.1559
265.2569	0.1676
265.471	0.1516
265.6851	0.1584
265.8993	0.1636
266.1134	0.158
266.3275	0.1568
266.5415	0.1501
266.7556	0.1587
266.9697	0.1676
267.1837	0.1628
267.3978	0.1636
267.6118	0.1723
267.8258	0.1773
268.0398	0.1402
268.2538	0.1707
268.4677	0.1582
268.6817	0.1586
268.8957	0.1556
269.1096	0.1687
269.3235	0.1715
269.5374	0.1637
269.7514	0.1479
269.9652	0.1598
270.1791	0.1551
270.393	0.1473
270.6068	0.1641
270.8207	0.135
271.0345	0.1513
271.2483	0.1396
271.4622	0.1519
271.676	0.1495
271.8897	0.1408
272.1035	0.1378
272.3173	0.1466
272.531	0.152
272.7448	0.1484
272.9585	0.1471
273.1722	0.1528
273.3859	0.1548
273.5996	0.1482
273.8133	0.1423
274.0269	0.1437
274.2406	0.1379
274.4542	0.1413
274.6679	0.1431
274.8815	0.1427
275.0951	0.1538
275.3087	0.1535
275.5223	0.1466
275.7358	0.1437
275.9494	0.1447
276.1629	0.1396
276.3765	0.141
276.59	0.147
276.8035	0.1575
277.017	0.137
277.2305	0.1417
277.444	0.1509
277.6574	0.1437
277.8709	0.1587
278.0843	0.1407
278.2978	0.14
278.5112	0.137
278.7246	0.1493
278.938	0.1461
279.1513	0.1544
279.3647	0.1469
279.5781	0.1486
279.7914	0.1539
280.0047	0.154
280.2181	0.16
280.4314	0.1562
280.6447	0.1626
280.8579	0.1523
281.0712	0.1522
281.2845	0.1608
281.4977	0.1465
281.711	0.1503
281.9242	0.1488
282.1374	0.1606
282.3506	0.1495
282.5638	0.1624
282.7769	0.1551
282.9901	0.155
283.2033	0.159
283.4164	0.1637
283.6295	0.1492
283.8426	0.1514
284.0557	0.1652
284.2688	0.1721
284.4819	0.1581
284.695	0.1534
284.908	0.1662
285.1211	0.1641
285.3341	0.1716
285.5471	0.1739
285.7601	0.1583
285.9731	0.1574
286.1861	0.1615
286.3991	0.163
286.612	0.1659
286.825	0.1525
287.0379	0.1782
287.2508	0.1496
287.4637	0.159
287.6766	0.1533
287.8895	0.176
288.1024	0.1816
288.3152	0.1589
288.5281	0.1595
288.7409	0.1702
288.9538	0.1625
289.1666	0.1591
289.3794	0.1752
289.5922	0.1629
289.8049	0.1657
290.0177	0.1651
290.2304	0.1738
290.4432	0.1635
290.6559	0.1685
290.8686	0.1736
291.0813	0.1717
291.294	0.1626
291.5067	0.1848
291.7194	0.1626
291.932	0.1817
292.1447	0.1579
292.3573	0.1581
292.5699	0.1662
292.7825	0.1606
292.9951	0.1493
293.2077	0.1713
293.4203	0.1629
293.6328	0.1451
293.8454	0.1854
294.0579	0.1673
294.2704	0.1646
294.4829	0.1562
294.6954	0.1689
294.9079	0.1604
295.1204	0.1662
295.3328	0.1538
295.5453	0.1569
295.7577	0.1578
295.9701	0.1734
296.1825	0.1635
296.3949	0.1708
296.6073	0.1622
296.8197	0.1556
297.0321	0.1681
297.2444	0.1624
297.4567	0.1597
297.6691	0.151
297.8814	0.1683
298.0937	0.1659
298.306	0.1819
298.5182	0.1606
298.7305	0.17
298.9428	0.158
299.155	0.1669
299.3672	0.1708
299.5794	0.166
299.7916	0.1651
300.0038	0.1679
300.216	0.1717
300.4282	0.1763
300.6403	0.16
300.8525	0.166
301.0646	0.1541
301.2767	0.1768
301.4888	0.1658
301.7009	0.1605
301.913	0.1577
302.125	0.172
302.3371	0.1583
302.5491	0.1726
302.7612	0.1611
302.9732	0.1615
303.1852	0.1666
303.3972	0.1689
303.6092	0.1641
303.8211	0.1502
304.0331	0.1536
304.245	0.1511
304.457	0.1633
304.6689	0.1636
304.8808	0.1627
305.0927	0.1615
305.3046	0.1609
305.5164	0.1672
305.7283	0.1527
305.9401	0.146
306.152	0.1542
306.3638	0.1548
306.5756	0.1469
306.7874	0.1504
306.9992	0.148
307.2109	0.1508
307.4227	0.1336
307.6344	0.1384
307.8462	0.134
308.0579	0.1341
308.2696	0.1384
308.4813	0.1436
308.693	0.1283
308.9046	0.1371
309.1163	0.139
309.328	0.1369
309.5396	0.1273
309.7512	0.1245
309.9628	0.1237
310.1744	0.1243
310.386	0.1256
310.5976	0.1183
310.8091	0.1206
311.0207	0.1227
311.2322	0.1202
311.4437	0.1162
311.6552	0.1099
311.8667	0.1179
312.0782	0.1005
312.2897	0.1109
312.5012	0.1064
312.7126	0.1039
312.924	0.1046
313.1355	0.1198
313.3469	0.0978
313.5583	0.1098
313.7696	0.1106
313.981	0.1111
314.1924	0.1088
314.4037	0.1084
314.6151	0.1108
314.8264	0.1005
315.0377	0.1007
315.249	0.1018
315.4603	0.1084
315.6716	0.1016
315.8828	0.0988
316.0941	0.0982
316.3053	0.1056
316.5165	0.0911
316.7277	0.0945
316.9389	0.1032
317.1501	0.0882
317.3613	0.1058
317.5724	0.0975
317.7836	0.0957
317.9947	0.1062
318.2058	0.1007
318.417	0.09
318.6281	0.0886
318.8391	0.1
319.0502	0.0996
319.2613	0.101
319.4723	0.1021
319.6834	0.1064
319.8944	0.0985
320.1054	0.104
320.3164	0.1015
320.5274	0.0902
320.7383	0.0904
320.9493	0.0989
321.1602	0.1062
321.3712	0.0938
321.5821	0.1028
321.793	0.0981
322.0039	0.0976
322.2148	0.1052
322.4257	0.1032
322.6365	0.1016
322.8474	0.108
323.0582	0.0923
323.269	0.1043
323.4798	0.1122
323.6906	0.1184
323.9014	0.106
324.1122	0.1026
324.3229	0.104
324.5337	0.1111
324.7444	0.088
324.9551	0.1084
325.1658	0.1086
325.3765	0.1071
325.5872	0.1076
325.7979	0.1034
326.0085	0.1123
326.2192	0.1018
326.4298	0.1031
326.6404	0.093
326.851	0.0992
327.0616	0.105
327.2722	0.1125
327.4828	0.1178
327.6933	0.1032
327.9039	0.1047
328.1144	0.1167
328.3249	0.1107
328.5354	0.0955
328.7459	0.1012
328.9564	0.1027
329.1669	0.1051
329.3773	0.1128
329.5878	0.1101
329.7982	0.1071
330.0086	0.1085
330.219	0.1184
330.4294	0.1097
330.6398	0.0958
330.8502	0.0922
331.0605	0.1131
331.2708	0.1046
331.4812	0.1143
331.6915	0.1142
331.9018	0.1116
332.1121	0.1055
332.3224	0.1146
332.5326	0.1198
332.7429	0.1187
332.9531	0.1297
333.1633	0.1171
333.3735	0.1024
333.5837	0.1081
333.7939	0.1011
334.0041	0.1145
334.2143	0.1097
334.4244	0.1062
334.6346	0.0947
334.8447	0.1233
335.0548	0.0978
335.2649	0.1083
335.475	0.1253
335.685	0.1064
335.8951	0.1119
336.1051	0.1172
336.3152	0.1234
336.5252	0.099
336.7352	0.1251
336.9452	0.1067
337.1552	0.1237
337.3652	0.1114
337.5751	0.1144
337.7851	0.1133
337.995	0.0961
338.2049	0.1168
338.4148	0.1183
338.6247	0.1266
338.8346	0.1006
339.0445	0.1086
339.2543	0.1139
339.4642	0.1256
339.674	0.1136
339.8838	0.1181
340.0936	0.1263
340.3034	0.1191
340.5132	0.1173
340.7229	0.1234
340.9327	0.1204
341.1424	0.1242
341.3522	0.1274
341.5619	0.1141
341.7716	0.1177
341.9813	0.1238
342.1909	0.1142
342.4006	0.1256
342.6102	0.14
342.8199	0.1256
343.0295	0.1292
343.2391	0.1242
343.4487	0.1336
343.6583	0.1201
343.8679	0.1203
344.0774	0.1331
344.287	0.1328
344.4965	0.1252
344.706	0.1288
344.9155	0.1197
345.125	0.1375
345.3345	0.1313
345.544	0.1096
345.7534	0.1339
345.9629	0.1332
346.1723	0.122
346.3817	0.133
346.5911	0.1336
346.8005	0.1326
347.0099	0.1408
347.2193	0.1354
347.4286	0.1341
347.638	0.1369
347.8473	0.1377
348.0566	0.1441
348.2659	0.1404
348.4752	0.1284
348.6845	0.1362
348.8937	0.1274
349.103	0.1456
349.3122	0.1423
349.5214	0.13
349.7306	0.1358
349.9398	0.1371
350.149	0.1387
350.3582	0.1273
350.5674	0.1494
350.7765	0.1307
350.9856	0.1351
351.1948	0.1432
351.4039	0.1361
351.613	0.1381
351.822	0.144
352.0311	0.1476
352.2402	0.1442
352.4492	0.164
352.6582	0.1608
352.8672	0.1504
353.0762	0.1664
353.2852	0.1447
353.4942	0.1412
353.7032	0.1462
353.9121	0.1535
354.1211	0.1538
354.33	0.1638
354.5389	0.1547
354.7478	0.1482
354.9567	0.1595
355.1655	0.1423
355.3744	0.155
355.5833	0.1618
355.7921	0.1653
356.0009	0.1531
356.2097	0.1809
356.4185	0.1643
356.6273	0.1638
356.8361	0.1642
357.0448	0.1638
357.2536	0.153
357.4623	0.1641
357.671	0.1565
357.8797	0.1594
358.0884	0.1715
358.2971	0.1638
358.5057	0.1628
358.7144	0.1819
358.923	0.1799
359.1316	0.1706
359.3402	0.1854
359.5488	0.168
359.7574	0.1653
359.966	0.1724
360.1746	0.1913
360.3831	0.1866
360.5916	0.1627
360.8002	0.1716
361.0087	0.1817
361.2172	0.1801
361.4256	0.1753
361.6341	0.1899
361.8426	0.1844
362.051	0.1828
362.2594	0.1821
362.4678	0.1753
362.6762	0.2056
362.8846	0.1913
363.093	0.1819
363.3014	0.1926
363.5097	0.1745
363.718	0.1902
363.9264	0.1998
364.1347	0.1756
364.343	0.203
364.5513	0.2037
364.7595	0.1989
364.9678	0.1883
365.176	0.1899
365.3842	0.1941
365.5925	0.1961
365.8007	0.2094
366.0089	0.1999
366.217	0.2026
366.4252	0.2116
366.6333	0.2247
366.8415	0.2127
367.0496	0.1989
367.2577	0.2228
367.4658	0.2217
367.6739	0.2139
367.882	0.2189
368.09	0.2009
368.2981	0.2085
368.5061	0.2068
368.7141	0.1935
368.9221	0.2007
369.1301	0.2153
369.3381	0.2027
369.5461	0.2062
369.754	0.2144
369.962	0.2274
370.1699	0.2186
370.3778	0.2111
370.5857	0.2045
370.7936	0.2218
371.0015	0.2355
371.2093	0.2266
371.4172	0.2406
371.625	0.2108
371.8328	0.2051
372.0406	0.2225
372.2484	0.2246
372.4562	0.226
372.664	0.2298
372.8717	0.2426
373.0795	0.2055
373.2872	0.2316
373.4949	0.2244
373.7026	0.224
373.9103	0.2339
374.118	0.2196
374.3256	0.2293
374.5333	0.2261
374.7409	0.2321
374.9485	0.2577
375.1561	0.2265
375.3637	0.2354
375.5713	0.2396
375.7789	0.2574
375.9864	0.2369
376.194	0.2264
376.4015	0.2424
376.609	0.2563
376.8165	0.2291
377.024	0.2472
377.2315	0.2301
377.4389	0.2324
377.6464	0.2373
377.8538	0.2485
378.0612	0.2328
378.2686	0.2477
378.476	0.2636
378.6834	0.2394
378.8908	0.2717
379.0981	0.2661
379.3055	0.2447
379.5128	0.2439
379.7201	0.2428
379.9274	0.2463
380.1347	0.2434
380.342	0.2618
380.5492	0.2341
380.7565	0.2518
380.9637	0.2427
381.1709	0.2484
381.3781	0.252
381.5853	0.2677
381.7925	0.2548
381.9997	0.2665
382.2068	0.2565
382.4139	0.2399
382.6211	0.2455
382.8282	0.2438
383.0353	0.2503
383.2424	0.2341
383.4494	0.2644
383.6565	0.2664
383.8635	0.2495
384.0706	0.243
384.2776	0.2686
384.4846	0.2477
384.6916	0.2651
384.8986	0.264
385.1055	0.2663
385.3125	0.2679
385.5194	0.2349
385.7263	0.2552
385.9333	0.2532
386.1402	0.2598
386.347	0.2514
386.5539	0.2393
386.7608	0.2893
386.9676	0.2462
387.1744	0.2471
387.3813	0.2527
387.5881	0.2487
387.7948	0.2572
388.0016	0.244
388.2084	0.2451
388.4151	0.2522
388.6219	0.2497
388.8286	0.2491
389.0353	0.2599
389.242	0.266
389.4487	0.2538
389.6553	0.2523
389.862	0.2261
390.0686	0.2343
390.2753	0.2577
390.4819	0.243
390.6885	0.2454
390.8951	0.2583
391.1016	0.2486
391.3082	0.2332
391.5147	0.2372
391.7213	0.2478
391.9278	0.2341
392.1343	0.2287
392.3408	0.2405
392.5473	0.2264
392.7537	0.2356
392.9602	0.2332
393.1666	0.2394
393.373	0.2339
393.5794	0.2507
393.7858	0.2355
393.9922	0.2186
394.1986	0.2181
394.4049	0.2198
394.6113	0.2198
394.8176	0.2108
395.0239	0.2128
395.2302	0.2264
395.4365	0.2262
395.6428	0.2126
395.8491	0.2087
396.0553	0.2111
396.2615	0.215
396.4678	0.2247
396.674	0.1938
396.8802	0.2261
397.0863	0.2284
397.2925	0.2101
397.4987	0.2063
397.7048	0.2249
397.9109	0.209
398.117	0.1958
398.3231	0.2183
398.5292	0.232
398.7353	0.2179
398.9413	0.2137
399.1474	0.2223
399.3534	0.2139
399.5594	0.2101
399.7654	0.2222
399.9714	0.2237
400.1774	0.2182
400.3833	0.2107
400.5893	0.2039
400.7952	0.2321
401.0011	0.2169
401.207	0.2339
401.4129	0.2176
401.6188	0.2134
401.8247	0.2187
402.0305	0.2082
402.2364	0.2154
402.4422	0.2265
402.648	0.2121
402.8538	0.2157
403.0596	0.2142
403.2654	0.2264
403.4711	0.2096
403.6768	0.2267
403.8826	0.2052
404.0883	0.2286
404.294	0.2156
404.4997	0.2177
404.7054	0.206
404.911	0.2139
405.1167	0.2079
405.3223	0.223
405.5279	0.2317
405.7335	0.2373
405.9391	0.2296
406.1447	0.2094
406.3502	0.2229
406.5558	0.2216
406.7613	0.2235
406.9668	0.2169
407.1724	0.2247
407.3778	0.2143
407.5833	0.2074
407.7888	0.2094
407.9942	0.2361
408.1997	0.2075
408.4051	0.2201
408.6105	0.2158
408.8159	0.2084
409.0213	0.2115
409.2267	0.2332
409.432	0.2118
409.6374	0.2132
409.8427	0.206
410.048	0.2071
410.2533	0.2174
410.4586	0.2096
410.6639	0.2183
410.8691	0.213
411.0744	0.2173
411.2796	0.2055
411.4848	0.2178
411.69	0.2017
411.8952	0.2363
412.1004	0.193
412.3056	0.2121
412.5107	0.2195
412.7158	0.2096
412.921	0.2078
413.1261	0.21
413.3312	0.1997
413.5362	0.1974
413.7413	0.2041
413.9464	0.2081
414.1514	0.1942
414.3564	0.199
414.5614	0.206
414.7664	0.2034
414.9714	0.1973
415.1764	0.2169
415.3813	0.2198
415.5863	0.196
415.7912	0.2035
415.9961	0.2049
416.201	0.2126
416.4059	0.2019
416.6108	0.1972
416.8156	0.2094
417.0205	0.1888
417.2253	0.1949
417.4301	0.2203
417.6349	0.1967
417.8397	0.1883
418.0445	0.204
418.2492	0.2
418.454	0.2018
418.6587	0.21
418.8634	0.2133
419.0681	0.1925
419.2728	0.1863
419.4775	0.1866
419.6822	0.1823
419.8868	0.1881
420.0915	0.1925
420.2961	0.1952
420.5007	0.1899
420.7053	0.2041
420.9099	0.1833
421.1144	0.2065
421.319	0.1829
421.5235	0.1831
421.728	0.1973
421.9325	0.1967
422.137	0.1808
422.3415	0.1874
422.546	0.2007
422.7504	0.186
422.9549	0.211
423.1593	0.2005
423.3637	0.1978
423.5681	0.1874
423.7725	0.1706
423.9769	0.1647
424.1812	0.181
424.3856	0.1888
424.5899	0.1934
424.7942	0.1966
424.9985	0.1766
425.2028	0.1681
425.4071	0.1969
425.6113	0.1612
425.8156	0.1654
426.0198	0.1835
426.224	0.1663
426.4282	0.1598
426.6324	0.1636
