Data from MonoPyChalIsomerACN10uM350nmA_Absorbance_14-35-33-418.txt Node
Date: Fri Jul 05 14:35:33 BST 2024
User: LASERRRRR
Spectrometer: FLMT03099
Trigger mode: 0
Integration Time (sec): 1.000000E-1
Scans to average: 1
Electric dark correction enabled: true
Nonlinearity correction enabled: false
Boxcar width: 0
XAxis mode: Wavelengths
Number of Pixels in Spectrum: 3648
>>>>>Begin Spectral Data<<<<<
179.3399	-0.4521
179.5586	-0.4521
179.7771	-0.4521
179.9957	-0
180.2143	-0
180.4329	0.9485
180.6514	0.1752
180.8699	-0
181.0885	-0.1292
181.307	0.2044
181.5255	-0.7968
181.744	-0.7583
181.9625	-0.3443
182.181	-1.1805
182.3994	0.3432
182.6179	-0.2013
182.8363	-0.0523
183.0547	0.2387
183.2732	0.0526
183.4916	0.1064
183.71	0.1957
183.9284	0.1096
184.1467	-0.1039
184.3651	-0.1502
184.5835	-0.0163
184.8018	0.0019
185.0201	0.2527
185.2385	0.0281
185.4568	0.3983
185.6751	0.051
185.8934	0.6738
186.1117	0.0088
186.3299	0.1179
186.5482	0.4985
186.7664	-0.0438
186.9847	0.0299
187.2029	0.2222
187.4211	0.0139
187.6393	0.1165
187.8575	-0.0987
188.0757	0.0599
188.2939	0.1067
188.512	-0.1574
188.7302	-0.032
188.9483	0.0639
189.1665	0.12
189.3846	-0.0207
189.6027	0.1194
189.8208	0.1356
190.0389	-0.0134
190.257	0.2573
190.475	0.0044
190.6931	0.2421
190.9111	0.6103
191.1292	0.0726
191.3472	0.5806
191.5652	0.3152
191.7832	0.1746
192.0012	0.9107
192.2192	0.2883
192.4371	0.3935
192.6551	0.5604
192.873	0.4977
193.091	0.2465
193.3089	0.805
193.5268	0.3899
193.7447	0.4705
193.9626	0.5028
194.1805	0.7181
194.3984	0.5728
194.6162	0.4639
194.8341	0.556
195.0519	0.488
195.2697	0.8006
195.4875	0.5589
195.7054	0.6693
195.9231	0.5675
196.1409	0.4946
196.3587	0.6102
196.5765	0.6568
196.7942	0.4688
197.012	0.5668
197.2297	0.499
197.4474	0.5887
197.6651	0.4916
197.8828	0.4815
198.1005	0.5876
198.3182	0.5277
198.5358	0.776
198.7535	0.7053
198.9711	0.5335
199.1888	0.5491
199.4064	0.6736
199.624	0.6357
199.8416	0.6575
200.0592	0.655
200.2767	0.6322
200.4943	0.6619
200.7119	0.6359
200.9294	0.6643
201.1469	0.5077
201.3645	0.5233
201.582	0.6089
201.7995	0.6963
202.017	0.6109
202.2344	0.5912
202.4519	0.6518
202.6694	0.7536
202.8868	0.7006
203.1042	0.7115
203.3217	0.7035
203.5391	0.5534
203.7565	0.5455
203.9739	0.6025
204.1913	0.5953
204.4086	0.6594
204.626	0.7369
204.8433	0.6921
205.0607	0.6344
205.278	0.6524
205.4953	0.6005
205.7126	0.6645
205.9299	0.8321
206.1472	0.7272
206.3644	0.6011
206.5817	0.7256
206.7989	0.6822
207.0162	0.6571
207.2334	0.6544
207.4506	0.5805
207.6678	0.6411
207.885	0.6239
208.1022	0.674
208.3194	0.5833
208.5365	0.5464
208.7537	0.672
208.9708	0.5819
209.1879	0.665
209.405	0.6233
209.6222	0.6942
209.8392	0.6631
210.0563	0.622
210.2734	0.6371
210.4905	0.5793
210.7075	0.7231
210.9245	0.617
211.1416	0.7285
211.3586	0.6258
211.5756	0.5488
211.7926	0.6376
212.0096	0.5742
212.2265	0.555
212.4435	0.5702
212.6604	0.5684
212.8774	0.6297
213.0943	0.5674
213.3112	0.5096
213.5281	0.4798
213.745	0.486
213.9619	0.5034
214.1788	0.4239
214.3956	0.4746
214.6125	0.4593
214.8293	0.4157
215.0461	0.501
215.2629	0.4609
215.4798	0.4456
215.6965	0.4039
215.9133	0.4382
216.1301	0.4268
216.3469	0.4184
216.5636	0.4337
216.7803	0.3943
216.9971	0.3913
217.2138	0.3583
217.4305	0.3295
217.6472	0.3691
217.8639	0.3825
218.0805	0.3598
218.2972	0.3249
218.5138	0.326
218.7305	0.3217
218.9471	0.2988
219.1637	0.2831
219.3803	0.288
219.5969	0.2997
219.8135	0.2503
220.0301	0.2655
220.2466	0.2564
220.4632	0.2452
220.6797	0.22
220.8962	0.2465
221.1127	0.258
221.3292	0.24
221.5457	0.2466
221.7622	0.2204
221.9787	0.2457
222.1951	0.2551
222.4116	0.2623
222.628	0.2571
222.8444	0.2605
223.0608	0.2325
223.2772	0.2414
223.4936	0.2708
223.71	0.2614
223.9264	0.2732
224.1427	0.2524
224.3591	0.2503
224.5754	0.2595
224.7917	0.2768
225.008	0.2626
225.2243	0.2765
225.4406	0.2926
225.6569	0.2586
225.8732	0.2583
226.0894	0.264
226.3057	0.2696
226.5219	0.2963
226.7381	0.2758
226.9543	0.2839
227.1705	0.2928
227.3867	0.2671
227.6029	0.2824
227.8191	0.2858
228.0352	0.3099
228.2513	0.3023
228.4675	0.307
228.6836	0.3068
228.8997	0.2939
229.1158	0.3007
229.3319	0.3032
229.548	0.3244
229.764	0.3311
229.9801	0.3167
230.1961	0.3239
230.4121	0.3264
230.6282	0.3411
230.8442	0.3283
231.0602	0.3531
231.2761	0.3572
231.4921	0.3518
231.7081	0.3446
231.924	0.3531
232.14	0.3584
232.3559	0.3279
232.5718	0.3651
232.7877	0.3572
233.0036	0.3443
233.2195	0.3611
233.4353	0.3545
233.6512	0.366
233.867	0.3546
234.0829	0.3565
234.2987	0.3663
234.5145	0.379
234.7303	0.3651
234.9461	0.3852
235.1619	0.3754
235.3776	0.3867
235.5934	0.3996
235.8091	0.359
236.0249	0.3689
236.2406	0.383
236.4563	0.3767
236.672	0.3866
236.8877	0.3904
237.1034	0.3751
237.319	0.3863
237.5347	0.4047
237.7503	0.3816
237.966	0.3883
238.1816	0.4285
238.3972	0.4164
238.6128	0.4064
238.8284	0.4193
239.0439	0.403
239.2595	0.3931
239.475	0.409
239.6906	0.3965
239.9061	0.3923
240.1216	0.3968
240.3371	0.4104
240.5526	0.3948
240.7681	0.3943
240.9836	0.3964
241.199	0.391
241.4145	0.3699
241.6299	0.3713
241.8453	0.3832
242.0607	0.3688
242.2761	0.3513
242.4915	0.366
242.7069	0.3652
242.9223	0.3463
243.1376	0.3471
243.353	0.3403
243.5683	0.3508
243.7836	0.3254
243.9989	0.3316
244.2142	0.2992
244.4295	0.3095
244.6448	0.2983
244.86	0.2978
245.0753	0.2845
245.2905	0.2886
245.5057	0.2741
245.721	0.282
245.9362	0.2547
246.1514	0.2692
246.3665	0.2628
246.5817	0.2551
246.7969	0.2474
247.012	0.2459
247.2271	0.239
247.4423	0.2416
247.6574	0.2371
247.8725	0.224
248.0876	0.2179
248.3026	0.2192
248.5177	0.2179
248.7328	0.1932
248.9478	0.1935
249.1628	0.2009
249.3779	0.2144
249.5929	0.1936
249.8079	0.2096
250.0228	0.1932
250.2378	0.1993
250.4528	0.2055
250.6677	0.1875
250.8827	0.1976
251.0976	0.1846
251.3125	0.1859
251.5274	0.1621
251.7423	0.1747
251.9572	0.1813
252.172	0.1774
252.3869	0.1808
252.6017	0.1792
252.8166	0.171
253.0314	0.1736
253.2462	0.1687
253.461	0.169
253.6758	0.1576
253.8906	0.1859
254.1053	0.1721
254.3201	0.1669
254.5348	0.1709
254.7496	0.1685
254.9643	0.1652
255.179	0.1779
255.3937	0.176
255.6083	0.1608
255.823	0.1605
256.0377	0.1587
256.2523	0.1672
256.467	0.1438
256.6816	0.1663
256.8962	0.168
257.1108	0.153
257.3254	0.1671
257.54	0.1662
257.7545	0.1722
257.9691	0.1687
258.1836	0.1603
258.3981	0.1715
258.6127	0.1647
258.8272	0.1688
259.0417	0.1591
259.2561	0.1494
259.4706	0.1704
259.6851	0.1561
259.8995	0.1522
260.114	0.1531
260.3284	0.1609
260.5428	0.1477
260.7572	0.159
260.9716	0.1716
261.186	0.1461
261.4003	0.1595
261.6147	0.1618
261.829	0.1673
262.0433	0.163
262.2577	0.162
262.472	0.162
262.6863	0.1537
262.9005	0.1576
263.1148	0.1592
263.3291	0.1496
263.5433	0.1527
263.7576	0.1686
263.9718	0.1636
264.186	0.1585
264.4002	0.1556
264.6144	0.1668
264.8286	0.1631
265.0427	0.1523
265.2569	0.1589
265.471	0.1567
265.6851	0.1618
265.8993	0.1424
266.1134	0.1467
266.3275	0.1643
266.5415	0.152
266.7556	0.177
266.9697	0.1676
267.1837	0.159
267.3978	0.1545
267.6118	0.1703
267.8258	0.1849
268.0398	0.1474
268.2538	0.16
268.4677	0.1575
268.6817	0.1546
268.8957	0.1634
269.1096	0.1513
269.3235	0.1702
269.5374	0.1533
269.7514	0.1448
269.9652	0.1496
270.1791	0.1526
270.393	0.1407
270.6068	0.1578
270.8207	0.1346
271.0345	0.1438
271.2483	0.1603
271.4622	0.1443
271.676	0.1451
271.8897	0.1432
272.1035	0.1381
272.3173	0.1337
272.531	0.1463
272.7448	0.1497
272.9585	0.1341
273.1722	0.1504
273.3859	0.1472
273.5996	0.1296
273.8133	0.1385
274.0269	0.1342
274.2406	0.1326
274.4542	0.1379
274.6679	0.1298
274.8815	0.1387
275.0951	0.1336
275.3087	0.1339
275.5223	0.1397
275.7358	0.1402
275.9494	0.1323
276.1629	0.1314
276.3765	0.1283
276.59	0.1432
276.8035	0.1442
277.017	0.1382
277.2305	0.1345
277.444	0.1495
277.6574	0.134
277.8709	0.14
278.0843	0.1354
278.2978	0.1427
278.5112	0.1309
278.7246	0.1317
278.938	0.1424
279.1513	0.1507
279.3647	0.1425
279.5781	0.1307
279.7914	0.1395
280.0047	0.1466
280.2181	0.143
280.4314	0.1575
280.6447	0.1384
280.8579	0.148
281.0712	0.1444
281.2845	0.1478
281.4977	0.1517
281.711	0.1416
281.9242	0.1427
282.1374	0.1566
282.3506	0.138
282.5638	0.143
282.7769	0.1449
282.9901	0.1526
283.2033	0.1625
283.4164	0.1594
283.6295	0.1489
283.8426	0.1372
284.0557	0.1492
284.2688	0.1529
284.4819	0.1504
284.695	0.1572
284.908	0.1574
285.1211	0.1537
285.3341	0.1516
285.5471	0.1546
285.7601	0.1525
285.9731	0.1558
286.1861	0.1569
286.3991	0.1621
286.612	0.17
286.825	0.1522
287.0379	0.1645
287.2508	0.1553
287.4637	0.1648
287.6766	0.1521
287.8895	0.1656
288.1024	0.1687
288.3152	0.1636
288.5281	0.1578
288.7409	0.1584
288.9538	0.1687
289.1666	0.1623
289.3794	0.159
289.5922	0.156
289.8049	0.17
290.0177	0.1671
290.2304	0.1587
290.4432	0.163
290.6559	0.1656
290.8686	0.1631
291.0813	0.1632
291.294	0.1662
291.5067	0.1649
291.7194	0.1702
291.932	0.1744
292.1447	0.1643
292.3573	0.1518
292.5699	0.1617
292.7825	0.1724
292.9951	0.1621
293.2077	0.1582
293.4203	0.167
293.6328	0.1633
293.8454	0.1765
294.0579	0.1648
294.2704	0.1739
294.4829	0.1611
294.6954	0.1724
294.9079	0.1624
295.1204	0.1573
295.3328	0.17
295.5453	0.1725
295.7577	0.1665
295.9701	0.1584
296.1825	0.1656
296.3949	0.1557
296.6073	0.164
296.8197	0.1579
297.0321	0.176
297.2444	0.1561
297.4567	0.1689
297.6691	0.1711
297.8814	0.1638
298.0937	0.1589
298.306	0.1662
298.5182	0.1698
298.7305	0.1725
298.9428	0.1628
299.155	0.1658
299.3672	0.1584
299.5794	0.1605
299.7916	0.1631
300.0038	0.1687
300.216	0.1712
300.4282	0.1783
300.6403	0.1658
300.8525	0.1645
301.0646	0.1638
301.2767	0.1742
301.4888	0.1753
301.7009	0.1731
301.913	0.1664
302.125	0.1683
302.3371	0.1581
302.5491	0.1676
302.7612	0.1621
302.9732	0.1692
303.1852	0.1738
303.3972	0.1601
303.6092	0.1607
303.8211	0.1596
304.0331	0.1597
304.245	0.1477
304.457	0.1557
304.6689	0.1519
304.8808	0.1635
305.0927	0.1479
305.3046	0.1443
305.5164	0.1609
305.7283	0.1537
305.9401	0.1488
306.152	0.1534
306.3638	0.1547
306.5756	0.1482
306.7874	0.1436
306.9992	0.1577
307.2109	0.1391
307.4227	0.1271
307.6344	0.1365
307.8462	0.1354
308.0579	0.141
308.2696	0.1303
308.4813	0.1296
308.693	0.1386
308.9046	0.1269
309.1163	0.1281
309.328	0.1259
309.5396	0.1245
309.7512	0.124
309.9628	0.1228
310.1744	0.1054
310.386	0.1157
310.5976	0.1141
310.8091	0.1174
311.0207	0.122
311.2322	0.1101
311.4437	0.114
311.6552	0.1144
311.8667	0.1061
312.0782	0.0934
312.2897	0.0971
312.5012	0.1208
312.7126	0.1046
312.924	0.098
313.1355	0.1123
313.3469	0.105
313.5583	0.1056
313.7696	0.1019
313.981	0.1079
314.1924	0.0949
314.4037	0.0948
314.6151	0.1119
314.8264	0.1014
315.0377	0.0963
315.249	0.1077
315.4603	0.1014
315.6716	0.103
315.8828	0.0967
316.0941	0.1067
316.3053	0.0885
316.5165	0.1002
316.7277	0.0895
316.9389	0.1051
317.1501	0.087
317.3613	0.0873
317.5724	0.0932
317.7836	0.0979
317.9947	0.0877
318.2058	0.1052
318.417	0.0853
318.6281	0.0923
318.8391	0.0846
319.0502	0.0916
319.2613	0.0949
319.4723	0.0954
319.6834	0.0892
319.8944	0.0894
320.1054	0.0984
320.3164	0.0929
320.5274	0.086
320.7383	0.0841
320.9493	0.0995
321.1602	0.1033
321.3712	0.0881
321.5821	0.0942
321.793	0.0992
322.0039	0.0878
322.2148	0.0997
322.4257	0.0984
322.6365	0.0944
322.8474	0.1031
323.0582	0.1036
323.269	0.0996
323.4798	0.0945
323.6906	0.1028
323.9014	0.0956
324.1122	0.0917
324.3229	0.082
324.5337	0.0912
324.7444	0.0896
324.9551	0.1044
325.1658	0.1027
325.3765	0.097
325.5872	0.0907
325.7979	0.0871
326.0085	0.096
326.2192	0.1102
326.4298	0.0952
326.6404	0.098
326.851	0.0935
327.0616	0.0908
327.2722	0.0899
327.4828	0.1014
327.6933	0.0959
327.9039	0.1013
328.1144	0.1061
328.3249	0.1063
328.5354	0.0881
328.7459	0.0937
328.9564	0.101
329.1669	0.0893
329.3773	0.1048
329.5878	0.1081
329.7982	0.0936
330.0086	0.1082
330.219	0.1006
330.4294	0.0959
330.6398	0.0969
330.8502	0.0932
331.0605	0.1028
331.2708	0.1017
331.4812	0.1038
331.6915	0.1021
331.9018	0.1049
332.1121	0.0943
332.3224	0.102
332.5326	0.1111
332.7429	0.1028
332.9531	0.1071
333.1633	0.0979
333.3735	0.0974
333.5837	0.1083
333.7939	0.095
334.0041	0.1086
334.2143	0.1107
334.4244	0.0982
334.6346	0.0876
334.8447	0.1215
335.0548	0.0997
335.2649	0.0986
335.475	0.1046
335.685	0.0985
335.8951	0.1188
336.1051	0.1082
336.3152	0.1038
336.5252	0.0978
336.7352	0.1118
336.9452	0.1028
337.1552	0.1158
337.3652	0.106
337.5751	0.1001
337.7851	0.1064
337.995	0.1075
338.2049	0.1122
338.4148	0.1135
338.6247	0.1163
338.8346	0.1025
339.0445	0.1
339.2543	0.1085
339.4642	0.112
339.674	0.1026
339.8838	0.1144
340.0936	0.1071
340.3034	0.1161
340.5132	0.1069
340.7229	0.112
340.9327	0.1054
341.1424	0.1075
341.3522	0.1216
341.5619	0.1153
341.7716	0.1176
341.9813	0.1196
342.1909	0.1309
342.4006	0.1222
342.6102	0.116
342.8199	0.1199
343.0295	0.1109
343.2391	0.1105
343.4487	0.1195
343.6583	0.1114
343.8679	0.1312
344.0774	0.1266
344.287	0.1327
344.4965	0.1106
344.706	0.1254
344.9155	0.1239
345.125	0.1134
345.3345	0.1267
345.544	0.128
345.7534	0.1117
345.9629	0.1256
346.1723	0.1328
346.3817	0.1205
346.5911	0.1244
346.8005	0.1383
347.0099	0.124
347.2193	0.1224
347.4286	0.1152
347.638	0.1339
347.8473	0.1455
348.0566	0.1332
348.2659	0.1343
348.4752	0.1311
348.6845	0.1285
348.8937	0.1271
349.103	0.1269
349.3122	0.1266
349.5214	0.122
349.7306	0.1374
349.9398	0.1207
350.149	0.1359
350.3582	0.1311
350.5674	0.1485
350.7765	0.143
350.9856	0.1288
351.1948	0.1441
351.4039	0.1299
351.613	0.132
351.822	0.1472
352.0311	0.1487
352.2402	0.1406
352.4492	0.1505
352.6582	0.1491
352.8672	0.1429
353.0762	0.1467
353.2852	0.1504
353.4942	0.1399
353.7032	0.1517
353.9121	0.137
354.1211	0.1511
354.33	0.1543
354.5389	0.1485
354.7478	0.1453
354.9567	0.143
355.1655	0.1365
355.3744	0.157
355.5833	0.1525
355.7921	0.1604
356.0009	0.1508
356.2097	0.1542
356.4185	0.1595
356.6273	0.1548
356.8361	0.1711
357.0448	0.1585
357.2536	0.156
357.4623	0.1543
357.671	0.1754
357.8797	0.1613
358.0884	0.1667
358.2971	0.1705
358.5057	0.1785
358.7144	0.1831
358.923	0.1594
359.1316	0.1611
359.3402	0.1749
359.5488	0.1679
359.7574	0.1613
359.966	0.1701
360.1746	0.168
360.3831	0.1676
360.5916	0.1555
360.8002	0.1654
361.0087	0.1777
361.2172	0.1776
361.4256	0.18
361.6341	0.1829
361.8426	0.1718
362.051	0.1705
362.2594	0.1853
362.4678	0.1723
362.6762	0.2044
362.8846	0.1902
363.093	0.1885
363.3014	0.1805
363.5097	0.1681
363.718	0.1954
363.9264	0.1908
364.1347	0.1916
364.343	0.2016
364.5513	0.2103
364.7595	0.1875
364.9678	0.2105
365.176	0.199
365.3842	0.191
365.5925	0.1911
365.8007	0.203
366.0089	0.1978
366.217	0.1938
366.4252	0.1963
366.6333	0.2202
366.8415	0.2042
367.0496	0.1871
367.2577	0.1979
367.4658	0.2251
367.6739	0.2229
367.882	0.2188
368.09	0.2034
368.2981	0.2188
368.5061	0.211
368.7141	0.2244
368.9221	0.2186
369.1301	0.2229
369.3381	0.2272
369.5461	0.2124
369.754	0.2263
369.962	0.2389
370.1699	0.2111
370.3778	0.227
370.5857	0.2006
370.7936	0.2306
371.0015	0.2296
371.2093	0.2438
371.4172	0.2368
371.625	0.2134
371.8328	0.2239
372.0406	0.2277
372.2484	0.2141
372.4562	0.2371
372.664	0.2286
372.8717	0.238
373.0795	0.2063
373.2872	0.2361
373.4949	0.2307
373.7026	0.2437
373.9103	0.2271
374.118	0.2416
374.3256	0.2343
374.5333	0.2272
374.7409	0.2338
374.9485	0.2463
375.1561	0.2466
375.3637	0.2514
375.5713	0.2312
375.7789	0.2271
375.9864	0.2404
376.194	0.2396
376.4015	0.2428
376.609	0.2374
376.8165	0.2396
377.024	0.2408
377.2315	0.2314
377.4389	0.2543
377.6464	0.2651
377.8538	0.2624
378.0612	0.237
378.2686	0.2494
378.476	0.2625
378.6834	0.2552
378.8908	0.2579
379.0981	0.2494
379.3055	0.2592
379.5128	0.2468
379.7201	0.2468
379.9274	0.2534
380.1347	0.2689
380.342	0.2625
380.5492	0.2586
380.7565	0.2494
380.9637	0.2759
381.1709	0.2487
381.3781	0.2468
381.5853	0.2698
381.7925	0.2811
381.9997	0.2664
382.2068	0.2723
382.4139	0.2508
382.6211	0.2542
382.8282	0.2681
383.0353	0.2523
383.2424	0.2523
383.4494	0.2778
383.6565	0.2532
383.8635	0.265
384.0706	0.2673
384.2776	0.2738
384.4846	0.2667
384.6916	0.2644
384.8986	0.263
385.1055	0.2571
385.3125	0.2774
385.5194	0.2501
385.7263	0.2644
385.9333	0.2733
386.1402	0.2724
386.347	0.2617
386.5539	0.2654
386.7608	0.2706
386.9676	0.2587
387.1744	0.2715
387.3813	0.2677
387.5881	0.2613
387.7948	0.2521
388.0016	0.2558
388.2084	0.2525
388.4151	0.2528
388.6219	0.2746
388.8286	0.2559
389.0353	0.2835
389.242	0.2813
389.4487	0.2451
389.6553	0.2567
389.862	0.249
390.0686	0.2347
390.2753	0.2695
390.4819	0.2585
390.6885	0.2551
390.8951	0.2514
391.1016	0.2466
391.3082	0.2519
391.5147	0.2624
391.7213	0.2368
391.9278	0.252
392.1343	0.2431
392.3408	0.248
392.5473	0.2669
392.7537	0.2398
392.9602	0.2417
393.1666	0.2301
393.373	0.2393
393.5794	0.2341
393.7858	0.2429
393.9922	0.2274
394.1986	0.2345
394.4049	0.2369
394.6113	0.218
394.8176	0.2208
395.0239	0.2246
395.2302	0.2263
395.4365	0.2143
395.6428	0.2345
395.8491	0.2223
396.0553	0.2207
396.2615	0.2383
396.4678	0.2365
396.674	0.2273
396.8802	0.2227
397.0863	0.2604
397.2925	0.2275
397.4987	0.234
397.7048	0.2101
397.9109	0.2327
398.117	0.2035
398.3231	0.22
398.5292	0.2191
398.7353	0.2387
398.9413	0.2203
399.1474	0.2298
399.3534	0.2088
399.5594	0.2186
399.7654	0.2446
399.9714	0.2344
400.1774	0.2107
400.3833	0.2082
400.5893	0.2214
400.7952	0.2212
401.0011	0.2119
401.207	0.2343
401.4129	0.2359
401.6188	0.2339
401.8247	0.236
402.0305	0.2095
402.2364	0.2214
402.4422	0.2377
402.648	0.2257
402.8538	0.238
403.0596	0.2151
403.2654	0.2393
403.4711	0.216
403.6768	0.2249
403.8826	0.2207
404.0883	0.2297
404.294	0.2255
404.4997	0.2197
404.7054	0.223
404.911	0.1969
405.1167	0.2329
405.3223	0.2282
405.5279	0.2209
405.7335	0.2257
405.9391	0.2272
406.1447	0.2208
406.3502	0.2426
406.5558	0.2143
406.7613	0.246
406.9668	0.2194
407.1724	0.203
407.3778	0.2156
407.5833	0.2249
407.7888	0.2144
407.9942	0.2496
408.1997	0.2133
408.4051	0.2198
408.6105	0.2267
408.8159	0.209
409.0213	0.2196
409.2267	0.2404
409.432	0.2179
409.6374	0.2291
409.8427	0.2086
410.048	0.2244
410.2533	0.2181
410.4586	0.2188
410.6639	0.2073
410.8691	0.2082
411.0744	0.2076
411.2796	0.191
411.4848	0.2137
411.69	0.2187
411.8952	0.2393
412.1004	0.2138
412.3056	0.2301
412.5107	0.2127
412.7158	0.2276
412.921	0.2229
413.1261	0.2316
413.3312	0.2117
413.5362	0.2184
413.7413	0.2097
413.9464	0.2185
414.1514	0.2218
414.3564	0.1974
414.5614	0.1828
414.7664	0.2018
414.9714	0.2113
415.1764	0.234
415.3813	0.215
415.5863	0.216
415.7912	0.2029
415.9961	0.2155
416.201	0.2056
416.4059	0.2224
416.6108	0.2055
416.8156	0.2113
417.0205	0.21
417.2253	0.2069
417.4301	0.2152
417.6349	0.2003
417.8397	0.2293
418.0445	0.2059
418.2492	0.2073
418.454	0.2118
418.6587	0.2175
418.8634	0.1934
419.0681	0.2102
419.2728	0.1972
419.4775	0.2054
419.6822	0.1868
419.8868	0.1807
420.0915	0.2112
420.2961	0.1843
420.5007	0.2124
420.7053	0.208
420.9099	0.1884
421.1144	0.1992
421.319	0.1874
421.5235	0.2005
421.728	0.1929
421.9325	0.1998
422.137	0.1965
422.3415	0.1911
422.546	0.2081
422.7504	0.1975
422.9549	0.1994
423.1593	0.2027
423.3637	0.2049
423.5681	0.1818
423.7725	0.1847
423.9769	0.1799
424.1812	0.177
424.3856	0.1745
424.5899	0.1843
424.7942	0.1861
424.9985	0.191
425.2028	0.1711
425.4071	0.227
425.6113	0.1787
425.8156	0.182
426.0198	0.1874
426.224	0.1639
426.4282	0.1754
426.6324	0.1776
