Data from MonoPyChalIsomerACN10uM350nmA_Absorbance_14-35-36-615.txt Node
Date: Fri Jul 05 14:35:36 BST 2024
User: LASERRRRR
Spectrometer: FLMT03099
Trigger mode: 0
Integration Time (sec): 1.000000E-1
Scans to average: 1
Electric dark correction enabled: true
Nonlinearity correction enabled: false
Boxcar width: 0
XAxis mode: Wavelengths
Number of Pixels in Spectrum: 3648
>>>>>Begin Spectral Data<<<<<
179.3399	-0.0272
179.5586	-0.0272
179.7771	-0.0272
179.9957	-0
180.2143	0.2333
180.4329	-0.137
180.6514	-0
180.8699	0.1784
181.0885	-0.1638
181.307	0.1755
181.5255	-0
181.744	-0.7032
181.9625	-0.2054
182.181	-1.1035
182.3994	0.3875
182.6179	-0
182.8363	-0
183.0547	-0.2948
183.2732	-0.0433
183.4916	-0.063
183.71	0.104
183.9284	0.0441
184.1467	-0.1548
184.3651	-0.1212
184.5835	0.1473
184.8018	-0.0553
185.0201	0.3647
185.2385	-0.0888
185.4568	0.2049
185.6751	0.0097
185.8934	0.1851
186.1117	-0.0301
186.3299	0.1341
186.5482	-0.0274
186.7664	0.0129
186.9847	-0.1202
187.2029	-0.0673
187.4211	0.0672
187.6393	-0.0173
187.8575	-0.0136
188.0757	0.1216
188.2939	0.1786
188.512	0.3105
188.7302	-0.1447
188.9483	-0.1278
189.1665	0.1914
189.3846	-0.1521
189.6027	0.3051
189.8208	0.241
190.0389	0.1
190.257	0.1334
190.475	0.0817
190.6931	0.1522
190.9111	0.1788
191.1292	0.1328
191.3472	0.4424
191.5652	0.3922
191.7832	0.1719
192.0012	0.5386
192.2192	0.2213
192.4371	0.3317
192.6551	0.4061
192.873	0.4189
193.091	0.4714
193.3089	0.4916
193.5268	0.4917
193.7447	0.3759
193.9626	0.4574
194.1805	0.5799
194.3984	0.9248
194.6162	0.4767
194.8341	0.5199
195.0519	0.6298
195.2697	0.772
195.4875	0.5871
195.7054	0.5618
195.9231	0.6475
196.1409	0.5665
196.3587	0.5792
196.5765	0.5463
196.7942	0.5167
197.012	0.4633
197.2297	0.7281
197.4474	0.5373
197.6651	0.5732
197.8828	0.4619
198.1005	0.555
198.3182	0.6238
198.5358	0.9848
198.7535	0.5801
198.9711	0.5557
199.1888	0.6912
199.4064	0.6679
199.624	0.6659
199.8416	0.518
200.0592	0.6973
200.2767	0.6451
200.4943	0.6719
200.7119	0.7026
200.9294	0.6364
201.1469	0.5373
201.3645	0.5259
201.582	0.5591
201.7995	0.6845
202.017	0.5167
202.2344	0.6056
202.4519	0.7126
202.6694	0.6404
202.8868	0.7687
203.1042	0.6507
203.3217	0.6142
203.5391	0.6982
203.7565	0.5868
203.9739	0.6337
204.1913	0.6232
204.4086	0.585
204.626	0.6696
204.8433	0.6436
205.0607	0.621
205.278	0.638
205.4953	0.6227
205.7126	0.5865
205.9299	0.8029
206.1472	0.719
206.3644	0.5982
206.5817	0.7378
206.7989	0.7887
207.0162	0.6757
207.2334	0.6643
207.4506	0.5653
207.6678	0.6184
207.885	0.6211
208.1022	0.6589
208.3194	0.6574
208.5365	0.5943
208.7537	0.5739
208.9708	0.5706
209.1879	0.6381
209.405	0.6981
209.6222	0.5908
209.8392	0.6092
210.0563	0.568
210.2734	0.6828
210.4905	0.6175
210.7075	0.6059
210.9245	0.5419
211.1416	0.6281
211.3586	0.6002
211.5756	0.5879
211.7926	0.5607
212.0096	0.569
212.2265	0.5294
212.4435	0.6107
212.6604	0.5736
212.8774	0.5758
213.0943	0.5918
213.3112	0.5215
213.5281	0.5269
213.745	0.4846
213.9619	0.5073
214.1788	0.4866
214.3956	0.4653
214.6125	0.4229
214.8293	0.4535
215.0461	0.4571
215.2629	0.399
215.4798	0.4856
215.6965	0.4203
215.9133	0.4593
216.1301	0.4213
216.3469	0.4293
216.5636	0.4093
216.7803	0.4246
216.9971	0.4033
217.2138	0.3601
217.4305	0.429
217.6472	0.3515
217.8639	0.3736
218.0805	0.3537
218.2972	0.3377
218.5138	0.3252
218.7305	0.3613
218.9471	0.3071
219.1637	0.282
219.3803	0.2927
219.5969	0.2745
219.8135	0.2612
220.0301	0.2927
220.2466	0.2774
220.4632	0.2387
220.6797	0.2435
220.8962	0.2286
221.1127	0.256
221.3292	0.2378
221.5457	0.2529
221.7622	0.2398
221.9787	0.2575
222.1951	0.2391
222.4116	0.2714
222.628	0.2386
222.8444	0.2752
223.0608	0.2534
223.2772	0.2469
223.4936	0.252
223.71	0.2416
223.9264	0.2708
224.1427	0.2436
224.3591	0.2574
224.5754	0.2787
224.7917	0.2629
225.008	0.2795
225.2243	0.2611
225.4406	0.2876
225.6569	0.2601
225.8732	0.2674
226.0894	0.2547
226.3057	0.2735
226.5219	0.2858
226.7381	0.2788
226.9543	0.2778
227.1705	0.2891
227.3867	0.2762
227.6029	0.2935
227.8191	0.3249
228.0352	0.3004
228.2513	0.3027
228.4675	0.2997
228.6836	0.2972
228.8997	0.2836
229.1158	0.3072
229.3319	0.3288
229.548	0.3336
229.764	0.3381
229.9801	0.3255
230.1961	0.3391
230.4121	0.3359
230.6282	0.317
230.8442	0.3172
231.0602	0.3573
231.2761	0.359
231.4921	0.3565
231.7081	0.3464
231.924	0.3352
232.14	0.3417
232.3559	0.3564
232.5718	0.3512
232.7877	0.3657
233.0036	0.3468
233.2195	0.3541
233.4353	0.3568
233.6512	0.3514
233.867	0.3646
234.0829	0.3523
234.2987	0.3765
234.5145	0.3864
234.7303	0.3722
234.9461	0.3815
235.1619	0.3845
235.3776	0.3874
235.5934	0.3708
235.8091	0.3794
236.0249	0.3859
236.2406	0.3764
236.4563	0.3737
236.672	0.3998
236.8877	0.3774
237.1034	0.386
237.319	0.3927
237.5347	0.4018
237.7503	0.3939
237.966	0.416
238.1816	0.4202
238.3972	0.4031
238.6128	0.3857
238.8284	0.3972
239.0439	0.4179
239.2595	0.4065
239.475	0.4073
239.6906	0.3976
239.9061	0.3875
240.1216	0.3906
240.3371	0.4068
240.5526	0.3843
240.7681	0.384
240.9836	0.397
241.199	0.3824
241.4145	0.3875
241.6299	0.3668
241.8453	0.3648
242.0607	0.3849
242.2761	0.3607
242.4915	0.3619
242.7069	0.359
242.9223	0.3586
243.1376	0.3558
243.353	0.3309
243.5683	0.3435
243.7836	0.3295
243.9989	0.3166
244.2142	0.3088
244.4295	0.3198
244.6448	0.3044
244.86	0.3126
245.0753	0.2951
245.2905	0.2816
245.5057	0.2767
245.721	0.2765
245.9362	0.2693
246.1514	0.281
246.3665	0.2591
246.5817	0.2544
246.7969	0.2543
247.012	0.2456
247.2271	0.2257
247.4423	0.259
247.6574	0.2418
247.8725	0.2306
248.0876	0.2196
248.3026	0.2276
248.5177	0.23
248.7328	0.2029
248.9478	0.2098
249.1628	0.2136
249.3779	0.2285
249.5929	0.2053
249.8079	0.2133
250.0228	0.1898
250.2378	0.2005
250.4528	0.2138
250.6677	0.1834
250.8827	0.1994
251.0976	0.195
251.3125	0.1961
251.5274	0.1679
251.7423	0.1925
251.9572	0.1963
252.172	0.1719
252.3869	0.18
252.6017	0.1697
252.8166	0.1778
253.0314	0.1665
253.2462	0.1599
253.461	0.1774
253.6758	0.1662
253.8906	0.1707
254.1053	0.1622
254.3201	0.1697
254.5348	0.1785
254.7496	0.1876
254.9643	0.1691
255.179	0.1772
255.3937	0.1736
255.6083	0.1717
255.823	0.1715
256.0377	0.1698
256.2523	0.1719
256.467	0.1613
256.6816	0.1755
256.8962	0.171
257.1108	0.1609
257.3254	0.1776
257.54	0.163
257.7545	0.1623
257.9691	0.1621
258.1836	0.165
258.3981	0.1763
258.6127	0.1739
258.8272	0.158
259.0417	0.1702
259.2561	0.1522
259.4706	0.1665
259.6851	0.1681
259.8995	0.1637
260.114	0.1684
260.3284	0.1547
260.5428	0.1488
260.7572	0.1636
260.9716	0.1669
261.186	0.1509
261.4003	0.1539
261.6147	0.1624
261.829	0.1576
262.0433	0.1617
262.2577	0.1579
262.472	0.1672
262.6863	0.1603
262.9005	0.1783
263.1148	0.1609
263.3291	0.148
263.5433	0.1761
263.7576	0.1708
263.9718	0.1636
264.186	0.162
264.4002	0.1542
264.6144	0.1486
264.8286	0.1633
265.0427	0.1582
265.2569	0.1622
265.471	0.1568
265.6851	0.1478
265.8993	0.1597
266.1134	0.1523
266.3275	0.1668
266.5415	0.1634
266.7556	0.171
266.9697	0.1679
267.1837	0.1744
267.3978	0.1632
267.6118	0.1685
267.8258	0.1851
268.0398	0.1561
268.2538	0.1692
268.4677	0.161
268.6817	0.1558
268.8957	0.1584
269.1096	0.1661
269.3235	0.1639
269.5374	0.1533
269.7514	0.1516
269.9652	0.1597
270.1791	0.1432
270.393	0.1522
270.6068	0.1444
270.8207	0.1433
271.0345	0.1474
271.2483	0.1547
271.4622	0.1476
271.676	0.1535
271.8897	0.1431
272.1035	0.1559
272.3173	0.1535
272.531	0.1574
272.7448	0.1419
272.9585	0.1444
273.1722	0.1428
273.3859	0.143
273.5996	0.1401
273.8133	0.1547
274.0269	0.1458
274.2406	0.1413
274.4542	0.1489
274.6679	0.1312
274.8815	0.136
275.0951	0.1567
275.3087	0.154
275.5223	0.1517
275.7358	0.1514
275.9494	0.1418
276.1629	0.1441
276.3765	0.1483
276.59	0.1544
276.8035	0.1506
277.017	0.1287
277.2305	0.1428
277.444	0.1522
277.6574	0.146
277.8709	0.1509
278.0843	0.1388
278.2978	0.1463
278.5112	0.142
278.7246	0.1517
278.938	0.1393
279.1513	0.1423
279.3647	0.1647
279.5781	0.1485
279.7914	0.1561
280.0047	0.1574
280.2181	0.1541
280.4314	0.1506
280.6447	0.1505
280.8579	0.1458
281.0712	0.145
281.2845	0.1558
281.4977	0.152
281.711	0.1428
281.9242	0.1573
282.1374	0.1542
282.3506	0.1552
282.5638	0.1625
282.7769	0.148
282.9901	0.1548
283.2033	0.1688
283.4164	0.1707
283.6295	0.1508
283.8426	0.1554
284.0557	0.1514
284.2688	0.1688
284.4819	0.1671
284.695	0.1574
284.908	0.1578
285.1211	0.1472
285.3341	0.1499
285.5471	0.1656
285.7601	0.157
285.9731	0.1712
286.1861	0.1495
286.3991	0.1682
286.612	0.158
286.825	0.1647
287.0379	0.1659
287.2508	0.1591
287.4637	0.1712
287.6766	0.1591
287.8895	0.1551
288.1024	0.1826
288.3152	0.1601
288.5281	0.1616
288.7409	0.1657
288.9538	0.1751
289.1666	0.1503
289.3794	0.1586
289.5922	0.1585
289.8049	0.1717
290.0177	0.1586
290.2304	0.1691
290.4432	0.1778
290.6559	0.1716
290.8686	0.1741
291.0813	0.1623
291.294	0.1762
291.5067	0.1714
291.7194	0.163
291.932	0.1688
292.1447	0.1633
292.3573	0.1661
292.5699	0.1619
292.7825	0.1717
292.9951	0.1565
293.2077	0.1682
293.4203	0.1556
293.6328	0.1532
293.8454	0.1789
294.0579	0.1666
294.2704	0.1573
294.4829	0.1564
294.6954	0.16
294.9079	0.1716
295.1204	0.1734
295.3328	0.1603
295.5453	0.1621
295.7577	0.1702
295.9701	0.1632
296.1825	0.1616
296.3949	0.1699
296.6073	0.1561
296.8197	0.1579
297.0321	0.1849
297.2444	0.1637
297.4567	0.1712
297.6691	0.1677
297.8814	0.1599
298.0937	0.1652
298.306	0.1612
298.5182	0.1596
298.7305	0.1652
298.9428	0.155
299.155	0.1634
299.3672	0.173
299.5794	0.1609
299.7916	0.1627
300.0038	0.1759
300.216	0.1631
300.4282	0.1672
300.6403	0.1633
300.8525	0.172
301.0646	0.1573
301.2767	0.1741
301.4888	0.1567
301.7009	0.1684
301.913	0.1668
302.125	0.1717
302.3371	0.1547
302.5491	0.1586
302.7612	0.1737
302.9732	0.1555
303.1852	0.1684
303.3972	0.168
303.6092	0.157
303.8211	0.1583
304.0331	0.1607
304.245	0.1613
304.457	0.1602
304.6689	0.16
304.8808	0.1573
305.0927	0.1495
305.3046	0.1497
305.5164	0.1543
305.7283	0.1478
305.9401	0.145
306.152	0.154
306.3638	0.1463
306.5756	0.1443
306.7874	0.1544
306.9992	0.1538
307.2109	0.1421
307.4227	0.1281
307.6344	0.1413
307.8462	0.1335
308.0579	0.1345
308.2696	0.1408
308.4813	0.1319
308.693	0.1256
308.9046	0.1375
309.1163	0.1245
309.328	0.1291
309.5396	0.121
309.7512	0.1264
309.9628	0.1252
310.1744	0.1234
310.386	0.1225
310.5976	0.1219
310.8091	0.1279
311.0207	0.1041
311.2322	0.1155
311.4437	0.1143
311.6552	0.1167
311.8667	0.1128
312.0782	0.0991
312.2897	0.1063
312.5012	0.1144
312.7126	0.1027
312.924	0.0991
313.1355	0.1161
313.3469	0.1049
313.5583	0.1088
313.7696	0.1035
313.981	0.114
314.1924	0.1008
314.4037	0.1131
314.6151	0.112
314.8264	0.1034
315.0377	0.1037
315.249	0.1094
315.4603	0.1136
315.6716	0.0968
315.8828	0.1004
316.0941	0.1106
316.3053	0.0964
316.5165	0.0979
316.7277	0.0918
316.9389	0.1143
317.1501	0.1038
317.3613	0.1067
317.5724	0.0949
317.7836	0.1014
317.9947	0.0971
318.2058	0.0959
318.417	0.0899
318.6281	0.0801
318.8391	0.1
319.0502	0.0957
319.2613	0.1131
319.4723	0.1111
319.6834	0.1066
319.8944	0.089
320.1054	0.11
320.3164	0.1056
320.5274	0.0902
320.7383	0.0975
320.9493	0.1067
321.1602	0.1027
321.3712	0.0854
321.5821	0.1007
321.793	0.0968
322.0039	0.1042
322.2148	0.0962
322.4257	0.1124
322.6365	0.1109
322.8474	0.1003
323.0582	0.1016
323.269	0.1078
323.4798	0.1121
323.6906	0.0941
323.9014	0.0962
324.1122	0.1068
324.3229	0.097
324.5337	0.0978
324.7444	0.0919
324.9551	0.1138
325.1658	0.1135
325.3765	0.107
325.5872	0.1047
325.7979	0.0932
326.0085	0.1094
326.2192	0.0987
326.4298	0.1018
326.6404	0.0981
326.851	0.0956
327.0616	0.0946
327.2722	0.0968
327.4828	0.1181
327.6933	0.0937
327.9039	0.1156
328.1144	0.1152
328.3249	0.1077
328.5354	0.089
328.7459	0.099
328.9564	0.0872
329.1669	0.0956
329.3773	0.1066
329.5878	0.1094
329.7982	0.0997
330.0086	0.1037
330.219	0.1058
330.4294	0.1127
330.6398	0.1014
330.8502	0.1108
331.0605	0.1028
331.2708	0.1097
331.4812	0.1153
331.6915	0.1064
331.9018	0.1079
332.1121	0.104
332.3224	0.1088
332.5326	0.1223
332.7429	0.108
332.9531	0.1205
333.1633	0.1107
333.3735	0.0998
333.5837	0.1053
333.7939	0.1098
334.0041	0.1193
334.2143	0.1171
334.4244	0.1103
334.6346	0.1041
334.8447	0.1187
335.0548	0.1122
335.2649	0.1037
335.475	0.1194
335.685	0.1114
335.8951	0.1201
336.1051	0.1088
336.3152	0.1172
336.5252	0.1099
336.7352	0.1116
336.9452	0.1043
337.1552	0.1204
337.3652	0.1127
337.5751	0.1143
337.7851	0.1151
337.995	0.1
338.2049	0.1112
338.4148	0.1135
338.6247	0.1159
338.8346	0.1033
339.0445	0.1078
339.2543	0.1096
339.4642	0.1222
339.674	0.1123
339.8838	0.1034
340.0936	0.1067
340.3034	0.1271
340.5132	0.1155
340.7229	0.1196
340.9327	0.1142
341.1424	0.1179
341.3522	0.127
341.5619	0.1183
341.7716	0.1143
341.9813	0.123
342.1909	0.1157
342.4006	0.1337
342.6102	0.1328
342.8199	0.1227
343.0295	0.1209
343.2391	0.1322
343.4487	0.1148
343.6583	0.1217
343.8679	0.1295
344.0774	0.143
344.287	0.1388
344.4965	0.1242
344.706	0.1334
344.9155	0.1248
345.125	0.1375
345.3345	0.1376
345.544	0.1307
345.7534	0.1216
345.9629	0.1206
346.1723	0.1282
346.3817	0.123
346.5911	0.1254
346.8005	0.1375
347.0099	0.1292
347.2193	0.1389
347.4286	0.1235
347.638	0.1449
347.8473	0.1364
348.0566	0.1346
348.2659	0.1488
348.4752	0.1375
348.6845	0.1318
348.8937	0.1435
349.103	0.1545
349.3122	0.1208
349.5214	0.1351
349.7306	0.1321
349.9398	0.131
350.149	0.1237
350.3582	0.1257
350.5674	0.1615
350.7765	0.1399
350.9856	0.1386
351.1948	0.156
351.4039	0.1318
351.613	0.1317
351.822	0.1435
352.0311	0.1497
352.2402	0.1505
352.4492	0.1448
352.6582	0.1519
352.8672	0.1498
353.0762	0.1516
353.2852	0.1417
353.4942	0.1406
353.7032	0.1522
353.9121	0.1555
354.1211	0.1617
354.33	0.1551
354.5389	0.1615
354.7478	0.1395
354.9567	0.1496
355.1655	0.1458
355.3744	0.1558
355.5833	0.163
355.7921	0.1665
356.0009	0.1685
356.2097	0.167
356.4185	0.1685
356.6273	0.158
356.8361	0.1534
357.0448	0.1566
357.2536	0.151
357.4623	0.1584
357.671	0.1709
357.8797	0.1677
358.0884	0.1598
358.2971	0.1754
358.5057	0.1691
358.7144	0.1666
358.923	0.1648
359.1316	0.1766
359.3402	0.1671
359.5488	0.172
359.7574	0.1737
359.966	0.1739
360.1746	0.1909
360.3831	0.1736
360.5916	0.1688
360.8002	0.1595
361.0087	0.1812
361.2172	0.1734
361.4256	0.1587
361.6341	0.1838
361.8426	0.1812
362.051	0.1767
362.2594	0.185
362.4678	0.1918
362.6762	0.198
362.8846	0.1863
363.093	0.1803
363.3014	0.19
363.5097	0.1736
363.718	0.1974
363.9264	0.1745
364.1347	0.1839
364.343	0.1867
364.5513	0.2136
364.7595	0.2035
364.9678	0.1915
365.176	0.2081
365.3842	0.2002
365.5925	0.213
365.8007	0.1928
366.0089	0.1915
366.217	0.1821
366.4252	0.2035
366.6333	0.2134
366.8415	0.205
367.0496	0.2064
367.2577	0.2121
367.4658	0.2231
367.6739	0.2152
367.882	0.2165
368.09	0.191
368.2981	0.2299
368.5061	0.2076
368.7141	0.2141
368.9221	0.2181
369.1301	0.2148
369.3381	0.2072
369.5461	0.2146
369.754	0.223
369.962	0.2268
370.1699	0.2253
370.3778	0.2144
370.5857	0.1957
370.7936	0.2317
371.0015	0.2117
371.2093	0.2198
371.4172	0.2169
371.625	0.2068
371.8328	0.2215
372.0406	0.2211
372.2484	0.212
372.4562	0.2329
372.664	0.2212
372.8717	0.2322
373.0795	0.2139
373.2872	0.221
373.4949	0.2177
373.7026	0.2306
373.9103	0.2365
374.118	0.2226
374.3256	0.2385
374.5333	0.2224
374.7409	0.2188
374.9485	0.2506
375.1561	0.2431
375.3637	0.2231
375.5713	0.2248
375.7789	0.2269
375.9864	0.2218
376.194	0.2364
376.4015	0.2486
376.609	0.2441
376.8165	0.2529
377.024	0.2149
377.2315	0.2228
377.4389	0.2569
377.6464	0.2638
377.8538	0.2332
378.0612	0.2337
378.2686	0.2348
378.476	0.2533
378.6834	0.2382
378.8908	0.235
379.0981	0.24
379.3055	0.2377
379.5128	0.2378
379.7201	0.2475
379.9274	0.2266
380.1347	0.2384
380.342	0.2616
380.5492	0.2349
380.7565	0.2339
380.9637	0.2421
381.1709	0.265
381.3781	0.2466
381.5853	0.2519
381.7925	0.2518
381.9997	0.2533
382.2068	0.2556
382.4139	0.2687
382.6211	0.236
382.8282	0.2394
383.0353	0.2524
383.2424	0.2541
383.4494	0.2619
383.6565	0.2653
383.8635	0.2559
384.0706	0.2488
384.2776	0.2503
384.4846	0.2516
384.6916	0.2571
384.8986	0.2655
385.1055	0.2569
385.3125	0.252
385.5194	0.2403
385.7263	0.2645
385.9333	0.2551
386.1402	0.2596
386.347	0.244
386.5539	0.2529
386.7608	0.2533
386.9676	0.2479
387.1744	0.2631
387.3813	0.2608
387.5881	0.2614
387.7948	0.2572
388.0016	0.2477
388.2084	0.2557
388.4151	0.2436
388.6219	0.2628
388.8286	0.2528
389.0353	0.2674
389.242	0.2576
389.4487	0.2335
389.6553	0.2436
389.862	0.2198
390.0686	0.2584
390.2753	0.2536
390.4819	0.2287
390.6885	0.2428
390.8951	0.249
391.1016	0.2267
391.3082	0.2313
391.5147	0.2354
391.7213	0.2406
391.9278	0.2272
392.1343	0.2311
392.3408	0.2366
392.5473	0.2512
392.7537	0.2414
392.9602	0.2429
393.1666	0.2462
393.373	0.2324
393.5794	0.2401
393.7858	0.2423
393.9922	0.2191
394.1986	0.2409
394.4049	0.2326
394.6113	0.243
394.8176	0.2256
395.0239	0.2287
395.2302	0.2269
395.4365	0.2094
395.6428	0.2227
395.8491	0.2151
396.0553	0.2286
396.2615	0.2208
396.4678	0.2153
396.674	0.2069
396.8802	0.2218
397.0863	0.2264
397.2925	0.2094
397.4987	0.2198
397.7048	0.2242
397.9109	0.2289
398.117	0.2046
398.3231	0.2073
398.5292	0.2218
398.7353	0.2143
398.9413	0.212
399.1474	0.2064
399.3534	0.2065
399.5594	0.1929
399.7654	0.2243
399.9714	0.2215
400.1774	0.2083
400.3833	0.2174
400.5893	0.2156
400.7952	0.2171
401.0011	0.2106
401.207	0.231
401.4129	0.2112
401.6188	0.2109
401.8247	0.2206
402.0305	0.2092
402.2364	0.1963
402.4422	0.2217
402.648	0.2124
402.8538	0.2271
403.0596	0.207
403.2654	0.2217
403.4711	0.2007
403.6768	0.2178
403.8826	0.2213
404.0883	0.2202
404.294	0.2149
404.4997	0.2177
404.7054	0.214
404.911	0.2046
405.1167	0.2164
405.3223	0.2251
405.5279	0.214
405.7335	0.2318
405.9391	0.2064
406.1447	0.2192
406.3502	0.2369
406.5558	0.1993
406.7613	0.2106
406.9668	0.2059
407.1724	0.2178
407.3778	0.2031
407.5833	0.2011
407.7888	0.2195
407.9942	0.2441
408.1997	0.2155
408.4051	0.2088
408.6105	0.1982
408.8159	0.2035
409.0213	0.197
409.2267	0.2207
409.432	0.2059
409.6374	0.221
409.8427	0.2041
410.048	0.2122
410.2533	0.212
410.4586	0.2111
410.6639	0.186
410.8691	0.1929
411.0744	0.2025
411.2796	0.2025
411.4848	0.2077
411.69	0.2253
411.8952	0.2284
412.1004	0.1977
412.3056	0.2255
412.5107	0.2014
412.7158	0.2248
412.921	0.2066
413.1261	0.2272
413.3312	0.1964
413.5362	0.2106
413.7413	0.1961
413.9464	0.1974
414.1514	0.2034
414.3564	0.198
414.5614	0.1978
414.7664	0.214
414.9714	0.202
415.1764	0.2142
415.3813	0.2112
415.5863	0.2153
415.7912	0.1921
415.9961	0.1957
416.201	0.1964
416.4059	0.2085
416.6108	0.2019
416.8156	0.2142
417.0205	0.218
417.2253	0.2075
417.4301	0.1936
417.6349	0.1901
417.8397	0.179
418.0445	0.2043
418.2492	0.2041
418.454	0.1821
418.6587	0.1951
418.8634	0.1878
419.0681	0.1843
419.2728	0.1955
419.4775	0.1891
419.6822	0.1857
419.8868	0.1866
420.0915	0.2067
420.2961	0.1714
420.5007	0.1959
420.7053	0.2023
420.9099	0.2025
421.1144	0.2047
421.319	0.1803
421.5235	0.2001
421.728	0.1906
421.9325	0.1873
422.137	0.1834
422.3415	0.195
422.546	0.1911
422.7504	0.186
422.9549	0.1911
423.1593	0.1822
423.3637	0.1962
423.5681	0.1732
423.7725	0.1642
423.9769	0.1881
424.1812	0.1732
424.3856	0.169
424.5899	0.1741
424.7942	0.1675
424.9985	0.1965
425.2028	0.185
425.4071	0.2041
425.6113	0.1727
425.8156	0.1733
426.0198	0.1941
426.224	0.1552
426.4282	0.1609
