Data from MonoPyChalIsomerACN10uM350nmA_Absorbance_14-35-39-315.txt Node
Date: Fri Jul 05 14:35:39 BST 2024
User: LASERRRRR
Spectrometer: FLMT03099
Trigger mode: 0
Integration Time (sec): 1.000000E-1
Scans to average: 1
Electric dark correction enabled: true
Nonlinearity correction enabled: false
Boxcar width: 0
XAxis mode: Wavelengths
Number of Pixels in Spectrum: 3648
>>>>>Begin Spectral Data<<<<<
179.3399	0.301
179.5586	0.301
179.7771	0.301
179.9957	1.5125
180.2143	-0
180.4329	-0.1443
180.6514	0.5592
180.8699	-0
181.0885	-0.31
181.307	0.1207
181.5255	-0.7801
181.744	-0.5619
181.9625	-0
182.181	-0.7089
182.3994	1.113
182.6179	-0
182.8363	-0.0826
183.0547	0.6807
183.2732	0.0126
183.4916	0.3679
183.71	0.3129
183.9284	0.3467
184.1467	0.0774
184.3651	0.1811
184.5835	-0.0855
184.8018	0.075
185.0201	0.0153
185.2385	-0.0995
185.4568	0.138
185.6751	0.0973
185.8934	0.3959
186.1117	-0.0525
186.3299	-0.0608
186.5482	0.1357
186.7664	0.0149
186.9847	-0.0825
187.2029	0.285
187.4211	0.0955
187.6393	0.0392
187.8575	-0.1694
188.0757	0.3248
188.2939	0.1305
188.512	0.1201
188.7302	-0.1258
188.9483	0.0847
189.1665	0.4278
189.3846	-0.0584
189.6027	0.1463
189.8208	0.1583
190.0389	0.2647
190.257	0.1733
190.475	0.2573
190.6931	0.2296
190.9111	0.6315
191.1292	0.0985
191.3472	0.3646
191.5652	0.3181
191.7832	0.1938
192.0012	0.6517
192.2192	0.3186
192.4371	0.9424
192.6551	0.5895
192.873	0.5252
193.091	0.341
193.3089	0.7049
193.5268	0.3145
193.7447	0.5637
193.9626	0.4524
194.1805	0.6285
194.3984	0.7214
194.6162	0.6601
194.8341	0.5019
195.0519	0.4007
195.2697	0.8067
195.4875	1.1631
195.7054	0.5192
195.9231	0.6449
196.1409	0.5682
196.3587	0.7123
196.5765	0.5051
196.7942	0.5672
197.012	0.7033
197.2297	0.6948
197.4474	0.8187
197.6651	0.6369
197.8828	0.6027
198.1005	0.5764
198.3182	0.7293
198.5358	0.793
198.7535	0.6593
198.9711	0.5519
199.1888	0.7065
199.4064	0.7234
199.624	0.5436
199.8416	0.5935
200.0592	0.5877
200.2767	0.7593
200.4943	0.695
200.7119	0.6058
200.9294	0.5799
201.1469	0.5424
201.3645	0.6031
201.582	0.6109
201.7995	0.7366
202.017	0.5852
202.2344	0.6531
202.4519	0.7109
202.6694	0.6262
202.8868	0.5683
203.1042	0.7658
203.3217	0.6833
203.5391	0.6305
203.7565	0.6179
203.9739	0.6367
204.1913	0.7229
204.4086	0.6035
204.626	0.7903
204.8433	0.5929
205.0607	0.5875
205.278	0.6079
205.4953	0.6078
205.7126	0.6435
205.9299	0.81
206.1472	0.8383
206.3644	0.6275
206.5817	0.7031
206.7989	0.6875
207.0162	0.7091
207.2334	0.6708
207.4506	0.6541
207.6678	0.658
207.885	0.639
208.1022	0.6361
208.3194	0.6408
208.5365	0.6723
208.7537	0.6766
208.9708	0.5391
209.1879	0.6799
209.405	0.6662
209.6222	0.6992
209.8392	0.6611
210.0563	0.5901
210.2734	0.6611
210.4905	0.5955
210.7075	0.6207
210.9245	0.532
211.1416	0.7807
211.3586	0.6419
211.5756	0.6244
211.7926	0.5812
212.0096	0.597
212.2265	0.5891
212.4435	0.5497
212.6604	0.5863
212.8774	0.5918
213.0943	0.6484
213.3112	0.5627
213.5281	0.509
213.745	0.4883
213.9619	0.4933
214.1788	0.5179
214.3956	0.4875
214.6125	0.4655
214.8293	0.4442
215.0461	0.4492
215.2629	0.4643
215.4798	0.4414
215.6965	0.4062
215.9133	0.4207
216.1301	0.409
216.3469	0.4599
216.5636	0.4048
216.7803	0.4058
216.9971	0.4138
217.2138	0.3969
217.4305	0.3506
217.6472	0.3638
217.8639	0.384
218.0805	0.3456
218.2972	0.3431
218.5138	0.3374
218.7305	0.3284
218.9471	0.3017
219.1637	0.2855
219.3803	0.2713
219.5969	0.2893
219.8135	0.2368
220.0301	0.2651
220.2466	0.2719
220.4632	0.254
220.6797	0.2451
220.8962	0.2333
221.1127	0.261
221.3292	0.2607
221.5457	0.2372
221.7622	0.2439
221.9787	0.2438
222.1951	0.2151
222.4116	0.2748
222.628	0.2558
222.8444	0.2617
223.0608	0.2492
223.2772	0.2624
223.4936	0.2623
223.71	0.2414
223.9264	0.239
224.1427	0.2606
224.3591	0.2582
224.5754	0.2465
224.7917	0.2765
225.008	0.2599
225.2243	0.2536
225.4406	0.2889
225.6569	0.2723
225.8732	0.2636
226.0894	0.266
226.3057	0.2585
226.5219	0.2701
226.7381	0.2783
226.9543	0.2841
227.1705	0.2988
227.3867	0.2662
227.6029	0.3007
227.8191	0.2847
228.0352	0.2918
228.2513	0.3093
228.4675	0.3009
228.6836	0.2984
228.8997	0.3064
229.1158	0.3062
229.3319	0.3056
229.548	0.3309
229.764	0.3135
229.9801	0.3371
230.1961	0.3295
230.4121	0.3308
230.6282	0.331
230.8442	0.3354
231.0602	0.3495
231.2761	0.3478
231.4921	0.344
231.7081	0.3446
231.924	0.3292
232.14	0.3625
232.3559	0.3363
232.5718	0.3423
232.7877	0.3566
233.0036	0.3649
233.2195	0.3575
233.4353	0.3509
233.6512	0.3599
233.867	0.3559
234.0829	0.3543
234.2987	0.3741
234.5145	0.3699
234.7303	0.3699
234.9461	0.3835
235.1619	0.3724
235.3776	0.37
235.5934	0.3969
235.8091	0.3616
236.0249	0.3896
236.2406	0.3681
236.4563	0.374
236.672	0.3933
236.8877	0.4069
237.1034	0.4042
237.319	0.3703
237.5347	0.4084
237.7503	0.3816
237.966	0.3996
238.1816	0.414
238.3972	0.3928
238.6128	0.3807
238.8284	0.41
239.0439	0.3877
239.2595	0.4025
239.475	0.4082
239.6906	0.4084
239.9061	0.4035
240.1216	0.3975
240.3371	0.4135
240.5526	0.4137
240.7681	0.4022
240.9836	0.3903
241.199	0.4075
241.4145	0.3783
241.6299	0.3946
241.8453	0.3763
242.0607	0.3943
242.2761	0.3597
242.4915	0.3694
242.7069	0.3618
242.9223	0.3851
243.1376	0.359
243.353	0.358
243.5683	0.3487
243.7836	0.3241
243.9989	0.3381
244.2142	0.3056
244.4295	0.3142
244.6448	0.305
244.86	0.2846
245.0753	0.2938
245.2905	0.2813
245.5057	0.2705
245.721	0.2821
245.9362	0.2624
246.1514	0.2771
246.3665	0.2609
246.5817	0.2531
246.7969	0.2461
247.012	0.2508
247.2271	0.2456
247.4423	0.2482
247.6574	0.2488
247.8725	0.2388
248.0876	0.2132
248.3026	0.2399
248.5177	0.2265
248.7328	0.2138
248.9478	0.1962
249.1628	0.2173
249.3779	0.2247
249.5929	0.206
249.8079	0.2106
250.0228	0.1955
250.2378	0.2002
250.4528	0.1984
250.6677	0.185
250.8827	0.2069
251.0976	0.2002
251.3125	0.1938
251.5274	0.1807
251.7423	0.1858
251.9572	0.1927
252.172	0.1741
252.3869	0.1905
252.6017	0.1769
252.8166	0.1678
253.0314	0.1652
253.2462	0.1729
253.461	0.1691
253.6758	0.1653
253.8906	0.1655
254.1053	0.1654
254.3201	0.1773
254.5348	0.1883
254.7496	0.1813
254.9643	0.1664
255.179	0.175
255.3937	0.1639
255.6083	0.1683
255.823	0.1696
256.0377	0.1702
256.2523	0.1694
256.467	0.1441
256.6816	0.1829
256.8962	0.1689
257.1108	0.1469
257.3254	0.1746
257.54	0.151
257.7545	0.1815
257.9691	0.181
258.1836	0.1731
258.3981	0.1756
258.6127	0.1699
258.8272	0.1642
259.0417	0.1513
259.2561	0.1606
259.4706	0.1771
259.6851	0.1701
259.8995	0.1667
260.114	0.1666
260.3284	0.1604
260.5428	0.167
260.7572	0.1643
260.9716	0.1815
261.186	0.1584
261.4003	0.1596
261.6147	0.1582
261.829	0.1658
262.0433	0.1612
262.2577	0.1624
262.472	0.1586
262.6863	0.162
262.9005	0.1601
263.1148	0.1609
263.3291	0.1486
263.5433	0.1634
263.7576	0.1686
263.9718	0.1584
264.186	0.1524
264.4002	0.1457
264.6144	0.1621
264.8286	0.1613
265.0427	0.1533
265.2569	0.1583
265.471	0.161
265.6851	0.1606
265.8993	0.1545
266.1134	0.1645
266.3275	0.1656
266.5415	0.1536
266.7556	0.1662
266.9697	0.1671
267.1837	0.1672
267.3978	0.1582
267.6118	0.168
267.8258	0.1732
268.0398	0.1558
268.2538	0.1547
268.4677	0.1609
268.6817	0.156
268.8957	0.1595
269.1096	0.1627
269.3235	0.1641
269.5374	0.152
269.7514	0.1636
269.9652	0.1512
270.1791	0.1537
270.393	0.1407
270.6068	0.1557
270.8207	0.1431
271.0345	0.1379
271.2483	0.1495
271.4622	0.1389
271.676	0.1541
271.8897	0.1406
272.1035	0.1434
272.3173	0.1389
272.531	0.1483
272.7448	0.1493
272.9585	0.1399
273.1722	0.1495
273.3859	0.1555
273.5996	0.133
273.8133	0.1344
274.0269	0.1396
274.2406	0.1444
274.4542	0.1463
274.6679	0.1342
274.8815	0.1373
275.0951	0.1597
275.3087	0.1635
275.5223	0.1464
275.7358	0.1493
275.9494	0.1476
276.1629	0.149
276.3765	0.1318
276.59	0.1497
276.8035	0.1485
277.017	0.1491
277.2305	0.1393
277.444	0.1577
277.6574	0.1529
277.8709	0.1518
278.0843	0.1375
278.2978	0.1459
278.5112	0.1439
278.7246	0.1428
278.938	0.1569
279.1513	0.1532
279.3647	0.1519
279.5781	0.1365
279.7914	0.1516
280.0047	0.1618
280.2181	0.152
280.4314	0.1491
280.6447	0.1484
280.8579	0.1469
281.0712	0.1566
281.2845	0.1505
281.4977	0.1467
281.711	0.151
281.9242	0.1409
282.1374	0.1679
282.3506	0.1438
282.5638	0.1635
282.7769	0.1466
282.9901	0.161
283.2033	0.1585
283.4164	0.1556
283.6295	0.1478
283.8426	0.152
284.0557	0.1543
284.2688	0.1525
284.4819	0.1482
284.695	0.1612
284.908	0.173
285.1211	0.1586
285.3341	0.1655
285.5471	0.1737
285.7601	0.1633
285.9731	0.1495
286.1861	0.1487
286.3991	0.1562
286.612	0.1706
286.825	0.1628
287.0379	0.1683
287.2508	0.1638
287.4637	0.1647
287.6766	0.1584
287.8895	0.164
288.1024	0.1779
288.3152	0.1749
288.5281	0.1551
288.7409	0.1643
288.9538	0.1583
289.1666	0.165
289.3794	0.1587
289.5922	0.1545
289.8049	0.1662
290.0177	0.1587
290.2304	0.1583
290.4432	0.1614
290.6559	0.1558
290.8686	0.1636
291.0813	0.167
291.294	0.1696
291.5067	0.1778
291.7194	0.1544
291.932	0.1692
292.1447	0.1636
292.3573	0.1558
292.5699	0.1713
292.7825	0.1788
292.9951	0.1684
293.2077	0.1573
293.4203	0.1608
293.6328	0.1496
293.8454	0.1661
294.0579	0.1695
294.2704	0.1692
294.4829	0.1569
294.6954	0.175
294.9079	0.1725
295.1204	0.161
295.3328	0.1574
295.5453	0.1571
295.7577	0.1642
295.9701	0.1597
296.1825	0.1552
296.3949	0.1573
296.6073	0.1595
296.8197	0.1523
297.0321	0.1703
297.2444	0.1523
297.4567	0.1633
297.6691	0.1614
297.8814	0.162
298.0937	0.1557
298.306	0.1676
298.5182	0.1652
298.7305	0.1773
298.9428	0.1532
299.155	0.1625
299.3672	0.1653
299.5794	0.1653
299.7916	0.1577
300.0038	0.1619
300.216	0.1628
300.4282	0.165
300.6403	0.1539
300.8525	0.1559
301.0646	0.1603
301.2767	0.168
301.4888	0.1612
301.7009	0.1543
301.913	0.1545
302.125	0.1654
302.3371	0.1553
302.5491	0.173
302.7612	0.1603
302.9732	0.1667
303.1852	0.1649
303.3972	0.1557
303.6092	0.1532
303.8211	0.1544
304.0331	0.1383
304.245	0.1574
304.457	0.1539
304.6689	0.1476
304.8808	0.1536
305.0927	0.1553
305.3046	0.1419
305.5164	0.1585
305.7283	0.1403
305.9401	0.1558
306.152	0.1551
306.3638	0.1648
306.5756	0.1419
306.7874	0.1486
306.9992	0.1398
307.2109	0.1391
307.4227	0.1296
307.6344	0.1384
307.8462	0.1287
308.0579	0.1366
308.2696	0.1312
308.4813	0.1374
308.693	0.138
308.9046	0.1346
309.1163	0.1234
309.328	0.1248
309.5396	0.1248
309.7512	0.1276
309.9628	0.126
310.1744	0.1288
310.386	0.123
310.5976	0.1228
310.8091	0.1187
311.0207	0.1231
311.2322	0.1275
311.4437	0.1074
311.6552	0.1156
311.8667	0.1161
312.0782	0.0927
312.2897	0.0989
312.5012	0.1115
312.7126	0.105
312.924	0.0954
313.1355	0.1227
313.3469	0.1057
313.5583	0.1091
313.7696	0.1065
313.981	0.1102
314.1924	0.1163
314.4037	0.1007
314.6151	0.1121
314.8264	0.1041
315.0377	0.1088
315.249	0.1058
315.4603	0.1054
315.6716	0.0944
315.8828	0.0933
316.0941	0.0973
316.3053	0.0981
316.5165	0.0958
316.7277	0.0917
316.9389	0.1023
317.1501	0.103
317.3613	0.0948
317.5724	0.086
317.7836	0.1096
317.9947	0.0953
318.2058	0.094
318.417	0.0974
318.6281	0.0859
318.8391	0.0959
319.0502	0.0986
319.2613	0.0959
319.4723	0.1058
319.6834	0.1148
319.8944	0.0845
320.1054	0.0986
320.3164	0.1102
320.5274	0.0882
320.7383	0.1005
320.9493	0.0975
321.1602	0.1057
321.3712	0.0963
321.5821	0.1122
321.793	0.1082
322.0039	0.108
322.2148	0.0984
322.4257	0.1003
322.6365	0.1079
322.8474	0.1076
323.0582	0.1098
323.269	0.0942
323.4798	0.1103
323.6906	0.117
323.9014	0.0999
324.1122	0.1099
324.3229	0.1061
324.5337	0.0863
324.7444	0.0897
324.9551	0.1127
325.1658	0.1038
325.3765	0.1048
325.5872	0.1045
325.7979	0.1045
326.0085	0.098
326.2192	0.1091
326.4298	0.1
326.6404	0.097
326.851	0.1002
327.0616	0.0905
327.2722	0.1062
327.4828	0.1059
327.6933	0.0951
327.9039	0.1177
328.1144	0.116
328.3249	0.1086
328.5354	0.0993
328.7459	0.1089
328.9564	0.1057
329.1669	0.1119
329.3773	0.1164
329.5878	0.1011
329.7982	0.1016
330.0086	0.1027
330.219	0.1058
330.4294	0.1014
330.6398	0.1137
330.8502	0.0992
331.0605	0.1032
331.2708	0.1108
331.4812	0.1015
331.6915	0.1151
331.9018	0.1073
332.1121	0.1062
332.3224	0.106
332.5326	0.1162
332.7429	0.1053
332.9531	0.1232
333.1633	0.1107
333.3735	0.0977
333.5837	0.1032
333.7939	0.1041
334.0041	0.1268
334.2143	0.1212
334.4244	0.1087
334.6346	0.0979
334.8447	0.1141
335.0548	0.1044
335.2649	0.104
335.475	0.1105
335.685	0.0984
335.8951	0.1132
336.1051	0.115
336.3152	0.1083
336.5252	0.1059
336.7352	0.1172
336.9452	0.1145
337.1552	0.1092
337.3652	0.1169
337.5751	0.1161
337.7851	0.1132
337.995	0.1108
338.2049	0.1186
338.4148	0.1117
338.6247	0.1213
338.8346	0.1006
339.0445	0.1144
339.2543	0.1119
339.4642	0.1143
339.674	0.1092
339.8838	0.1144
340.0936	0.1083
340.3034	0.125
340.5132	0.1198
340.7229	0.1144
340.9327	0.1255
341.1424	0.1112
341.3522	0.1275
341.5619	0.1163
341.7716	0.1214
341.9813	0.117
342.1909	0.1224
342.4006	0.1288
342.6102	0.1239
342.8199	0.1141
343.0295	0.1236
343.2391	0.1259
343.4487	0.1301
343.6583	0.1288
343.8679	0.128
344.0774	0.1364
344.287	0.1298
344.4965	0.1155
344.706	0.133
344.9155	0.1277
345.125	0.1238
345.3345	0.1324
345.544	0.1319
345.7534	0.1261
345.9629	0.1257
346.1723	0.1362
346.3817	0.1263
346.5911	0.1338
346.8005	0.1367
347.0099	0.1196
347.2193	0.1392
347.4286	0.1359
347.638	0.1334
347.8473	0.1324
348.0566	0.1289
348.2659	0.133
348.4752	0.1357
348.6845	0.1195
348.8937	0.1353
349.103	0.1461
349.3122	0.1253
349.5214	0.1318
349.7306	0.1332
349.9398	0.137
350.149	0.13
350.3582	0.1393
350.5674	0.1543
350.7765	0.1484
350.9856	0.1547
351.1948	0.1369
351.4039	0.1296
351.613	0.1309
351.822	0.145
352.0311	0.1594
352.2402	0.1464
352.4492	0.163
352.6582	0.1506
352.8672	0.1412
353.0762	0.1503
353.2852	0.1447
353.4942	0.1405
353.7032	0.164
353.9121	0.143
354.1211	0.155
354.33	0.1566
354.5389	0.1598
354.7478	0.1475
354.9567	0.1419
355.1655	0.1559
355.3744	0.1464
355.5833	0.1744
355.7921	0.1606
356.0009	0.1652
356.2097	0.1891
356.4185	0.1694
356.6273	0.1489
356.8361	0.1603
357.0448	0.1565
357.2536	0.1521
357.4623	0.1474
357.671	0.1675
357.8797	0.1683
358.0884	0.1709
358.2971	0.1634
358.5057	0.1604
358.7144	0.1766
358.923	0.1738
359.1316	0.1866
359.3402	0.1703
359.5488	0.1722
359.7574	0.1769
359.966	0.1738
360.1746	0.17
360.3831	0.1764
360.5916	0.1712
360.8002	0.1701
361.0087	0.1849
361.2172	0.1697
361.4256	0.175
361.6341	0.1855
361.8426	0.1779
362.051	0.1963
362.2594	0.1925
362.4678	0.1704
362.6762	0.2082
362.8846	0.1815
363.093	0.1883
363.3014	0.1824
363.5097	0.1783
363.718	0.1842
363.9264	0.1785
364.1347	0.1805
364.343	0.1959
364.5513	0.1941
364.7595	0.2059
364.9678	0.1962
365.176	0.1918
365.3842	0.1853
365.5925	0.1938
365.8007	0.1991
366.0089	0.1946
366.217	0.1709
366.4252	0.1901
366.6333	0.2093
366.8415	0.1787
367.0496	0.1738
367.2577	0.2002
367.4658	0.2018
367.6739	0.2145
367.882	0.2206
368.09	0.2168
368.2981	0.2069
368.5061	0.2028
368.7141	0.226
368.9221	0.2261
369.1301	0.2033
369.3381	0.1999
369.5461	0.2163
369.754	0.2232
369.962	0.212
370.1699	0.2237
370.3778	0.2294
370.5857	0.2058
370.7936	0.2186
371.0015	0.2249
371.2093	0.2306
371.4172	0.224
371.625	0.2046
371.8328	0.2019
372.0406	0.2275
372.2484	0.198
372.4562	0.2186
372.664	0.2162
372.8717	0.2358
373.0795	0.2155
373.2872	0.2142
373.4949	0.216
373.7026	0.2282
373.9103	0.2281
374.118	0.2329
374.3256	0.2239
374.5333	0.2214
374.7409	0.2331
374.9485	0.256
375.1561	0.2381
375.3637	0.2085
375.5713	0.2391
375.7789	0.2364
375.9864	0.2375
376.194	0.2312
376.4015	0.236
376.609	0.24
376.8165	0.2288
377.024	0.2332
377.2315	0.2309
377.4389	0.2289
377.6464	0.2312
377.8538	0.2361
378.0612	0.2382
378.2686	0.2388
378.476	0.2463
378.6834	0.2524
378.8908	0.2252
379.0981	0.2493
379.3055	0.2298
379.5128	0.2409
379.7201	0.2504
379.9274	0.2381
380.1347	0.2608
380.342	0.2626
380.5492	0.2449
380.7565	0.2558
380.9637	0.256
381.1709	0.2442
381.3781	0.2404
381.5853	0.2547
381.7925	0.2436
381.9997	0.2623
382.2068	0.2561
382.4139	0.2392
382.6211	0.2516
382.8282	0.2353
383.0353	0.245
383.2424	0.2391
383.4494	0.2482
383.6565	0.2545
383.8635	0.2466
384.0706	0.2404
384.2776	0.2577
384.4846	0.2455
384.6916	0.2598
384.8986	0.2628
385.1055	0.2488
385.3125	0.2615
385.5194	0.2534
385.7263	0.2702
385.9333	0.2415
386.1402	0.2632
386.347	0.2508
386.5539	0.2537
386.7608	0.2638
386.9676	0.241
387.1744	0.2451
387.3813	0.2599
387.5881	0.2555
387.7948	0.2506
388.0016	0.2573
388.2084	0.249
388.4151	0.2453
388.6219	0.2525
388.8286	0.2458
389.0353	0.2679
389.242	0.24
389.4487	0.2399
389.6553	0.2357
389.862	0.2279
390.0686	0.2214
390.2753	0.2521
390.4819	0.235
390.6885	0.2361
390.8951	0.2596
391.1016	0.2293
391.3082	0.2391
391.5147	0.2358
391.7213	0.2493
391.9278	0.2208
392.1343	0.224
392.3408	0.2255
392.5473	0.2562
392.7537	0.2402
392.9602	0.2326
393.1666	0.2239
393.373	0.2272
393.5794	0.2389
393.7858	0.2226
393.9922	0.2144
394.1986	0.2267
394.4049	0.2289
394.6113	0.199
394.8176	0.209
395.0239	0.2211
395.2302	0.2248
395.4365	0.2284
395.6428	0.2112
395.8491	0.2236
396.0553	0.2293
396.2615	0.2065
396.4678	0.2188
396.674	0.1942
396.8802	0.2005
397.0863	0.2258
397.2925	0.2078
397.4987	0.2176
397.7048	0.2122
397.9109	0.2313
398.117	0.2123
398.3231	0.2147
398.5292	0.2272
398.7353	0.2321
398.9413	0.2012
399.1474	0.2063
399.3534	0.1983
399.5594	0.1945
399.7654	0.2208
399.9714	0.2124
400.1774	0.2064
400.3833	0.1981
400.5893	0.2085
400.7952	0.1977
401.0011	0.1936
401.207	0.2237
401.4129	0.2068
401.6188	0.2149
401.8247	0.2081
402.0305	0.2077
402.2364	0.2062
402.4422	0.2096
402.648	0.2091
402.8538	0.2235
403.0596	0.1959
403.2654	0.2237
403.4711	0.1974
403.6768	0.2127
403.8826	0.2283
404.0883	0.2163
404.294	0.2077
404.4997	0.2072
404.7054	0.2166
404.911	0.2155
405.1167	0.2132
405.3223	0.2085
405.5279	0.2349
405.7335	0.2266
405.9391	0.2071
406.1447	0.1963
406.3502	0.2185
406.5558	0.2133
406.7613	0.2045
406.9668	0.2204
407.1724	0.1999
407.3778	0.1971
407.5833	0.1981
407.7888	0.2019
407.9942	0.2328
408.1997	0.2249
408.4051	0.2052
408.6105	0.2169
408.8159	0.1949
409.0213	0.2133
409.2267	0.2091
409.432	0.2006
409.6374	0.2119
409.8427	0.1924
410.048	0.2238
410.2533	0.1998
410.4586	0.1883
410.6639	0.1851
410.8691	0.1883
411.0744	0.1916
411.2796	0.1968
411.4848	0.197
411.69	0.1918
411.8952	0.2321
412.1004	0.1881
412.3056	0.1997
412.5107	0.1953
412.7158	0.2134
412.921	0.2018
413.1261	0.203
413.3312	0.1918
413.5362	0.2037
413.7413	0.2052
413.9464	0.209
414.1514	0.2
414.3564	0.1906
414.5614	0.1715
414.7664	0.2218
414.9714	0.2009
415.1764	0.2006
415.3813	0.2093
415.5863	0.1816
415.7912	0.2148
415.9961	0.2014
416.201	0.2017
416.4059	0.2046
416.6108	0.1932
416.8156	0.2016
417.0205	0.2189
417.2253	0.196
417.4301	0.1998
417.6349	0.2043
417.8397	0.1929
418.0445	0.2061
418.2492	0.2078
418.454	0.208
418.6587	0.1983
418.8634	0.1887
419.0681	0.1881
419.2728	0.1847
419.4775	0.2053
419.6822	0.1851
419.8868	0.1721
420.0915	0.1872
420.2961	0.1807
420.5007	0.1806
420.7053	0.1793
420.9099	0.1839
421.1144	0.192
421.319	0.1853
421.5235	0.1818
421.728	0.1882
421.9325	0.1886
422.137	0.1913
422.3415	0.1714
422.546	0.189
422.7504	0.1869
422.9549	0.1935
423.1593	0.1908
423.3637	0.2022
423.5681	0.1888
423.7725	0.1737
423.9769	0.1593
424.1812	0.1632
424.3856	0.1776
424.5899	0.1664
424.7942	0.1849
424.9985	0.1783
425.2028	0.1675
425.4071	0.1841
425.6113	0.1703
425.8156	0.1618
426.0198	0.1899
426.224	0.1648
426.4282	0.1749
