Data from MonoPyChalIsomerACN10uM350nmA_Absorbance_14-35-37-915.txt Node
Date: Fri Jul 05 14:35:37 BST 2024
User: LASERRRRR
Spectrometer: FLMT03099
Trigger mode: 0
Integration Time (sec): 1.000000E-1
Scans to average: 1
Electric dark correction enabled: true
Nonlinearity correction enabled: false
Boxcar width: 0
XAxis mode: Wavelengths
Number of Pixels in Spectrum: 3648
>>>>>Begin Spectral Data<<<<<
179.3399	-0.1471
179.5586	-0.1471
179.7771	-0.1471
179.9957	-0
180.2143	-0
180.4329	0.0838
180.6514	-0
180.8699	-0
181.0885	0.6144
181.307	0.2526
181.5255	-0.2591
181.744	-0.5501
181.9625	-0.2147
182.181	-0.2382
182.3994	0.8577
182.6179	-0
182.8363	-0.2208
183.0547	-0.2141
183.2732	0.1111
183.4916	0.1675
183.71	0.1609
183.9284	0.3499
184.1467	0.0362
184.3651	0.3289
184.5835	-0.0613
184.8018	0.0024
185.0201	0.2534
185.2385	0.1539
185.4568	0.2106
185.6751	0.652
185.8934	0.6415
186.1117	0.2278
186.3299	0.1584
186.5482	0.075
186.7664	-0.0028
186.9847	-0.0499
187.2029	0.0761
187.4211	0.3
187.6393	-0
187.8575	0.311
188.0757	0.4076
188.2939	0.0288
188.512	0.0198
188.7302	-0.0205
188.9483	-0.01
189.1665	0.1164
189.3846	0.14
189.6027	0.3787
189.8208	0.2069
190.0389	0.1333
190.257	0.0451
190.475	0.5678
190.6931	0.2599
190.9111	0.4076
191.1292	0.1959
191.3472	0.3801
191.5652	0.4146
191.7832	0.1709
192.0012	0.6549
192.2192	0.2754
192.4371	0.7649
192.6551	0.4981
192.873	0.4668
193.091	0.5937
193.3089	0.5539
193.5268	0.6422
193.7447	0.6346
193.9626	0.4321
194.1805	0.7187
194.3984	0.922
194.6162	0.552
194.8341	0.5149
195.0519	0.5353
195.2697	0.6245
195.4875	0.6242
195.7054	0.6797
195.9231	0.5421
196.1409	0.7016
196.3587	0.6833
196.5765	0.6957
196.7942	0.6114
197.012	0.4986
197.2297	0.659
197.4474	0.6582
197.6651	0.7067
197.8828	0.5254
198.1005	0.5844
198.3182	0.6056
198.5358	0.8333
198.7535	0.5592
198.9711	0.5383
199.1888	0.7563
199.4064	0.7485
199.624	0.6612
199.8416	0.6545
200.0592	0.652
200.2767	0.6786
200.4943	0.7327
200.7119	0.8981
200.9294	0.4726
201.1469	0.5792
201.3645	0.597
201.582	0.6143
201.7995	0.7561
202.017	0.7328
202.2344	0.6144
202.4519	0.7328
202.6694	0.6802
202.8868	0.5915
203.1042	0.6627
203.3217	0.6734
203.5391	0.6083
203.7565	0.5825
203.9739	0.6353
204.1913	0.6207
204.4086	0.6506
204.626	0.7148
204.8433	0.6617
205.0607	0.6407
205.278	0.7741
205.4953	0.6143
205.7126	0.6382
205.9299	0.7033
206.1472	0.6514
206.3644	0.6154
206.5817	0.6203
206.7989	0.769
207.0162	0.5994
207.2334	0.7699
207.4506	0.6264
207.6678	0.6429
207.885	0.6241
208.1022	0.7232
208.3194	0.6071
208.5365	0.6422
208.7537	0.7248
208.9708	0.6409
209.1879	0.6669
209.405	0.6462
209.6222	0.6557
209.8392	0.606
210.0563	0.585
210.2734	0.6372
210.4905	0.6913
210.7075	0.627
210.9245	0.5778
211.1416	0.6194
211.3586	0.702
211.5756	0.5633
211.7926	0.6325
212.0096	0.6009
212.2265	0.5681
212.4435	0.5649
212.6604	0.6242
212.8774	0.5483
213.0943	0.5958
213.3112	0.5483
213.5281	0.512
213.745	0.4877
213.9619	0.5325
214.1788	0.5468
214.3956	0.4627
214.6125	0.4636
214.8293	0.4871
215.0461	0.5019
215.2629	0.4348
215.4798	0.4443
215.6965	0.4227
215.9133	0.4451
216.1301	0.4192
216.3469	0.419
216.5636	0.4319
216.7803	0.4193
216.9971	0.3879
217.2138	0.3475
217.4305	0.3753
217.6472	0.3629
217.8639	0.3908
218.0805	0.3604
218.2972	0.3127
218.5138	0.2935
218.7305	0.3253
218.9471	0.3018
219.1637	0.3029
219.3803	0.2963
219.5969	0.279
219.8135	0.247
220.0301	0.2836
220.2466	0.2827
220.4632	0.258
220.6797	0.2324
220.8962	0.2401
221.1127	0.2559
221.3292	0.268
221.5457	0.2258
221.7622	0.2286
221.9787	0.2607
222.1951	0.2292
222.4116	0.2501
222.628	0.2401
222.8444	0.2611
223.0608	0.2384
223.2772	0.2616
223.4936	0.274
223.71	0.2901
223.9264	0.2588
224.1427	0.2552
224.3591	0.2381
224.5754	0.2753
224.7917	0.283
225.008	0.2728
225.2243	0.254
225.4406	0.2959
225.6569	0.2508
225.8732	0.257
226.0894	0.271
226.3057	0.2705
226.5219	0.2719
226.7381	0.2615
226.9543	0.2881
227.1705	0.2859
227.3867	0.2674
227.6029	0.3129
227.8191	0.28
228.0352	0.3108
228.2513	0.3168
228.4675	0.3103
228.6836	0.3062
228.8997	0.2835
229.1158	0.2868
229.3319	0.3143
229.548	0.3405
229.764	0.3237
229.9801	0.3363
230.1961	0.3139
230.4121	0.3423
230.6282	0.3529
230.8442	0.3261
231.0602	0.3417
231.2761	0.3462
231.4921	0.3333
231.7081	0.3444
231.924	0.3453
232.14	0.3593
232.3559	0.3264
232.5718	0.3564
232.7877	0.3607
233.0036	0.3678
233.2195	0.3511
233.4353	0.37
233.6512	0.3677
233.867	0.3654
234.0829	0.3733
234.2987	0.3742
234.5145	0.3611
234.7303	0.382
234.9461	0.3866
235.1619	0.3711
235.3776	0.3884
235.5934	0.3762
235.8091	0.3685
236.0249	0.3716
236.2406	0.3812
236.4563	0.3842
236.672	0.3915
236.8877	0.4184
237.1034	0.3976
237.319	0.3953
237.5347	0.4017
237.7503	0.3904
237.966	0.4052
238.1816	0.414
238.3972	0.4102
238.6128	0.3923
238.8284	0.4232
239.0439	0.4125
239.2595	0.4221
239.475	0.408
239.6906	0.4032
239.9061	0.401
240.1216	0.411
240.3371	0.3906
240.5526	0.4109
240.7681	0.4281
240.9836	0.3912
241.199	0.3943
241.4145	0.3798
241.6299	0.3782
241.8453	0.3732
242.0607	0.4026
242.2761	0.3725
242.4915	0.356
242.7069	0.3585
242.9223	0.3608
243.1376	0.3629
243.353	0.3434
243.5683	0.3411
243.7836	0.3238
243.9989	0.3308
244.2142	0.3104
244.4295	0.3279
244.6448	0.3139
244.86	0.2993
245.0753	0.2935
245.2905	0.2844
245.5057	0.2725
245.721	0.2641
245.9362	0.268
246.1514	0.2791
246.3665	0.2563
246.5817	0.2549
246.7969	0.2599
247.012	0.2464
247.2271	0.2397
247.4423	0.2499
247.6574	0.2376
247.8725	0.2385
248.0876	0.2334
248.3026	0.2189
248.5177	0.2252
248.7328	0.2203
248.9478	0.217
249.1628	0.2099
249.3779	0.2072
249.5929	0.2147
249.8079	0.2184
250.0228	0.1969
250.2378	0.1976
250.4528	0.1957
250.6677	0.1835
250.8827	0.1926
251.0976	0.1958
251.3125	0.1881
251.5274	0.1787
251.7423	0.182
251.9572	0.1874
252.172	0.1765
252.3869	0.1756
252.6017	0.1748
252.8166	0.1702
253.0314	0.1742
253.2462	0.1579
253.461	0.1912
253.6758	0.1758
253.8906	0.1899
254.1053	0.1663
254.3201	0.164
254.5348	0.1855
254.7496	0.1778
254.9643	0.1667
255.179	0.1708
255.3937	0.1776
255.6083	0.1683
255.823	0.1709
256.0377	0.1653
256.2523	0.1743
256.467	0.1603
256.6816	0.1755
256.8962	0.1721
257.1108	0.1409
257.3254	0.1807
257.54	0.1625
257.7545	0.1831
257.9691	0.1691
258.1836	0.1657
258.3981	0.1714
258.6127	0.1796
258.8272	0.1613
259.0417	0.1702
259.2561	0.1639
259.4706	0.1645
259.6851	0.1698
259.8995	0.1666
260.114	0.1665
260.3284	0.1644
260.5428	0.1618
260.7572	0.1633
260.9716	0.1662
261.186	0.1569
261.4003	0.1565
261.6147	0.1674
261.829	0.1618
262.0433	0.1615
262.2577	0.1607
262.472	0.1693
262.6863	0.1591
262.9005	0.1608
263.1148	0.174
263.3291	0.146
263.5433	0.1668
263.7576	0.165
263.9718	0.1703
264.186	0.158
264.4002	0.1518
264.6144	0.1716
264.8286	0.1731
265.0427	0.1637
265.2569	0.1653
265.471	0.1505
265.6851	0.1604
265.8993	0.15
266.1134	0.1593
266.3275	0.1546
266.5415	0.1604
266.7556	0.1713
266.9697	0.159
267.1837	0.1485
267.3978	0.1725
267.6118	0.1766
267.8258	0.1819
268.0398	0.1533
268.2538	0.1702
268.4677	0.1586
268.6817	0.1591
268.8957	0.1618
269.1096	0.1584
269.3235	0.1622
269.5374	0.1565
269.7514	0.1635
269.9652	0.15
270.1791	0.1491
270.393	0.1452
270.6068	0.1555
270.8207	0.1534
271.0345	0.1453
271.2483	0.1572
271.4622	0.1432
271.676	0.1507
271.8897	0.1452
272.1035	0.1462
272.3173	0.1458
272.531	0.1407
272.7448	0.1479
272.9585	0.144
273.1722	0.1418
273.3859	0.1562
273.5996	0.1342
273.8133	0.1531
274.0269	0.1347
274.2406	0.1429
274.4542	0.1489
274.6679	0.1303
274.8815	0.1338
275.0951	0.1541
275.3087	0.1545
275.5223	0.1524
275.7358	0.1475
275.9494	0.1499
276.1629	0.1413
276.3765	0.1516
276.59	0.1568
276.8035	0.1486
277.017	0.1528
277.2305	0.1471
277.444	0.1585
277.6574	0.1325
277.8709	0.1601
278.0843	0.1325
278.2978	0.139
278.5112	0.1379
278.7246	0.1493
278.938	0.1422
279.1513	0.1472
279.3647	0.1539
279.5781	0.1488
279.7914	0.164
280.0047	0.1613
280.2181	0.1561
280.4314	0.1558
280.6447	0.1556
280.8579	0.1525
281.0712	0.1623
281.2845	0.158
281.4977	0.1495
281.711	0.1492
281.9242	0.1602
282.1374	0.1552
282.3506	0.1467
282.5638	0.1576
282.7769	0.1606
282.9901	0.1557
283.2033	0.1624
283.4164	0.1647
283.6295	0.1552
283.8426	0.1584
284.0557	0.148
284.2688	0.1753
284.4819	0.1551
284.695	0.1588
284.908	0.1642
285.1211	0.1618
285.3341	0.1594
285.5471	0.1642
285.7601	0.1529
285.9731	0.1599
286.1861	0.1568
286.3991	0.1631
286.612	0.1638
286.825	0.1682
287.0379	0.1714
287.2508	0.1625
287.4637	0.173
287.6766	0.1524
287.8895	0.1649
288.1024	0.1795
288.3152	0.1564
288.5281	0.1598
288.7409	0.1646
288.9538	0.1636
289.1666	0.1658
289.3794	0.1651
289.5922	0.1499
289.8049	0.1609
290.0177	0.1656
290.2304	0.1608
290.4432	0.1626
290.6559	0.1662
290.8686	0.1637
291.0813	0.1706
291.294	0.1693
291.5067	0.1723
291.7194	0.1719
291.932	0.1763
292.1447	0.1756
292.3573	0.1687
292.5699	0.1588
292.7825	0.174
292.9951	0.1665
293.2077	0.1646
293.4203	0.164
293.6328	0.1632
293.8454	0.1724
294.0579	0.1624
294.2704	0.1697
294.4829	0.1576
294.6954	0.1668
294.9079	0.168
295.1204	0.1632
295.3328	0.1691
295.5453	0.1709
295.7577	0.172
295.9701	0.1503
296.1825	0.1647
296.3949	0.1619
296.6073	0.1551
296.8197	0.1547
297.0321	0.1713
297.2444	0.1576
297.4567	0.1641
297.6691	0.1649
297.8814	0.1595
298.0937	0.1598
298.306	0.169
298.5182	0.1564
298.7305	0.1602
298.9428	0.1608
299.155	0.1669
299.3672	0.1605
299.5794	0.1599
299.7916	0.157
300.0038	0.1597
300.216	0.1699
300.4282	0.1708
300.6403	0.166
300.8525	0.1659
301.0646	0.1571
301.2767	0.1619
301.4888	0.1622
301.7009	0.1642
301.913	0.17
302.125	0.1599
302.3371	0.1613
302.5491	0.1671
302.7612	0.1745
302.9732	0.1644
303.1852	0.1711
303.3972	0.1652
303.6092	0.1599
303.8211	0.1559
304.0331	0.1495
304.245	0.1578
304.457	0.1527
304.6689	0.1562
304.8808	0.1608
305.0927	0.1448
305.3046	0.1515
305.5164	0.1564
305.7283	0.1401
305.9401	0.1428
306.152	0.1422
306.3638	0.1637
306.5756	0.1417
306.7874	0.152
306.9992	0.1588
307.2109	0.1451
307.4227	0.124
307.6344	0.1423
307.8462	0.1391
308.0579	0.1355
308.2696	0.133
308.4813	0.1376
308.693	0.1366
308.9046	0.1457
309.1163	0.1237
309.328	0.125
309.5396	0.126
309.7512	0.1317
309.9628	0.1272
310.1744	0.1267
310.386	0.1291
310.5976	0.1189
310.8091	0.1185
311.0207	0.1244
311.2322	0.1237
311.4437	0.1079
311.6552	0.1113
311.8667	0.1256
312.0782	0.1047
312.2897	0.0993
312.5012	0.1068
312.7126	0.1042
312.924	0.1002
313.1355	0.1133
313.3469	0.1071
313.5583	0.1094
313.7696	0.1009
313.981	0.1158
314.1924	0.1072
314.4037	0.098
314.6151	0.1127
314.8264	0.1029
315.0377	0.1077
315.249	0.0981
315.4603	0.0995
315.6716	0.1022
315.8828	0.1098
316.0941	0.0969
316.3053	0.0938
316.5165	0.0983
316.7277	0.0959
316.9389	0.1049
317.1501	0.0989
317.3613	0.1003
317.5724	0.094
317.7836	0.112
317.9947	0.1032
318.2058	0.0936
318.417	0.0826
318.6281	0.0922
318.8391	0.0874
319.0502	0.0909
319.2613	0.0943
319.4723	0.1025
319.6834	0.1002
319.8944	0.091
320.1054	0.1039
320.3164	0.1042
320.5274	0.0922
320.7383	0.0977
320.9493	0.0914
321.1602	0.1132
321.3712	0.0977
321.5821	0.108
321.793	0.1106
322.0039	0.0891
322.2148	0.1025
322.4257	0.1041
322.6365	0.1087
322.8474	0.104
323.0582	0.1001
323.269	0.1025
323.4798	0.1086
323.6906	0.1087
323.9014	0.1027
324.1122	0.1079
324.3229	0.1046
324.5337	0.1084
324.7444	0.0951
324.9551	0.1151
325.1658	0.1029
325.3765	0.1134
325.5872	0.1023
325.7979	0.1033
326.0085	0.1196
326.2192	0.1106
326.4298	0.1099
326.6404	0.1008
326.851	0.1023
327.0616	0.0967
327.2722	0.1074
327.4828	0.1151
327.6933	0.109
327.9039	0.1178
328.1144	0.1151
328.3249	0.1101
328.5354	0.1045
328.7459	0.1203
328.9564	0.0995
329.1669	0.1056
329.3773	0.1025
329.5878	0.1087
329.7982	0.1095
330.0086	0.0983
330.219	0.1177
330.4294	0.0957
330.6398	0.1024
330.8502	0.0938
331.0605	0.1061
331.2708	0.1089
331.4812	0.1079
331.6915	0.0979
331.9018	0.1096
332.1121	0.1046
332.3224	0.1085
332.5326	0.1232
332.7429	0.1063
332.9531	0.1252
333.1633	0.1058
333.3735	0.1121
333.5837	0.1084
333.7939	0.1047
334.0041	0.1233
334.2143	0.1191
334.4244	0.1113
334.6346	0.0922
334.8447	0.1231
335.0548	0.1089
335.2649	0.107
335.475	0.1219
335.685	0.1214
335.8951	0.1264
336.1051	0.1266
336.3152	0.1121
336.5252	0.0993
336.7352	0.1123
336.9452	0.1148
337.1552	0.1161
337.3652	0.1045
337.5751	0.1196
337.7851	0.1223
337.995	0.1079
338.2049	0.1097
338.4148	0.114
338.6247	0.117
338.8346	0.1004
339.0445	0.1076
339.2543	0.1233
339.4642	0.1246
339.674	0.0995
339.8838	0.1049
340.0936	0.1197
340.3034	0.1284
340.5132	0.1269
340.7229	0.1341
340.9327	0.126
341.1424	0.1146
341.3522	0.1245
341.5619	0.1173
341.7716	0.1226
341.9813	0.1179
342.1909	0.129
342.4006	0.1246
342.6102	0.1269
342.8199	0.1254
343.0295	0.126
343.2391	0.1224
343.4487	0.1255
343.6583	0.1287
343.8679	0.1273
344.0774	0.1293
344.287	0.1325
344.4965	0.136
344.706	0.1302
344.9155	0.1187
345.125	0.1328
345.3345	0.135
345.544	0.1298
345.7534	0.1317
345.9629	0.1299
346.1723	0.1244
346.3817	0.1143
346.5911	0.1158
346.8005	0.1385
347.0099	0.124
347.2193	0.1495
347.4286	0.1317
347.638	0.1347
347.8473	0.1449
348.0566	0.1404
348.2659	0.139
348.4752	0.1342
348.6845	0.1328
348.8937	0.1362
349.103	0.1464
349.3122	0.1265
349.5214	0.1427
349.7306	0.1427
349.9398	0.1228
350.149	0.1382
350.3582	0.1387
350.5674	0.1554
350.7765	0.1327
350.9856	0.1431
351.1948	0.1409
351.4039	0.1407
351.613	0.1335
351.822	0.1413
352.0311	0.1401
352.2402	0.149
352.4492	0.1328
352.6582	0.1596
352.8672	0.1465
353.0762	0.1523
353.2852	0.1508
353.4942	0.149
353.7032	0.149
353.9121	0.1513
354.1211	0.1631
354.33	0.1619
354.5389	0.1584
354.7478	0.1542
354.9567	0.154
355.1655	0.1466
355.3744	0.1712
355.5833	0.1678
355.7921	0.1692
356.0009	0.1476
356.2097	0.1693
356.4185	0.1658
356.6273	0.1705
356.8361	0.1665
357.0448	0.1603
357.2536	0.156
357.4623	0.1559
357.671	0.1691
357.8797	0.1586
358.0884	0.1652
358.2971	0.1767
358.5057	0.1711
358.7144	0.174
358.923	0.1654
359.1316	0.1613
359.3402	0.1726
359.5488	0.1769
359.7574	0.1607
359.966	0.1808
360.1746	0.1932
360.3831	0.1903
360.5916	0.1749
360.8002	0.1728
361.0087	0.2005
361.2172	0.1773
361.4256	0.1727
361.6341	0.1859
361.8426	0.1854
362.051	0.1782
362.2594	0.1896
362.4678	0.1734
362.6762	0.2207
362.8846	0.1923
363.093	0.1979
363.3014	0.1914
363.5097	0.1634
363.718	0.1895
363.9264	0.1888
364.1347	0.1724
364.343	0.1987
364.5513	0.199
364.7595	0.2105
364.9678	0.1944
365.176	0.2043
365.3842	0.1935
365.5925	0.1864
365.8007	0.1909
366.0089	0.1907
366.217	0.2011
366.4252	0.2053
366.6333	0.2101
366.8415	0.1955
367.0496	0.1901
367.2577	0.2078
367.4658	0.2387
367.6739	0.204
367.882	0.2149
368.09	0.1998
368.2981	0.2083
368.5061	0.1957
368.7141	0.2252
368.9221	0.2141
369.1301	0.2063
369.3381	0.2019
369.5461	0.1978
369.754	0.2166
369.962	0.2203
370.1699	0.2129
370.3778	0.2164
370.5857	0.2035
370.7936	0.208
371.0015	0.2298
371.2093	0.2061
371.4172	0.2403
371.625	0.2104
371.8328	0.214
372.0406	0.2181
372.2484	0.2006
372.4562	0.2285
372.664	0.2278
372.8717	0.2421
373.0795	0.1941
373.2872	0.2132
373.4949	0.2014
373.7026	0.2415
373.9103	0.2431
374.118	0.2378
374.3256	0.2339
374.5333	0.2305
374.7409	0.2245
374.9485	0.2336
375.1561	0.2271
375.3637	0.2328
375.5713	0.2319
375.7789	0.2384
375.9864	0.2224
376.194	0.2359
376.4015	0.2465
376.609	0.2376
376.8165	0.2245
377.024	0.2258
377.2315	0.2347
377.4389	0.2557
377.6464	0.256
377.8538	0.227
378.0612	0.2402
378.2686	0.2363
378.476	0.2506
378.6834	0.25
378.8908	0.2396
379.0981	0.2483
379.3055	0.2421
379.5128	0.2513
379.7201	0.2597
379.9274	0.2446
380.1347	0.2359
380.342	0.2757
380.5492	0.2474
380.7565	0.2557
380.9637	0.2568
381.1709	0.2488
381.3781	0.2513
381.5853	0.2536
381.7925	0.2642
381.9997	0.2667
382.2068	0.2639
382.4139	0.2515
382.6211	0.251
382.8282	0.2561
383.0353	0.2703
383.2424	0.2445
383.4494	0.2701
383.6565	0.2569
383.8635	0.2561
384.0706	0.2446
384.2776	0.2576
384.4846	0.2353
384.6916	0.2668
384.8986	0.2624
385.1055	0.2514
385.3125	0.2597
385.5194	0.2582
385.7263	0.2686
385.9333	0.2703
386.1402	0.2613
386.347	0.2618
386.5539	0.2414
386.7608	0.2637
386.9676	0.2369
387.1744	0.2616
387.3813	0.2592
387.5881	0.2565
387.7948	0.2493
388.0016	0.2392
388.2084	0.2532
388.4151	0.2263
388.6219	0.2586
388.8286	0.2539
389.0353	0.2542
389.242	0.2436
389.4487	0.2483
389.6553	0.237
389.862	0.2118
390.0686	0.2422
390.2753	0.2622
390.4819	0.2542
390.6885	0.2406
390.8951	0.2436
391.1016	0.2366
391.3082	0.2341
391.5147	0.2303
391.7213	0.2353
391.9278	0.2171
392.1343	0.2168
392.3408	0.2474
392.5473	0.2435
392.7537	0.2132
392.9602	0.2371
393.1666	0.2295
393.373	0.2323
393.5794	0.2491
393.7858	0.2212
393.9922	0.22
394.1986	0.2239
394.4049	0.2191
394.6113	0.2306
394.8176	0.2145
395.0239	0.2198
395.2302	0.2293
395.4365	0.2269
395.6428	0.2141
395.8491	0.1959
396.0553	0.2178
396.2615	0.2108
396.4678	0.2137
396.674	0.2173
396.8802	0.2225
397.0863	0.2402
397.2925	0.2123
397.4987	0.2213
397.7048	0.2129
397.9109	0.2131
398.117	0.1956
398.3231	0.2196
398.5292	0.2307
398.7353	0.2261
398.9413	0.221
399.1474	0.2092
399.3534	0.205
399.5594	0.1954
399.7654	0.2243
399.9714	0.2337
400.1774	0.2067
400.3833	0.2026
400.5893	0.2329
400.7952	0.213
401.0011	0.2159
401.207	0.2169
401.4129	0.2306
401.6188	0.2251
401.8247	0.2068
402.0305	0.2132
402.2364	0.2002
402.4422	0.2239
402.648	0.228
402.8538	0.2155
403.0596	0.2039
403.2654	0.2182
403.4711	0.1986
403.6768	0.2022
403.8826	0.2191
404.0883	0.2176
404.294	0.2091
404.4997	0.2114
404.7054	0.204
404.911	0.2006
405.1167	0.2295
405.3223	0.2289
405.5279	0.225
405.7335	0.2301
405.9391	0.2342
406.1447	0.2159
406.3502	0.2183
406.5558	0.2063
406.7613	0.2235
406.9668	0.2151
407.1724	0.194
407.3778	0.2011
407.5833	0.2057
407.7888	0.2047
407.9942	0.2261
408.1997	0.1922
408.4051	0.2053
408.6105	0.214
408.8159	0.2025
409.0213	0.2034
409.2267	0.2096
409.432	0.1935
409.6374	0.2301
409.8427	0.2103
410.048	0.2221
410.2533	0.2092
410.4586	0.2158
410.6639	0.2019
410.8691	0.2056
411.0744	0.2196
411.2796	0.1959
411.4848	0.2129
411.69	0.2129
411.8952	0.2226
412.1004	0.1853
412.3056	0.2064
412.5107	0.1983
412.7158	0.2153
412.921	0.2237
413.1261	0.2059
413.3312	0.209
413.5362	0.1837
413.7413	0.196
413.9464	0.2068
414.1514	0.2112
414.3564	0.2068
414.5614	0.1975
414.7664	0.1999
414.9714	0.2175
415.1764	0.2051
415.3813	0.2275
415.5863	0.2001
415.7912	0.2075
415.9961	0.2316
416.201	0.1963
416.4059	0.2113
416.6108	0.2079
416.8156	0.2089
417.0205	0.2052
417.2253	0.1855
417.4301	0.2006
417.6349	0.1944
417.8397	0.189
418.0445	0.2202
418.2492	0.221
418.454	0.1937
418.6587	0.2116
418.8634	0.2026
419.0681	0.1922
419.2728	0.1781
419.4775	0.2001
419.6822	0.1816
419.8868	0.1783
420.0915	0.191
420.2961	0.1885
420.5007	0.1935
420.7053	0.1846
420.9099	0.185
421.1144	0.1888
421.319	0.1996
421.5235	0.191
421.728	0.1958
421.9325	0.1916
422.137	0.1952
422.3415	0.1821
422.546	0.1843
422.7504	0.1857
422.9549	0.1883
423.1593	0.1853
423.3637	0.1946
423.5681	0.1775
423.7725	0.1766
423.9769	0.1712
424.1812	0.1773
424.3856	0.1697
424.5899	0.1824
424.7942	0.1681
424.9985	0.1839
425.2028	0.1712
425.4071	0.2028
425.6113	0.1623
425.8156	0.1706
426.0198	0.1782
426.224	0.1528
426.4282	0.1699
426.6324	0.1624
