Data from MonoPyChalIsomerACN10uM350nmA_Absorbance_14-35-33-715.txt Node
Date: Fri Jul 05 14:35:33 BST 2024
User: LASERRRRR
Spectrometer: FLMT03099
Trigger mode: 0
Integration Time (sec): 1.000000E-1
Scans to average: 1
Electric dark correction enabled: true
Nonlinearity correction enabled: false
Boxcar width: 0
XAxis mode: Wavelengths
Number of Pixels in Spectrum: 3648
>>>>>Begin Spectral Data<<<<<
179.3399	-0.336
179.5586	-0.336
179.7771	-0.336
179.9957	-0
180.2143	-0.4102
180.4329	0.1967
180.6514	1.3028
180.8699	0.4214
181.0885	-0.1785
181.307	0.086
181.5255	-0
181.744	-0
181.9625	-0
182.181	-0.7056
182.3994	1.1008
182.6179	-0
182.8363	-0.0834
183.0547	-0.0914
183.2732	0.0047
183.4916	-0.008
183.71	-0.0612
183.9284	0.5094
184.1467	-0.2295
184.3651	-0.0445
184.5835	0.1379
184.8018	0.9275
185.0201	0.0008
185.2385	-0.0382
185.4568	0.1864
185.6751	0.0979
185.8934	0.2907
186.1117	-0.0872
186.3299	0.0117
186.5482	0.1125
186.7664	-0.0402
186.9847	-0.0668
187.2029	0.0138
187.4211	-0.0026
187.6393	0.2426
187.8575	-0.0495
188.0757	0.3133
188.2939	0.0456
188.512	-0.0221
188.7302	0.0441
188.9483	0.0207
189.1665	0.2285
189.3846	-0.2298
189.6027	0.0675
189.8208	0.2689
190.0389	0.1168
190.257	0.1004
190.475	0.0797
190.6931	0.1832
190.9111	0.3505
191.1292	0.2035
191.3472	0.5102
191.5652	0.2571
191.7832	0.2067
192.0012	0.3563
192.2192	0.3805
192.4371	0.6347
192.6551	0.2434
192.873	0.5158
193.091	0.319
193.3089	0.5444
193.5268	0.3504
193.7447	0.4278
193.9626	0.3916
194.1805	0.4158
194.3984	0.5576
194.6162	0.5895
194.8341	0.6468
195.0519	0.5459
195.2697	0.9754
195.4875	0.654
195.7054	0.6587
195.9231	0.4877
196.1409	0.4873
196.3587	0.5891
196.5765	0.889
196.7942	0.5353
197.012	0.5338
197.2297	0.5047
197.4474	0.691
197.6651	0.5715
197.8828	0.6618
198.1005	0.5632
198.3182	0.7119
198.5358	0.8581
198.7535	0.6632
198.9711	0.5354
199.1888	0.5845
199.4064	0.7237
199.624	0.6493
199.8416	0.5799
200.0592	0.6677
200.2767	0.6035
200.4943	0.5882
200.7119	0.701
200.9294	0.7526
201.1469	0.6257
201.3645	0.6272
201.582	0.5602
201.7995	0.7091
202.017	0.6344
202.2344	0.5931
202.4519	0.5833
202.6694	0.6045
202.8868	0.5567
203.1042	0.7862
203.3217	0.7088
203.5391	0.6676
203.7565	0.565
203.9739	0.5792
204.1913	0.5659
204.4086	0.5918
204.626	0.6907
204.8433	0.5967
205.0607	0.5715
205.278	0.6986
205.4953	0.5983
205.7126	0.6558
205.9299	0.6544
206.1472	0.7569
206.3644	0.5579
206.5817	0.732
206.7989	0.7707
207.0162	0.6361
207.2334	0.6691
207.4506	0.6863
207.6678	0.6324
207.885	0.7055
208.1022	0.6597
208.3194	0.6242
208.5365	0.6501
208.7537	0.6734
208.9708	0.579
209.1879	0.6958
209.405	0.6359
209.6222	0.623
209.8392	0.6533
210.0563	0.566
210.2734	0.6209
210.4905	0.6406
210.7075	0.6011
210.9245	0.5798
211.1416	0.6892
211.3586	0.6229
211.5756	0.6298
211.7926	0.6133
212.0096	0.6214
212.2265	0.4859
212.4435	0.5344
212.6604	0.683
212.8774	0.5614
213.0943	0.5724
213.3112	0.5376
213.5281	0.5387
213.745	0.5079
213.9619	0.5078
214.1788	0.5144
214.3956	0.4206
214.6125	0.4258
214.8293	0.4357
215.0461	0.4862
215.2629	0.4339
215.4798	0.4579
215.6965	0.4231
215.9133	0.4408
216.1301	0.4425
216.3469	0.3988
216.5636	0.4381
216.7803	0.4121
216.9971	0.4244
217.2138	0.3898
217.4305	0.3953
217.6472	0.3502
217.8639	0.3634
218.0805	0.3236
218.2972	0.3262
218.5138	0.3241
218.7305	0.2794
218.9471	0.2882
219.1637	0.2772
219.3803	0.2627
219.5969	0.2893
219.8135	0.2524
220.0301	0.2601
220.2466	0.2826
220.4632	0.2587
220.6797	0.2416
220.8962	0.236
221.1127	0.2538
221.3292	0.2665
221.5457	0.2625
221.7622	0.2235
221.9787	0.2586
222.1951	0.2442
222.4116	0.2671
222.628	0.2506
222.8444	0.2636
223.0608	0.2563
223.2772	0.244
223.4936	0.258
223.71	0.245
223.9264	0.2605
224.1427	0.2378
224.3591	0.2353
224.5754	0.2586
224.7917	0.2437
225.008	0.2682
225.2243	0.2492
225.4406	0.2962
225.6569	0.2653
225.8732	0.2569
226.0894	0.2666
226.3057	0.2814
226.5219	0.2823
226.7381	0.2653
226.9543	0.2847
227.1705	0.2864
227.3867	0.2817
227.6029	0.2766
227.8191	0.3032
228.0352	0.2966
228.2513	0.3039
228.4675	0.3078
228.6836	0.2896
228.8997	0.2892
229.1158	0.304
229.3319	0.3023
229.548	0.3152
229.764	0.3421
229.9801	0.3186
230.1961	0.3183
230.4121	0.3397
230.6282	0.3277
230.8442	0.3173
231.0602	0.3489
231.2761	0.3433
231.4921	0.334
231.7081	0.3424
231.924	0.3463
232.14	0.3661
232.3559	0.3309
232.5718	0.3645
232.7877	0.3815
233.0036	0.3491
233.2195	0.3457
233.4353	0.3652
233.6512	0.3572
233.867	0.3769
234.0829	0.3373
234.2987	0.3747
234.5145	0.3798
234.7303	0.3664
234.9461	0.4001
235.1619	0.3821
235.3776	0.3804
235.5934	0.3728
235.8091	0.3674
236.0249	0.367
236.2406	0.3861
236.4563	0.383
236.672	0.4041
236.8877	0.4022
237.1034	0.4009
237.319	0.403
237.5347	0.3985
237.7503	0.3842
237.966	0.408
238.1816	0.4037
238.3972	0.4215
238.6128	0.3969
238.8284	0.4007
239.0439	0.404
239.2595	0.4033
239.475	0.4191
239.6906	0.4069
239.9061	0.4075
240.1216	0.4172
240.3371	0.4098
240.5526	0.3943
240.7681	0.4122
240.9836	0.3766
241.199	0.4117
241.4145	0.3742
241.6299	0.3744
241.8453	0.3759
242.0607	0.373
242.2761	0.3747
242.4915	0.3653
242.7069	0.3638
242.9223	0.3539
243.1376	0.3384
243.353	0.3471
243.5683	0.3507
243.7836	0.3192
243.9989	0.3149
244.2142	0.3026
244.4295	0.3046
244.6448	0.2975
244.86	0.2972
245.0753	0.2824
245.2905	0.2802
245.5057	0.2689
245.721	0.262
245.9362	0.2744
246.1514	0.2786
246.3665	0.2518
246.5817	0.2427
246.7969	0.2456
247.012	0.2339
247.2271	0.2328
247.4423	0.244
247.6574	0.2441
247.8725	0.223
248.0876	0.2157
248.3026	0.2327
248.5177	0.2135
248.7328	0.2081
248.9478	0.2165
249.1628	0.2062
249.3779	0.2125
249.5929	0.2049
249.8079	0.2167
250.0228	0.2028
250.2378	0.1932
250.4528	0.201
250.6677	0.185
250.8827	0.1881
251.0976	0.1766
251.3125	0.1998
251.5274	0.1662
251.7423	0.1832
251.9572	0.1878
252.172	0.1798
252.3869	0.176
252.6017	0.1752
252.8166	0.1685
253.0314	0.1593
253.2462	0.1709
253.461	0.1715
253.6758	0.1562
253.8906	0.1818
254.1053	0.166
254.3201	0.171
254.5348	0.1821
254.7496	0.18
254.9643	0.1703
255.179	0.1631
255.3937	0.163
255.6083	0.1759
255.823	0.1697
256.0377	0.1622
256.2523	0.1662
256.467	0.1499
256.6816	0.1755
256.8962	0.1765
257.1108	0.1586
257.3254	0.1777
257.54	0.1525
257.7545	0.1676
257.9691	0.1713
258.1836	0.1596
258.3981	0.1787
258.6127	0.1745
258.8272	0.1603
259.0417	0.1539
259.2561	0.1682
259.4706	0.1726
259.6851	0.1647
259.8995	0.164
260.114	0.1673
260.3284	0.1588
260.5428	0.1655
260.7572	0.1792
260.9716	0.1565
261.186	0.1492
261.4003	0.1706
261.6147	0.1605
261.829	0.1679
262.0433	0.1607
262.2577	0.1533
262.472	0.1603
262.6863	0.1529
262.9005	0.1632
263.1148	0.1596
263.3291	0.1535
263.5433	0.1549
263.7576	0.1576
263.9718	0.1629
264.186	0.1578
264.4002	0.1751
264.6144	0.1659
264.8286	0.1753
265.0427	0.1769
265.2569	0.1625
265.471	0.1539
265.6851	0.152
265.8993	0.1477
266.1134	0.1548
266.3275	0.1482
266.5415	0.1558
266.7556	0.1638
266.9697	0.1583
267.1837	0.1602
267.3978	0.1518
267.6118	0.1674
267.8258	0.1665
268.0398	0.1479
268.2538	0.1621
268.4677	0.1593
268.6817	0.1602
268.8957	0.1597
269.1096	0.1508
269.3235	0.1538
269.5374	0.148
269.7514	0.1479
269.9652	0.1516
270.1791	0.1411
270.393	0.1414
270.6068	0.147
270.8207	0.1418
271.0345	0.1414
271.2483	0.1546
271.4622	0.144
271.676	0.1582
271.8897	0.1339
272.1035	0.1396
272.3173	0.1379
272.531	0.1479
272.7448	0.1401
272.9585	0.1288
273.1722	0.1424
273.3859	0.1432
273.5996	0.1298
273.8133	0.1387
274.0269	0.1336
274.2406	0.1204
274.4542	0.1359
274.6679	0.1287
274.8815	0.1276
275.0951	0.1436
275.3087	0.1455
275.5223	0.1422
275.7358	0.1495
275.9494	0.1407
276.1629	0.1264
276.3765	0.1271
276.59	0.1404
276.8035	0.1433
277.017	0.1377
277.2305	0.14
277.444	0.1393
277.6574	0.1358
277.8709	0.1455
278.0843	0.1334
278.2978	0.1345
278.5112	0.1369
278.7246	0.1283
278.938	0.1534
279.1513	0.1413
279.3647	0.1557
279.5781	0.1471
279.7914	0.1337
280.0047	0.15
280.2181	0.1392
280.4314	0.1562
280.6447	0.1515
280.8579	0.1535
281.0712	0.1575
281.2845	0.1438
281.4977	0.1485
281.711	0.1325
281.9242	0.1446
282.1374	0.1471
282.3506	0.1435
282.5638	0.1569
282.7769	0.1553
282.9901	0.1485
283.2033	0.1613
283.4164	0.1504
283.6295	0.1433
283.8426	0.1554
284.0557	0.1539
284.2688	0.1565
284.4819	0.1597
284.695	0.1562
284.908	0.1559
285.1211	0.1547
285.3341	0.1517
285.5471	0.1596
285.7601	0.1577
285.9731	0.1444
286.1861	0.1534
286.3991	0.1592
286.612	0.1585
286.825	0.1541
287.0379	0.1711
287.2508	0.1523
287.4637	0.1646
287.6766	0.1581
287.8895	0.1665
288.1024	0.1765
288.3152	0.163
288.5281	0.1499
288.7409	0.1533
288.9538	0.1532
289.1666	0.1455
289.3794	0.1532
289.5922	0.1575
289.8049	0.1742
290.0177	0.1714
290.2304	0.1675
290.4432	0.1701
290.6559	0.1687
290.8686	0.1698
291.0813	0.1687
291.294	0.1699
291.5067	0.1777
291.7194	0.17
291.932	0.1734
292.1447	0.1686
292.3573	0.1605
292.5699	0.1589
292.7825	0.1676
292.9951	0.1588
293.2077	0.1731
293.4203	0.1609
293.6328	0.1561
293.8454	0.1772
294.0579	0.171
294.2704	0.1636
294.4829	0.1717
294.6954	0.1706
294.9079	0.1732
295.1204	0.1627
295.3328	0.1679
295.5453	0.165
295.7577	0.167
295.9701	0.1563
296.1825	0.1745
296.3949	0.1578
296.6073	0.156
296.8197	0.1549
297.0321	0.1698
297.2444	0.1533
297.4567	0.174
297.6691	0.1605
297.8814	0.1563
298.0937	0.1599
298.306	0.1762
298.5182	0.1543
298.7305	0.1694
298.9428	0.1633
299.155	0.1696
299.3672	0.1567
299.5794	0.1565
299.7916	0.1616
300.0038	0.1654
300.216	0.1669
300.4282	0.1673
300.6403	0.1683
300.8525	0.1716
301.0646	0.1568
301.2767	0.1636
301.4888	0.1713
301.7009	0.1599
301.913	0.1661
302.125	0.1679
302.3371	0.1606
302.5491	0.1624
302.7612	0.1685
302.9732	0.1719
303.1852	0.1734
303.3972	0.1624
303.6092	0.1524
303.8211	0.1537
304.0331	0.1558
304.245	0.1453
304.457	0.1689
304.6689	0.1625
304.8808	0.1674
305.0927	0.1477
305.3046	0.1554
305.5164	0.1617
305.7283	0.1551
305.9401	0.1558
306.152	0.1541
306.3638	0.1551
306.5756	0.1535
306.7874	0.1582
306.9992	0.1491
307.2109	0.1342
307.4227	0.1329
307.6344	0.142
307.8462	0.1405
308.0579	0.1355
308.2696	0.1379
308.4813	0.1313
308.693	0.1281
308.9046	0.1382
309.1163	0.1193
309.328	0.1249
309.5396	0.115
309.7512	0.1202
309.9628	0.1216
310.1744	0.1159
310.386	0.1158
310.5976	0.1142
310.8091	0.1173
311.0207	0.1104
311.2322	0.1209
311.4437	0.1125
311.6552	0.1103
311.8667	0.1194
312.0782	0.1022
312.2897	0.0934
312.5012	0.106
312.7126	0.1032
312.924	0.1014
313.1355	0.1217
313.3469	0.1019
313.5583	0.1069
313.7696	0.1096
313.981	0.1119
314.1924	0.1036
314.4037	0.095
314.6151	0.1055
314.8264	0.1026
315.0377	0.1014
315.249	0.1075
315.4603	0.1078
315.6716	0.1046
315.8828	0.0938
316.0941	0.0994
316.3053	0.0942
316.5165	0.0899
316.7277	0.0847
316.9389	0.1062
317.1501	0.0896
317.3613	0.0967
317.5724	0.083
317.7836	0.0964
317.9947	0.0815
318.2058	0.1002
318.417	0.0811
318.6281	0.0853
318.8391	0.09
319.0502	0.0975
319.2613	0.0997
319.4723	0.1028
319.6834	0.1005
319.8944	0.0941
320.1054	0.0974
320.3164	0.1031
320.5274	0.0881
320.7383	0.0978
320.9493	0.1014
321.1602	0.1042
321.3712	0.0849
321.5821	0.1031
321.793	0.0924
322.0039	0.1003
322.2148	0.0912
322.4257	0.1002
322.6365	0.109
322.8474	0.0933
323.0582	0.1023
323.269	0.1047
323.4798	0.1049
323.6906	0.1008
323.9014	0.0944
324.1122	0.1038
324.3229	0.0959
324.5337	0.1052
324.7444	0.0918
324.9551	0.1044
325.1658	0.0958
325.3765	0.1032
325.5872	0.0959
325.7979	0.0939
326.0085	0.1021
326.2192	0.1045
326.4298	0.0972
326.6404	0.0919
326.851	0.0941
327.0616	0.0916
327.2722	0.1055
327.4828	0.1066
327.6933	0.0969
327.9039	0.0988
328.1144	0.1081
328.3249	0.1023
328.5354	0.0888
328.7459	0.0911
328.9564	0.0877
329.1669	0.1004
329.3773	0.1004
329.5878	0.0943
329.7982	0.0968
330.0086	0.1083
330.219	0.0977
330.4294	0.0931
330.6398	0.0955
330.8502	0.1036
331.0605	0.1039
331.2708	0.0986
331.4812	0.1016
331.6915	0.1085
331.9018	0.0927
332.1121	0.0983
332.3224	0.1057
332.5326	0.1183
332.7429	0.1004
332.9531	0.1127
333.1633	0.1079
333.3735	0.1213
333.5837	0.1022
333.7939	0.0946
334.0041	0.1212
334.2143	0.1028
334.4244	0.108
334.6346	0.0947
334.8447	0.112
335.0548	0.0995
335.2649	0.1013
335.475	0.1087
335.685	0.1067
335.8951	0.1109
336.1051	0.0986
336.3152	0.1057
336.5252	0.087
336.7352	0.1068
336.9452	0.1153
337.1552	0.1018
337.3652	0.092
337.5751	0.1022
337.7851	0.1051
337.995	0.0978
338.2049	0.1124
338.4148	0.1103
338.6247	0.1105
338.8346	0.1002
339.0445	0.104
339.2543	0.1032
339.4642	0.1124
339.674	0.1062
339.8838	0.1077
340.0936	0.1044
340.3034	0.1246
340.5132	0.1223
340.7229	0.1268
340.9327	0.1059
341.1424	0.117
341.3522	0.1213
341.5619	0.1192
341.7716	0.1232
341.9813	0.1219
342.1909	0.1078
342.4006	0.1299
342.6102	0.1265
342.8199	0.1215
343.0295	0.1219
343.2391	0.1225
343.4487	0.1204
343.6583	0.1161
343.8679	0.1235
344.0774	0.1302
344.287	0.1369
344.4965	0.1145
344.706	0.128
344.9155	0.1192
345.125	0.12
345.3345	0.1313
345.544	0.1173
345.7534	0.1266
345.9629	0.1284
346.1723	0.128
346.3817	0.1289
346.5911	0.1238
346.8005	0.1355
347.0099	0.1308
347.2193	0.1335
347.4286	0.1169
347.638	0.1403
347.8473	0.122
348.0566	0.1286
348.2659	0.1319
348.4752	0.1276
348.6845	0.1388
348.8937	0.1356
349.103	0.1299
349.3122	0.1184
349.5214	0.1277
349.7306	0.1337
349.9398	0.1317
350.149	0.1323
350.3582	0.1261
350.5674	0.153
350.7765	0.1515
350.9856	0.1377
351.1948	0.1384
351.4039	0.1244
351.613	0.1302
351.822	0.1346
352.0311	0.1503
352.2402	0.1434
352.4492	0.1433
352.6582	0.1354
352.8672	0.1551
353.0762	0.147
353.2852	0.1639
353.4942	0.1382
353.7032	0.1463
353.9121	0.1522
354.1211	0.1536
354.33	0.1394
354.5389	0.1472
354.7478	0.1505
354.9567	0.147
355.1655	0.1287
355.3744	0.1553
355.5833	0.1638
355.7921	0.1699
356.0009	0.1502
356.2097	0.1721
356.4185	0.1638
356.6273	0.1546
356.8361	0.1671
357.0448	0.1599
357.2536	0.1434
357.4623	0.1562
357.671	0.152
357.8797	0.1572
358.0884	0.1594
358.2971	0.1599
358.5057	0.1685
358.7144	0.1627
358.923	0.167
359.1316	0.1678
359.3402	0.1631
359.5488	0.1621
359.7574	0.1608
359.966	0.1844
360.1746	0.1737
360.3831	0.1822
360.5916	0.173
360.8002	0.1633
361.0087	0.1921
361.2172	0.1794
361.4256	0.1863
361.6341	0.1928
361.8426	0.1795
362.051	0.187
362.2594	0.1693
362.4678	0.1807
362.6762	0.1939
362.8846	0.1822
363.093	0.1719
363.3014	0.1814
363.5097	0.1682
363.718	0.1809
363.9264	0.1898
364.1347	0.1972
364.343	0.1979
364.5513	0.195
364.7595	0.2107
364.9678	0.186
365.176	0.2005
365.3842	0.1953
365.5925	0.2032
365.8007	0.1956
366.0089	0.2021
366.217	0.1905
366.4252	0.2135
366.6333	0.2133
366.8415	0.203
367.0496	0.1913
367.2577	0.2098
367.4658	0.2218
367.6739	0.2159
367.882	0.2099
368.09	0.1951
368.2981	0.2145
368.5061	0.1998
368.7141	0.2203
368.9221	0.2207
369.1301	0.2245
369.3381	0.2053
369.5461	0.2272
369.754	0.2209
369.962	0.2361
370.1699	0.2264
370.3778	0.2223
370.5857	0.2101
370.7936	0.2224
371.0015	0.2222
371.2093	0.2368
371.4172	0.2357
371.625	0.2248
371.8328	0.2264
372.0406	0.2277
372.2484	0.2339
372.4562	0.2322
372.664	0.2297
372.8717	0.2421
373.0795	0.2082
373.2872	0.2305
373.4949	0.2227
373.7026	0.2202
373.9103	0.2487
374.118	0.2345
374.3256	0.2456
374.5333	0.2271
374.7409	0.2405
374.9485	0.2467
375.1561	0.2357
375.3637	0.2373
375.5713	0.2533
375.7789	0.2491
375.9864	0.2382
376.194	0.2345
376.4015	0.2438
376.609	0.2646
376.8165	0.2548
377.024	0.2416
377.2315	0.2429
377.4389	0.2629
377.6464	0.2522
377.8538	0.2665
378.0612	0.2513
378.2686	0.2573
378.476	0.255
378.6834	0.2529
378.8908	0.2411
379.0981	0.2532
379.3055	0.2761
379.5128	0.2556
379.7201	0.2459
379.9274	0.2265
380.1347	0.2618
380.342	0.2647
380.5492	0.257
380.7565	0.2606
380.9637	0.2621
381.1709	0.2508
381.3781	0.2623
381.5853	0.2726
381.7925	0.2784
381.9997	0.2571
382.2068	0.2677
382.4139	0.2608
382.6211	0.253
382.8282	0.2699
383.0353	0.2681
383.2424	0.2605
383.4494	0.2807
383.6565	0.2474
383.8635	0.2785
384.0706	0.2749
384.2776	0.2488
384.4846	0.2741
384.6916	0.2717
384.8986	0.2656
385.1055	0.2694
385.3125	0.2603
385.5194	0.2571
385.7263	0.269
385.9333	0.2771
386.1402	0.259
386.347	0.2741
386.5539	0.2428
386.7608	0.2758
386.9676	0.2392
387.1744	0.2783
387.3813	0.2511
387.5881	0.2577
387.7948	0.2552
388.0016	0.2527
388.2084	0.2737
388.4151	0.258
388.6219	0.2618
388.8286	0.2571
389.0353	0.2655
389.242	0.2637
389.4487	0.2598
389.6553	0.2455
389.862	0.2437
390.0686	0.2535
390.2753	0.2782
390.4819	0.2623
390.6885	0.2475
390.8951	0.253
391.1016	0.2428
391.3082	0.2582
391.5147	0.264
391.7213	0.2442
391.9278	0.2427
392.1343	0.2397
392.3408	0.2492
392.5473	0.25
392.7537	0.2512
392.9602	0.2415
393.1666	0.2431
393.373	0.2404
393.5794	0.2589
393.7858	0.2451
393.9922	0.2271
394.1986	0.2442
394.4049	0.2499
394.6113	0.2292
394.8176	0.2186
395.0239	0.2338
395.2302	0.2156
395.4365	0.2315
395.6428	0.2315
395.8491	0.2164
396.0553	0.2241
396.2615	0.2303
396.4678	0.2311
396.674	0.2063
396.8802	0.2224
397.0863	0.2465
397.2925	0.23
397.4987	0.2186
397.7048	0.2088
397.9109	0.2307
398.117	0.2285
398.3231	0.1984
398.5292	0.2258
398.7353	0.2205
398.9413	0.2226
399.1474	0.2229
399.3534	0.2094
399.5594	0.2072
399.7654	0.2336
399.9714	0.2477
400.1774	0.214
400.3833	0.2152
400.5893	0.2141
400.7952	0.2237
401.0011	0.2388
401.207	0.2249
401.4129	0.2286
401.6188	0.2241
401.8247	0.2217
402.0305	0.2233
402.2364	0.2341
402.4422	0.2299
402.648	0.2314
402.8538	0.2289
403.0596	0.2124
403.2654	0.2209
403.4711	0.2343
403.6768	0.2271
403.8826	0.2267
404.0883	0.2316
404.294	0.2354
404.4997	0.2357
404.7054	0.2206
404.911	0.2191
405.1167	0.2271
405.3223	0.227
405.5279	0.2349
405.7335	0.2268
405.9391	0.245
406.1447	0.233
406.3502	0.2274
406.5558	0.2186
406.7613	0.2237
406.9668	0.2176
407.1724	0.2267
407.3778	0.2303
407.5833	0.221
407.7888	0.2161
407.9942	0.24
408.1997	0.2215
408.4051	0.2118
408.6105	0.2358
408.8159	0.2244
409.0213	0.2176
409.2267	0.2504
409.432	0.2186
409.6374	0.2199
409.8427	0.2047
410.048	0.2226
410.2533	0.2122
410.4586	0.2115
410.6639	0.2019
410.8691	0.2114
411.0744	0.2281
411.2796	0.212
411.4848	0.2119
411.69	0.2093
411.8952	0.2221
412.1004	0.2072
412.3056	0.2376
412.5107	0.2221
412.7158	0.2346
412.921	0.2118
413.1261	0.2179
413.3312	0.207
413.5362	0.2142
413.7413	0.2201
413.9464	0.2117
414.1514	0.227
414.3564	0.1911
414.5614	0.2001
414.7664	0.2213
414.9714	0.2376
415.1764	0.2206
415.3813	0.2317
415.5863	0.2109
415.7912	0.2125
415.9961	0.2142
416.201	0.2179
416.4059	0.2328
416.6108	0.2047
416.8156	0.2174
417.0205	0.2112
417.2253	0.2091
417.4301	0.217
417.6349	0.2043
417.8397	0.1947
418.0445	0.2125
418.2492	0.2241
418.454	0.1937
418.6587	0.2142
418.8634	0.1951
419.0681	0.1985
419.2728	0.187
419.4775	0.1961
419.6822	0.1943
419.8868	0.1937
420.0915	0.2004
420.2961	0.165
420.5007	0.2093
420.7053	0.1905
420.9099	0.2043
421.1144	0.2044
421.319	0.1981
421.5235	0.2041
421.728	0.2036
421.9325	0.2032
422.137	0.2101
422.3415	0.1904
422.546	0.1906
422.7504	0.2111
422.9549	0.1881
423.1593	0.1897
423.3637	0.2049
423.5681	0.1962
423.7725	0.1735
423.9769	0.176
424.1812	0.175
424.3856	0.1928
424.5899	0.2028
424.7942	0.1981
424.9985	0.1912
425.2028	0.1772
425.4071	0.2056
425.6113	0.1742
425.8156	0.1881
426.0198	0.1902
426.224	0.165
