Data from MonoPyChalIsomerACN10uM350nmA_Absorbance_14-35-32-015.txt Node
Date: Fri Jul 05 14:35:32 BST 2024
User: LASERRRRR
Spectrometer: FLMT03099
Trigger mode: 0
Integration Time (sec): 1.000000E-1
Scans to average: 1
Electric dark correction enabled: true
Nonlinearity correction enabled: false
Boxcar width: 0
XAxis mode: Wavelengths
Number of Pixels in Spectrum: 3648
>>>>>Begin Spectral Data<<<<<
179.3399	-0.0056
179.5586	-0.0056
179.7771	-0.0056
179.9957	-0.1398
180.2143	1.0414
180.4329	0.0236
180.6514	-0
180.8699	-0
181.0885	-0
181.307	-0.0046
181.5255	-0
181.744	-0
181.9625	0.9345
182.181	-0
182.3994	0.1601
182.6179	-0
182.8363	0.1285
183.0547	0.19
183.2732	0.229
183.4916	-0.0285
183.71	0.0424
183.9284	0.104
184.1467	-0.1888
184.3651	-0.1114
184.5835	0.0153
184.8018	0.1196
185.0201	0.082
185.2385	-0.0602
185.4568	0.2759
185.6751	0.0446
185.8934	0.0567
186.1117	0.0615
186.3299	0.1579
186.5482	-0.0288
186.7664	-0.0125
186.9847	-0.0336
187.2029	-0.0054
187.4211	0.1209
187.6393	0.0464
187.8575	0.002
188.0757	0.3516
188.2939	0.4049
188.512	0.4363
188.7302	-0.0784
188.9483	0.2018
189.1665	0.2042
189.3846	0.1564
189.6027	0.1673
189.8208	0.2065
190.0389	0.0915
190.257	0.0548
190.475	0.0965
190.6931	0.2774
190.9111	0.3854
191.1292	0.2042
191.3472	0.446
191.5652	0.3555
191.7832	0.3024
192.0012	0.8167
192.2192	0.2623
192.4371	0.501
192.6551	0.3147
192.873	0.5519
193.091	0.4448
193.3089	0.7186
193.5268	0.7574
193.7447	0.6342
193.9626	0.4924
194.1805	0.6553
194.3984	1.2026
194.6162	0.7849
194.8341	0.4952
195.0519	0.5019
195.2697	0.6634
195.4875	0.6713
195.7054	0.6644
195.9231	0.5751
196.1409	0.6255
196.3587	0.7524
196.5765	0.4696
196.7942	0.5794
197.012	0.6244
197.2297	0.6864
197.4474	0.6969
197.6651	0.5425
197.8828	0.5944
198.1005	0.6129
198.3182	0.6444
198.5358	0.6772
198.7535	0.626
198.9711	0.5021
199.1888	0.6449
199.4064	0.6568
199.624	0.6287
199.8416	0.5489
200.0592	0.6114
200.2767	0.7844
200.4943	0.5111
200.7119	0.735
200.9294	0.6703
201.1469	0.5674
201.3645	0.5922
201.582	0.6038
201.7995	0.5948
202.017	0.7572
202.2344	0.6213
202.4519	0.8131
202.6694	0.6319
202.8868	0.6378
203.1042	0.7202
203.3217	0.8442
203.5391	0.5841
203.7565	0.598
203.9739	0.7456
204.1913	0.5716
204.4086	0.664
204.626	0.6476
204.8433	0.6429
205.0607	0.5395
205.278	0.6821
205.4953	0.6575
205.7126	0.64
205.9299	0.7246
206.1472	0.6745
206.3644	0.5977
206.5817	0.7707
206.7989	0.6653
207.0162	0.7363
207.2334	0.6656
207.4506	0.6295
207.6678	0.6514
207.885	0.6556
208.1022	0.6776
208.3194	0.7152
208.5365	0.6657
208.7537	0.5695
208.9708	0.574
209.1879	0.7144
209.405	0.6511
209.6222	0.7206
209.8392	0.6031
210.0563	0.5904
210.2734	0.6506
210.4905	0.5768
210.7075	0.6433
210.9245	0.6059
211.1416	0.6944
211.3586	0.6205
211.5756	0.5554
211.7926	0.5691
212.0096	0.6305
212.2265	0.5413
212.4435	0.5648
212.6604	0.5756
212.8774	0.5658
213.0943	0.5756
213.3112	0.5034
213.5281	0.5165
213.745	0.5133
213.9619	0.5134
214.1788	0.4392
214.3956	0.4828
214.6125	0.4722
214.8293	0.4503
215.0461	0.4271
215.2629	0.4637
215.4798	0.4511
215.6965	0.4138
215.9133	0.4437
216.1301	0.4128
216.3469	0.4355
216.5636	0.4243
216.7803	0.3901
216.9971	0.4073
217.2138	0.4103
217.4305	0.3892
217.6472	0.3675
217.8639	0.3766
218.0805	0.3346
218.2972	0.3515
218.5138	0.3125
218.7305	0.3217
218.9471	0.3052
219.1637	0.2985
219.3803	0.281
219.5969	0.277
219.8135	0.2596
220.0301	0.2627
220.2466	0.2886
220.4632	0.2701
220.6797	0.2314
220.8962	0.269
221.1127	0.2782
221.3292	0.237
221.5457	0.2383
221.7622	0.2325
221.9787	0.2629
222.1951	0.2437
222.4116	0.2739
222.628	0.2574
222.8444	0.2573
223.0608	0.252
223.2772	0.2594
223.4936	0.2513
223.71	0.2475
223.9264	0.2621
224.1427	0.2491
224.3591	0.2416
224.5754	0.2712
224.7917	0.2669
225.008	0.2559
225.2243	0.2467
225.4406	0.2737
225.6569	0.2628
225.8732	0.2684
226.0894	0.262
226.3057	0.2595
226.5219	0.2863
226.7381	0.2514
226.9543	0.2824
227.1705	0.2882
227.3867	0.2801
227.6029	0.2948
227.8191	0.2943
228.0352	0.2827
228.2513	0.3118
228.4675	0.3053
228.6836	0.2934
228.8997	0.2851
229.1158	0.3258
229.3319	0.3243
229.548	0.3084
229.764	0.322
229.9801	0.312
230.1961	0.3378
230.4121	0.3489
230.6282	0.3359
230.8442	0.3247
231.0602	0.3603
231.2761	0.3473
231.4921	0.3379
231.7081	0.3529
231.924	0.3539
232.14	0.3706
232.3559	0.3315
232.5718	0.3608
232.7877	0.3523
233.0036	0.3457
233.2195	0.3389
233.4353	0.3625
233.6512	0.358
233.867	0.3546
234.0829	0.3571
234.2987	0.3557
234.5145	0.3752
234.7303	0.3721
234.9461	0.372
235.1619	0.3716
235.3776	0.364
235.5934	0.3666
235.8091	0.3653
236.0249	0.3941
236.2406	0.3887
236.4563	0.3794
236.672	0.3936
236.8877	0.4148
237.1034	0.4062
237.319	0.3806
237.5347	0.3983
237.7503	0.3944
237.966	0.4102
238.1816	0.4126
238.3972	0.429
238.6128	0.3977
238.8284	0.4163
239.0439	0.392
239.2595	0.3931
239.475	0.4064
239.6906	0.4128
239.9061	0.4078
240.1216	0.4027
240.3371	0.4128
240.5526	0.3979
240.7681	0.4053
240.9836	0.3656
241.199	0.397
241.4145	0.3832
241.6299	0.3924
241.8453	0.3681
242.0607	0.3788
242.2761	0.336
242.4915	0.3714
242.7069	0.3687
242.9223	0.3382
243.1376	0.3393
243.353	0.329
243.5683	0.3332
243.7836	0.317
243.9989	0.3149
244.2142	0.2859
244.4295	0.3149
244.6448	0.3037
244.86	0.2821
245.0753	0.283
245.2905	0.285
245.5057	0.263
245.721	0.2641
245.9362	0.2439
246.1514	0.2666
246.3665	0.2476
246.5817	0.2597
246.7969	0.2493
247.012	0.2261
247.2271	0.2258
247.4423	0.237
247.6574	0.2203
247.8725	0.2143
248.0876	0.2155
248.3026	0.2134
248.5177	0.2132
248.7328	0.2142
248.9478	0.2072
249.1628	0.2013
249.3779	0.2031
249.5929	0.1951
249.8079	0.2047
250.0228	0.1952
250.2378	0.1869
250.4528	0.1917
250.6677	0.1834
250.8827	0.1827
251.0976	0.1857
251.3125	0.1818
251.5274	0.1665
251.7423	0.1734
251.9572	0.1739
252.172	0.1804
252.3869	0.1712
252.6017	0.1698
252.8166	0.1648
253.0314	0.1668
253.2462	0.171
253.461	0.1702
253.6758	0.1624
253.8906	0.1718
254.1053	0.1629
254.3201	0.1644
254.5348	0.1724
254.7496	0.1826
254.9643	0.1696
255.179	0.1723
255.3937	0.1699
255.6083	0.1807
255.823	0.1713
256.0377	0.1531
256.2523	0.1492
256.467	0.15
256.6816	0.169
256.8962	0.1609
257.1108	0.1494
257.3254	0.1682
257.54	0.1498
257.7545	0.1564
257.9691	0.165
258.1836	0.1582
258.3981	0.1658
258.6127	0.1679
258.8272	0.1589
259.0417	0.1542
259.2561	0.1618
259.4706	0.1442
259.6851	0.1699
259.8995	0.1582
260.114	0.1603
260.3284	0.1594
260.5428	0.1435
260.7572	0.1599
260.9716	0.173
261.186	0.1641
261.4003	0.1575
261.6147	0.163
261.829	0.162
262.0433	0.16
262.2577	0.1478
262.472	0.1692
262.6863	0.1552
262.9005	0.1613
263.1148	0.1573
263.3291	0.1408
263.5433	0.1475
263.7576	0.1686
263.9718	0.1524
264.186	0.1508
264.4002	0.1463
264.6144	0.149
264.8286	0.1651
265.0427	0.1443
265.2569	0.1468
265.471	0.145
265.6851	0.1554
265.8993	0.1534
266.1134	0.1485
266.3275	0.153
266.5415	0.1437
266.7556	0.1671
266.9697	0.1541
267.1837	0.1593
267.3978	0.1573
267.6118	0.1584
267.8258	0.1653
268.0398	0.162
268.2538	0.1629
268.4677	0.1543
268.6817	0.1417
268.8957	0.1661
269.1096	0.1549
269.3235	0.1575
269.5374	0.1532
269.7514	0.1413
269.9652	0.144
270.1791	0.1494
270.393	0.1399
270.6068	0.1455
270.8207	0.1338
271.0345	0.1401
271.2483	0.1376
271.4622	0.1424
271.676	0.1379
271.8897	0.1366
272.1035	0.1323
272.3173	0.1379
272.531	0.1416
272.7448	0.1401
272.9585	0.1305
273.1722	0.1422
273.3859	0.1492
273.5996	0.1301
273.8133	0.1352
274.0269	0.1285
274.2406	0.1215
274.4542	0.1316
274.6679	0.118
274.8815	0.1375
275.0951	0.1385
275.3087	0.1426
275.5223	0.1369
275.7358	0.1358
275.9494	0.1301
276.1629	0.1274
276.3765	0.1312
276.59	0.1439
276.8035	0.1348
277.017	0.1348
277.2305	0.1321
277.444	0.1354
277.6574	0.1225
277.8709	0.1357
278.0843	0.1241
278.2978	0.1406
278.5112	0.1343
278.7246	0.1308
278.938	0.1234
279.1513	0.1369
279.3647	0.1393
279.5781	0.1318
279.7914	0.141
280.0047	0.145
280.2181	0.1378
280.4314	0.1479
280.6447	0.1326
280.8579	0.1444
281.0712	0.1432
281.2845	0.1514
281.4977	0.1318
281.711	0.1278
281.9242	0.1324
282.1374	0.1428
282.3506	0.1351
282.5638	0.1494
282.7769	0.1421
282.9901	0.1484
283.2033	0.1555
283.4164	0.1527
283.6295	0.1402
283.8426	0.1484
284.0557	0.1443
284.2688	0.1543
284.4819	0.1627
284.695	0.1518
284.908	0.1549
285.1211	0.1541
285.3341	0.1531
285.5471	0.1625
285.7601	0.143
285.9731	0.1491
286.1861	0.1446
286.3991	0.1637
286.612	0.1629
286.825	0.1506
287.0379	0.1636
287.2508	0.152
287.4637	0.1615
287.6766	0.1488
287.8895	0.1491
288.1024	0.1785
288.3152	0.1668
288.5281	0.1479
288.7409	0.1575
288.9538	0.1547
289.1666	0.1629
289.3794	0.1581
289.5922	0.1648
289.8049	0.1665
290.0177	0.155
290.2304	0.1716
290.4432	0.1683
290.6559	0.1571
290.8686	0.1765
291.0813	0.1625
291.294	0.1553
291.5067	0.1859
291.7194	0.1617
291.932	0.176
292.1447	0.168
292.3573	0.159
292.5699	0.1662
292.7825	0.1665
292.9951	0.1601
293.2077	0.1633
293.4203	0.1671
293.6328	0.1597
293.8454	0.1724
294.0579	0.1736
294.2704	0.1746
294.4829	0.1595
294.6954	0.1799
294.9079	0.1693
295.1204	0.1658
295.3328	0.1662
295.5453	0.1799
295.7577	0.1756
295.9701	0.159
296.1825	0.1664
296.3949	0.1654
296.6073	0.1771
296.8197	0.1636
297.0321	0.1739
297.2444	0.1539
297.4567	0.1616
297.6691	0.1656
297.8814	0.1595
298.0937	0.166
298.306	0.1689
298.5182	0.164
298.7305	0.1614
298.9428	0.1688
299.155	0.1693
299.3672	0.1584
299.5794	0.1557
299.7916	0.1649
300.0038	0.174
300.216	0.166
300.4282	0.171
300.6403	0.1598
300.8525	0.1743
301.0646	0.1597
301.2767	0.1793
301.4888	0.1715
301.7009	0.1685
301.913	0.1649
302.125	0.1592
302.3371	0.1669
302.5491	0.164
302.7612	0.1726
302.9732	0.1777
303.1852	0.1652
303.3972	0.1586
303.6092	0.1622
303.8211	0.1654
304.0331	0.1483
304.245	0.1579
304.457	0.1611
304.6689	0.1543
304.8808	0.1687
305.0927	0.1489
305.3046	0.1513
305.5164	0.1671
305.7283	0.1404
305.9401	0.1424
306.152	0.1545
306.3638	0.1606
306.5756	0.1417
306.7874	0.1539
306.9992	0.1478
307.2109	0.1364
307.4227	0.1336
307.6344	0.1426
307.8462	0.1397
308.0579	0.1427
308.2696	0.1377
308.4813	0.1262
308.693	0.1315
308.9046	0.1294
309.1163	0.1118
309.328	0.1275
309.5396	0.123
309.7512	0.1198
309.9628	0.1219
310.1744	0.1252
310.386	0.1176
310.5976	0.1157
310.8091	0.1191
311.0207	0.1141
311.2322	0.1178
311.4437	0.105
311.6552	0.104
311.8667	0.1194
312.0782	0.1001
312.2897	0.0952
312.5012	0.1034
312.7126	0.0986
312.924	0.0921
313.1355	0.1121
313.3469	0.1019
313.5583	0.1009
313.7696	0.0962
313.981	0.1062
314.1924	0.0874
314.4037	0.0962
314.6151	0.1061
314.8264	0.0904
315.0377	0.1007
315.249	0.102
315.4603	0.1067
315.6716	0.1039
315.8828	0.0907
316.0941	0.0892
316.3053	0.0888
316.5165	0.0825
316.7277	0.0866
316.9389	0.0995
317.1501	0.0892
317.3613	0.0932
317.5724	0.0801
317.7836	0.0824
317.9947	0.0797
318.2058	0.0947
318.417	0.0868
318.6281	0.0817
318.8391	0.0867
319.0502	0.0806
319.2613	0.0859
319.4723	0.0962
319.6834	0.0961
319.8944	0.0907
320.1054	0.0971
320.3164	0.0897
320.5274	0.0974
320.7383	0.0925
320.9493	0.0881
321.1602	0.0991
321.3712	0.0847
321.5821	0.095
321.793	0.0931
322.0039	0.0822
322.2148	0.0864
322.4257	0.0932
322.6365	0.1006
322.8474	0.0941
323.0582	0.0874
323.269	0.1015
323.4798	0.0832
323.6906	0.0944
323.9014	0.0934
324.1122	0.1028
324.3229	0.0897
324.5337	0.088
324.7444	0.0821
324.9551	0.105
325.1658	0.1027
325.3765	0.0936
325.5872	0.0938
325.7979	0.0896
326.0085	0.0944
326.2192	0.1015
326.4298	0.0972
326.6404	0.091
326.851	0.0799
327.0616	0.084
327.2722	0.0939
327.4828	0.0991
327.6933	0.0896
327.9039	0.096
328.1144	0.1069
328.3249	0.1017
328.5354	0.0969
328.7459	0.0868
328.9564	0.0808
329.1669	0.0958
329.3773	0.1023
329.5878	0.0967
329.7982	0.0902
330.0086	0.0877
330.219	0.0948
330.4294	0.0955
330.6398	0.0877
330.8502	0.0859
331.0605	0.1034
331.2708	0.0946
331.4812	0.1028
331.6915	0.1012
331.9018	0.1044
332.1121	0.1019
332.3224	0.1057
332.5326	0.0977
332.7429	0.1077
332.9531	0.1101
333.1633	0.1026
333.3735	0.0973
333.5837	0.0952
333.7939	0.0887
334.0041	0.1093
334.2143	0.113
334.4244	0.0994
334.6346	0.0874
334.8447	0.1071
335.0548	0.0893
335.2649	0.0857
335.475	0.1077
335.685	0.0999
335.8951	0.1048
336.1051	0.1038
336.3152	0.1063
336.5252	0.0863
336.7352	0.1033
336.9452	0.1015
337.1552	0.1164
337.3652	0.0977
337.5751	0.0948
337.7851	0.0989
337.995	0.0885
338.2049	0.1046
338.4148	0.1072
338.6247	0.1091
338.8346	0.0953
339.0445	0.1004
339.2543	0.1
339.4642	0.1035
339.674	0.0975
339.8838	0.1074
340.0936	0.0998
340.3034	0.1035
340.5132	0.1133
340.7229	0.1075
340.9327	0.0964
341.1424	0.0964
341.3522	0.1145
341.5619	0.1036
341.7716	0.1141
341.9813	0.1097
342.1909	0.0972
342.4006	0.1116
342.6102	0.1166
342.8199	0.117
343.0295	0.1149
343.2391	0.1112
343.4487	0.1213
343.6583	0.1056
343.8679	0.1124
344.0774	0.1132
344.287	0.1197
344.4965	0.1082
344.706	0.1215
344.9155	0.1201
345.125	0.1067
345.3345	0.125
345.544	0.1141
345.7534	0.1175
345.9629	0.1168
346.1723	0.1233
346.3817	0.1223
346.5911	0.1185
346.8005	0.116
347.0099	0.1168
347.2193	0.1341
347.4286	0.1122
347.638	0.1307
347.8473	0.1242
348.0566	0.1342
348.2659	0.1326
348.4752	0.1239
348.6845	0.1241
348.8937	0.1249
349.103	0.1358
349.3122	0.1099
349.5214	0.1349
349.7306	0.1371
349.9398	0.1242
350.149	0.1307
350.3582	0.134
350.5674	0.1396
350.7765	0.1266
350.9856	0.1233
351.1948	0.1375
351.4039	0.1237
351.613	0.138
351.822	0.1413
352.0311	0.1359
352.2402	0.1327
352.4492	0.1476
352.6582	0.1375
352.8672	0.1351
353.0762	0.1459
353.2852	0.1487
353.4942	0.1219
353.7032	0.1429
353.9121	0.1393
354.1211	0.1453
354.33	0.1405
354.5389	0.1529
354.7478	0.1404
354.9567	0.1405
355.1655	0.1317
355.3744	0.1542
355.5833	0.153
355.7921	0.1656
356.0009	0.1444
356.2097	0.1654
356.4185	0.1688
356.6273	0.1541
356.8361	0.1709
357.0448	0.1501
357.2536	0.1476
357.4623	0.1515
357.671	0.1688
357.8797	0.1564
358.0884	0.1645
358.2971	0.1667
358.5057	0.1637
358.7144	0.1688
358.923	0.1764
359.1316	0.1569
359.3402	0.1726
359.5488	0.1647
359.7574	0.1617
359.966	0.1775
360.1746	0.1736
360.3831	0.1673
360.5916	0.1704
360.8002	0.154
361.0087	0.1713
361.2172	0.176
361.4256	0.1722
361.6341	0.1875
361.8426	0.1928
362.051	0.1826
362.2594	0.1768
362.4678	0.1906
362.6762	0.1895
362.8846	0.1813
363.093	0.1754
363.3014	0.1883
363.5097	0.1694
363.718	0.1874
363.9264	0.1986
364.1347	0.1798
364.343	0.1872
364.5513	0.2011
364.7595	0.2021
364.9678	0.2039
365.176	0.2114
365.3842	0.203
365.5925	0.2019
365.8007	0.1999
366.0089	0.2019
366.217	0.1855
366.4252	0.2174
366.6333	0.2129
366.8415	0.2089
367.0496	0.1835
367.2577	0.221
367.4658	0.2238
367.6739	0.2209
367.882	0.2113
368.09	0.2143
368.2981	0.2151
368.5061	0.1996
368.7141	0.2144
368.9221	0.2257
369.1301	0.2241
369.3381	0.2126
369.5461	0.2146
369.754	0.2187
369.962	0.2196
370.1699	0.2258
370.3778	0.2406
370.5857	0.2093
370.7936	0.2301
371.0015	0.2331
371.2093	0.239
371.4172	0.2358
371.625	0.2211
371.8328	0.2206
372.0406	0.2324
372.2484	0.2239
372.4562	0.232
372.664	0.2423
372.8717	0.236
373.0795	0.2089
373.2872	0.2166
373.4949	0.2362
373.7026	0.226
373.9103	0.2379
374.118	0.2504
374.3256	0.2497
374.5333	0.221
374.7409	0.2394
374.9485	0.2428
375.1561	0.2597
375.3637	0.2447
375.5713	0.2443
375.7789	0.2341
375.9864	0.2278
376.194	0.2427
376.4015	0.2561
376.609	0.2606
376.8165	0.2364
377.024	0.2473
377.2315	0.2425
377.4389	0.2505
377.6464	0.2768
377.8538	0.2599
378.0612	0.2285
378.2686	0.249
378.476	0.2646
378.6834	0.2617
378.8908	0.2613
379.0981	0.2586
379.3055	0.2473
379.5128	0.2689
379.7201	0.2653
379.9274	0.2541
380.1347	0.2661
380.342	0.2794
380.5492	0.2449
380.7565	0.2637
380.9637	0.284
381.1709	0.2831
381.3781	0.2598
381.5853	0.2861
381.7925	0.267
381.9997	0.2793
382.2068	0.2812
382.4139	0.2659
382.6211	0.2668
382.8282	0.279
383.0353	0.2619
383.2424	0.2669
383.4494	0.2865
383.6565	0.2614
383.8635	0.2708
384.0706	0.2777
384.2776	0.2764
384.4846	0.2598
384.6916	0.2594
384.8986	0.2708
385.1055	0.2629
385.3125	0.2663
385.5194	0.2405
385.7263	0.2869
385.9333	0.2821
386.1402	0.2521
386.347	0.2756
386.5539	0.2494
386.7608	0.2848
386.9676	0.2622
387.1744	0.2732
387.3813	0.2632
387.5881	0.2797
387.7948	0.2768
388.0016	0.2899
388.2084	0.2797
388.4151	0.2666
388.6219	0.2814
388.8286	0.27
389.0353	0.2827
389.242	0.2879
389.4487	0.2591
389.6553	0.2657
389.862	0.2349
390.0686	0.2566
390.2753	0.2703
390.4819	0.2794
390.6885	0.2608
390.8951	0.2661
391.1016	0.2559
391.3082	0.2517
391.5147	0.2602
391.7213	0.2532
391.9278	0.2475
392.1343	0.2554
392.3408	0.257
392.5473	0.2499
392.7537	0.2406
392.9602	0.2449
393.1666	0.266
393.373	0.2607
393.5794	0.2392
393.7858	0.2598
393.9922	0.2181
394.1986	0.234
394.4049	0.2468
394.6113	0.2275
394.8176	0.2299
395.0239	0.2281
395.2302	0.2225
395.4365	0.232
395.6428	0.232
395.8491	0.2265
396.0553	0.2395
396.2615	0.2488
396.4678	0.2435
396.674	0.2135
396.8802	0.237
397.0863	0.2431
397.2925	0.2174
397.4987	0.2159
397.7048	0.2213
397.9109	0.2292
398.117	0.2231
398.3231	0.2231
398.5292	0.2414
398.7353	0.2425
398.9413	0.2352
399.1474	0.2233
399.3534	0.2195
399.5594	0.2382
399.7654	0.2341
399.9714	0.2382
400.1774	0.2388
400.3833	0.2256
400.5893	0.2295
400.7952	0.2325
401.0011	0.2267
401.207	0.2338
401.4129	0.2252
401.6188	0.2444
401.8247	0.2299
402.0305	0.2175
402.2364	0.2251
402.4422	0.2498
402.648	0.237
402.8538	0.2392
403.0596	0.2374
403.2654	0.2347
403.4711	0.2237
403.6768	0.237
403.8826	0.2431
404.0883	0.2297
404.294	0.2296
404.4997	0.2271
404.7054	0.2362
404.911	0.2408
405.1167	0.234
405.3223	0.2623
405.5279	0.2326
405.7335	0.2525
405.9391	0.2354
406.1447	0.2303
406.3502	0.2479
406.5558	0.2255
406.7613	0.2489
406.9668	0.2321
407.1724	0.2177
407.3778	0.2261
407.5833	0.2368
407.7888	0.2215
407.9942	0.2403
408.1997	0.2323
408.4051	0.2238
408.6105	0.2544
408.8159	0.2216
409.0213	0.2181
409.2267	0.2361
409.432	0.2167
409.6374	0.2311
409.8427	0.2117
410.048	0.2244
410.2533	0.2158
410.4586	0.2382
410.6639	0.2275
410.8691	0.2159
411.0744	0.2221
411.2796	0.2123
411.4848	0.2183
411.69	0.2239
411.8952	0.2461
412.1004	0.2099
412.3056	0.2336
412.5107	0.2122
412.7158	0.2361
412.921	0.2334
413.1261	0.2243
413.3312	0.2395
413.5362	0.2214
413.7413	0.2391
413.9464	0.2251
414.1514	0.2334
414.3564	0.2219
414.5614	0.2114
414.7664	0.2172
414.9714	0.2259
415.1764	0.2311
415.3813	0.2256
415.5863	0.2315
415.7912	0.2293
415.9961	0.2358
416.201	0.2207
416.4059	0.2307
416.6108	0.21
416.8156	0.2309
417.0205	0.2198
417.2253	0.2044
417.4301	0.2199
417.6349	0.2241
417.8397	0.2221
418.0445	0.2265
418.2492	0.2317
418.454	0.2199
418.6587	0.2235
418.8634	0.2169
419.0681	0.2063
419.2728	0.2138
419.4775	0.2044
419.6822	0.2006
419.8868	0.1878
420.0915	0.2078
420.2961	0.2046
420.5007	0.216
420.7053	0.2218
420.9099	0.23
421.1144	0.2126
421.319	0.193
421.5235	0.2222
421.728	0.1985
421.9325	0.2024
422.137	0.209
422.3415	0.2003
422.546	0.1866
422.7504	0.206
422.9549	0.2048
423.1593	0.2236
423.3637	0.2125
423.5681	0.2172
423.7725	0.1962
423.9769	0.2003
424.1812	0.1974
424.3856	0.1909
424.5899	0.2103
424.7942	0.2074
424.9985	0.2015
425.2028	0.1808
425.4071	0.2102
425.6113	0.1876
425.8156	0.1926
426.0198	0.1983
426.224	0.1679
426.4282	0.1812
426.6324	0.1875
