Data from MonoPyChalIsomerACN10uM350nmA_Absorbance_14-35-37-715.txt Node
Date: Fri Jul 05 14:35:37 BST 2024
User: LASERRRRR
Spectrometer: FLMT03099
Trigger mode: 0
Integration Time (sec): 1.000000E-1
Scans to average: 1
Electric dark correction enabled: true
Nonlinearity correction enabled: false
Boxcar width: 0
XAxis mode: Wavelengths
Number of Pixels in Spectrum: 3648
>>>>>Begin Spectral Data<<<<<
179.3399	0.2533
179.5586	0.2533
179.7771	0.2533
179.9957	-0.0361
180.2143	-0
180.4329	0.1317
180.6514	-0
180.8699	-0
181.0885	0.3158
181.307	-0.0232
181.5255	-0.5992
181.744	-0
181.9625	-0
182.181	-0
182.3994	-0
182.6179	-0.151
182.8363	0.0322
183.0547	0.1308
183.2732	-0.1743
183.4916	-0.1104
183.71	0.0522
183.9284	0.0786
184.1467	-0.1237
184.3651	-0.1425
184.5835	0.0308
184.8018	0.1447
185.0201	0.1607
185.2385	0.0941
185.4568	0.2437
185.6751	0.139
185.8934	0.0839
186.1117	0.0985
186.3299	-0.1376
186.5482	0.0451
186.7664	-0.047
186.9847	-0.0368
187.2029	0.2075
187.4211	0.2256
187.6393	0.8509
187.8575	-0.1295
188.0757	0.3467
188.2939	0.0409
188.512	0.5141
188.7302	-0.0196
188.9483	0.0733
189.1665	-0.0043
189.3846	0.0626
189.6027	0.3884
189.8208	0.2406
190.0389	0.107
190.257	0.1413
190.475	0.0854
190.6931	0.2728
190.9111	0.3598
191.1292	0.1107
191.3472	0.4819
191.5652	0.2792
191.7832	0.3605
192.0012	0.3888
192.2192	0.3097
192.4371	0.5717
192.6551	0.4217
192.873	0.5178
193.091	0.3063
193.3089	0.7566
193.5268	0.4664
193.7447	0.5896
193.9626	0.529
194.1805	0.465
194.3984	0.7319
194.6162	0.4725
194.8341	0.4887
195.0519	0.5359
195.2697	0.5795
195.4875	0.6562
195.7054	0.4559
195.9231	0.5018
196.1409	0.6313
196.3587	0.5381
196.5765	0.546
196.7942	0.7135
197.012	0.6177
197.2297	0.6293
197.4474	0.7302
197.6651	0.5661
197.8828	0.501
198.1005	0.6487
198.3182	0.5671
198.5358	0.8768
198.7535	0.5682
198.9711	0.5965
199.1888	0.8746
199.4064	0.876
199.624	0.5806
199.8416	0.6648
200.0592	0.6558
200.2767	0.5181
200.4943	0.7162
200.7119	0.7996
200.9294	0.5503
201.1469	0.5265
201.3645	0.6043
201.582	0.607
201.7995	0.7493
202.017	0.584
202.2344	0.512
202.4519	0.6042
202.6694	0.5669
202.8868	0.6134
203.1042	0.7389
203.3217	0.5719
203.5391	0.6791
203.7565	0.5677
203.9739	0.6597
204.1913	0.5597
204.4086	0.651
204.626	0.6963
204.8433	0.6642
205.0607	0.5959
205.278	0.6089
205.4953	0.6781
205.7126	0.6306
205.9299	0.6991
206.1472	0.6871
206.3644	0.5929
206.5817	0.6999
206.7989	0.6924
207.0162	0.6268
207.2334	0.635
207.4506	0.6414
207.6678	0.6467
207.885	0.6227
208.1022	0.6054
208.3194	0.6431
208.5365	0.5698
208.7537	0.6774
208.9708	0.5861
209.1879	0.6491
209.405	0.6923
209.6222	0.6928
209.8392	0.5896
210.0563	0.5692
210.2734	0.6843
210.4905	0.6485
210.7075	0.6302
210.9245	0.5525
211.1416	0.6981
211.3586	0.6052
211.5756	0.5926
211.7926	0.6662
212.0096	0.5689
212.2265	0.584
212.4435	0.5586
212.6604	0.6007
212.8774	0.5672
213.0943	0.6015
213.3112	0.5223
213.5281	0.5344
213.745	0.4846
213.9619	0.5027
214.1788	0.5052
214.3956	0.4652
214.6125	0.4782
214.8293	0.441
215.0461	0.5088
215.2629	0.4423
215.4798	0.4645
215.6965	0.409
215.9133	0.4113
216.1301	0.3952
216.3469	0.4548
216.5636	0.398
216.7803	0.3714
216.9971	0.4341
217.2138	0.3683
217.4305	0.3737
217.6472	0.3387
217.8639	0.3778
218.0805	0.3589
218.2972	0.3419
218.5138	0.3064
218.7305	0.3259
218.9471	0.3058
219.1637	0.3021
219.3803	0.2828
219.5969	0.2868
219.8135	0.2688
220.0301	0.2836
220.2466	0.2832
220.4632	0.277
220.6797	0.2411
220.8962	0.2398
221.1127	0.2505
221.3292	0.2388
221.5457	0.2577
221.7622	0.2217
221.9787	0.2737
222.1951	0.2266
222.4116	0.2796
222.628	0.2483
222.8444	0.2507
223.0608	0.254
223.2772	0.2484
223.4936	0.2687
223.71	0.2437
223.9264	0.2714
224.1427	0.2531
224.3591	0.247
224.5754	0.2628
224.7917	0.2733
225.008	0.2574
225.2243	0.2689
225.4406	0.3009
225.6569	0.2589
225.8732	0.2565
226.0894	0.2438
226.3057	0.2587
226.5219	0.2771
226.7381	0.2577
226.9543	0.2811
227.1705	0.3031
227.3867	0.3054
227.6029	0.2929
227.8191	0.2935
228.0352	0.3054
228.2513	0.3132
228.4675	0.2932
228.6836	0.3105
228.8997	0.2992
229.1158	0.3016
229.3319	0.3079
229.548	0.3279
229.764	0.3167
229.9801	0.3294
230.1961	0.3299
230.4121	0.3458
230.6282	0.3375
230.8442	0.3215
231.0602	0.3485
231.2761	0.3351
231.4921	0.3493
231.7081	0.3609
231.924	0.3428
232.14	0.3643
232.3559	0.324
232.5718	0.3531
232.7877	0.3408
233.0036	0.3511
233.2195	0.3664
233.4353	0.3548
233.6512	0.3527
233.867	0.3547
234.0829	0.3747
234.2987	0.3587
234.5145	0.359
234.7303	0.3832
234.9461	0.3999
235.1619	0.3803
235.3776	0.3824
235.5934	0.3876
235.8091	0.3777
236.0249	0.3796
236.2406	0.3888
236.4563	0.3718
236.672	0.3904
236.8877	0.39
237.1034	0.3985
237.319	0.3879
237.5347	0.4034
237.7503	0.3923
237.966	0.4195
238.1816	0.3903
238.3972	0.3968
238.6128	0.4099
238.8284	0.412
239.0439	0.4005
239.2595	0.4086
239.475	0.4205
239.6906	0.404
239.9061	0.4172
240.1216	0.3999
240.3371	0.3887
240.5526	0.3802
240.7681	0.4172
240.9836	0.393
241.199	0.4208
241.4145	0.3845
241.6299	0.3807
241.8453	0.3698
242.0607	0.3905
242.2761	0.3533
242.4915	0.364
242.7069	0.3612
242.9223	0.3673
243.1376	0.341
243.353	0.3445
243.5683	0.3486
243.7836	0.3177
243.9989	0.3211
244.2142	0.2962
244.4295	0.3015
244.6448	0.3133
244.86	0.2808
245.0753	0.2947
245.2905	0.2846
245.5057	0.2785
245.721	0.2743
245.9362	0.2839
246.1514	0.2665
246.3665	0.2536
246.5817	0.2622
246.7969	0.2448
247.012	0.2478
247.2271	0.2366
247.4423	0.2278
247.6574	0.236
247.8725	0.231
248.0876	0.2303
248.3026	0.2222
248.5177	0.2155
248.7328	0.2284
248.9478	0.1988
249.1628	0.2168
249.3779	0.2125
249.5929	0.2001
249.8079	0.2077
250.0228	0.1997
250.2378	0.2072
250.4528	0.1972
250.6677	0.1871
250.8827	0.195
251.0976	0.1909
251.3125	0.1828
251.5274	0.1792
251.7423	0.1824
251.9572	0.1858
252.172	0.182
252.3869	0.1854
252.6017	0.182
252.8166	0.1692
253.0314	0.1758
253.2462	0.1634
253.461	0.1681
253.6758	0.1652
253.8906	0.1859
254.1053	0.1695
254.3201	0.1659
254.5348	0.1835
254.7496	0.1832
254.9643	0.164
255.179	0.1772
255.3937	0.1627
255.6083	0.1813
255.823	0.1666
256.0377	0.1729
256.2523	0.1617
256.467	0.1567
256.6816	0.1728
256.8962	0.1653
257.1108	0.1723
257.3254	0.1717
257.54	0.1672
257.7545	0.1702
257.9691	0.1689
258.1836	0.1717
258.3981	0.1814
258.6127	0.1762
258.8272	0.1664
259.0417	0.1566
259.2561	0.1599
259.4706	0.165
259.6851	0.1734
259.8995	0.1727
260.114	0.1668
260.3284	0.1585
260.5428	0.1686
260.7572	0.1601
260.9716	0.1769
261.186	0.1557
261.4003	0.1687
261.6147	0.1634
261.829	0.1705
262.0433	0.1609
262.2577	0.163
262.472	0.1708
262.6863	0.1576
262.9005	0.168
263.1148	0.1575
263.3291	0.1643
263.5433	0.1553
263.7576	0.168
263.9718	0.1591
264.186	0.1588
264.4002	0.158
264.6144	0.1656
264.8286	0.1696
265.0427	0.1518
265.2569	0.1507
265.471	0.1586
265.6851	0.1599
265.8993	0.1502
266.1134	0.1614
266.3275	0.145
266.5415	0.1619
266.7556	0.1641
266.9697	0.1656
267.1837	0.1686
267.3978	0.1671
267.6118	0.1664
267.8258	0.1831
268.0398	0.1507
268.2538	0.1567
268.4677	0.1583
268.6817	0.1576
268.8957	0.1528
269.1096	0.1604
269.3235	0.1704
269.5374	0.1549
269.7514	0.167
269.9652	0.1534
270.1791	0.1511
270.393	0.1504
270.6068	0.1646
270.8207	0.145
271.0345	0.1422
271.2483	0.1477
271.4622	0.1396
271.676	0.1576
271.8897	0.1482
272.1035	0.1474
272.3173	0.1417
272.531	0.1489
272.7448	0.1492
272.9585	0.1414
273.1722	0.1462
273.3859	0.1567
273.5996	0.1297
273.8133	0.1529
274.0269	0.1326
274.2406	0.1404
274.4542	0.1421
274.6679	0.134
274.8815	0.1454
275.0951	0.1448
275.3087	0.1565
275.5223	0.1492
275.7358	0.142
275.9494	0.1413
276.1629	0.1364
276.3765	0.1537
276.59	0.1424
276.8035	0.1564
277.017	0.1502
277.2305	0.1448
277.444	0.1469
277.6574	0.1423
277.8709	0.1437
278.0843	0.1401
278.2978	0.155
278.5112	0.1485
278.7246	0.141
278.938	0.1464
279.1513	0.1568
279.3647	0.1616
279.5781	0.1396
279.7914	0.1474
280.0047	0.1608
280.2181	0.1573
280.4314	0.1466
280.6447	0.1604
280.8579	0.1471
281.0712	0.1432
281.2845	0.1519
281.4977	0.1604
281.711	0.1407
281.9242	0.15
282.1374	0.1611
282.3506	0.1491
282.5638	0.1608
282.7769	0.1577
282.9901	0.1488
283.2033	0.1464
283.4164	0.1612
283.6295	0.1456
283.8426	0.1481
284.0557	0.1646
284.2688	0.1623
284.4819	0.1642
284.695	0.1637
284.908	0.1575
285.1211	0.1421
285.3341	0.1532
285.5471	0.1604
285.7601	0.1604
285.9731	0.1514
286.1861	0.1467
286.3991	0.1692
286.612	0.1682
286.825	0.1561
287.0379	0.1695
287.2508	0.1647
287.4637	0.1579
287.6766	0.1557
287.8895	0.1696
288.1024	0.1815
288.3152	0.164
288.5281	0.1507
288.7409	0.1613
288.9538	0.1541
289.1666	0.1557
289.3794	0.1644
289.5922	0.1544
289.8049	0.1631
290.0177	0.1627
290.2304	0.1629
290.4432	0.1647
290.6559	0.1716
290.8686	0.1688
291.0813	0.1608
291.294	0.1664
291.5067	0.1656
291.7194	0.1603
291.932	0.1754
292.1447	0.1683
292.3573	0.1627
292.5699	0.1667
292.7825	0.1645
292.9951	0.1705
293.2077	0.1639
293.4203	0.1647
293.6328	0.1465
293.8454	0.1696
294.0579	0.1555
294.2704	0.1679
294.4829	0.1513
294.6954	0.1721
294.9079	0.1611
295.1204	0.1695
295.3328	0.1638
295.5453	0.1626
295.7577	0.1684
295.9701	0.1596
296.1825	0.1584
296.3949	0.1519
296.6073	0.1512
296.8197	0.1651
297.0321	0.1716
297.2444	0.1582
297.4567	0.1565
297.6691	0.1637
297.8814	0.1577
298.0937	0.1637
298.306	0.1649
298.5182	0.1717
298.7305	0.1675
298.9428	0.1627
299.155	0.1786
299.3672	0.1618
299.5794	0.1599
299.7916	0.1586
300.0038	0.1655
300.216	0.1661
300.4282	0.1746
300.6403	0.1641
300.8525	0.1671
301.0646	0.1568
301.2767	0.1637
301.4888	0.1587
301.7009	0.1608
301.913	0.1492
302.125	0.1727
302.3371	0.1465
302.5491	0.1676
302.7612	0.1683
302.9732	0.1649
303.1852	0.1706
303.3972	0.1613
303.6092	0.1537
303.8211	0.1533
304.0331	0.149
304.245	0.1523
304.457	0.1533
304.6689	0.1518
304.8808	0.1573
305.0927	0.1547
305.3046	0.157
305.5164	0.1618
305.7283	0.1463
305.9401	0.146
306.152	0.1556
306.3638	0.1497
306.5756	0.1371
306.7874	0.1501
306.9992	0.1512
307.2109	0.1407
307.4227	0.1294
307.6344	0.1397
307.8462	0.1393
308.0579	0.1367
308.2696	0.1313
308.4813	0.1342
308.693	0.1314
308.9046	0.1387
309.1163	0.1309
309.328	0.1278
309.5396	0.1242
309.7512	0.1234
309.9628	0.1276
310.1744	0.1206
310.386	0.1181
310.5976	0.1202
310.8091	0.1173
311.0207	0.1221
311.2322	0.1272
311.4437	0.1129
311.6552	0.1045
311.8667	0.1193
312.0782	0.0927
312.2897	0.1106
312.5012	0.1117
312.7126	0.1101
312.924	0.1134
313.1355	0.1167
313.3469	0.1043
313.5583	0.1131
313.7696	0.1101
313.981	0.0977
314.1924	0.0991
314.4037	0.1128
314.6151	0.1089
314.8264	0.103
315.0377	0.1101
315.249	0.1068
315.4603	0.1092
315.6716	0.1046
315.8828	0.0952
316.0941	0.1056
316.3053	0.1056
316.5165	0.0942
316.7277	0.0915
316.9389	0.1057
317.1501	0.09
317.3613	0.1069
317.5724	0.0849
317.7836	0.1014
317.9947	0.1015
318.2058	0.0968
318.417	0.1018
318.6281	0.0899
318.8391	0.0975
319.0502	0.0997
319.2613	0.092
319.4723	0.1019
319.6834	0.096
319.8944	0.1021
320.1054	0.1049
320.3164	0.1027
320.5274	0.099
320.7383	0.0895
320.9493	0.106
321.1602	0.111
321.3712	0.0817
321.5821	0.0977
321.793	0.1006
322.0039	0.0988
322.2148	0.1009
322.4257	0.1023
322.6365	0.1077
322.8474	0.1113
323.0582	0.0938
323.269	0.0943
323.4798	0.1115
323.6906	0.1005
323.9014	0.0932
324.1122	0.1047
324.3229	0.1012
324.5337	0.1088
324.7444	0.0928
324.9551	0.1155
325.1658	0.0926
325.3765	0.1031
325.5872	0.0971
325.7979	0.1041
326.0085	0.1113
326.2192	0.1053
326.4298	0.1078
326.6404	0.0957
326.851	0.0982
327.0616	0.0918
327.2722	0.0971
327.4828	0.1029
327.6933	0.1072
327.9039	0.1183
328.1144	0.11
328.3249	0.1048
328.5354	0.0954
328.7459	0.1052
328.9564	0.1101
329.1669	0.1162
329.3773	0.1078
329.5878	0.1066
329.7982	0.1017
330.0086	0.1098
330.219	0.1132
330.4294	0.1047
330.6398	0.1186
330.8502	0.1009
331.0605	0.1068
331.2708	0.1057
331.4812	0.1164
331.6915	0.1216
331.9018	0.0958
332.1121	0.1075
332.3224	0.1095
332.5326	0.1187
332.7429	0.1129
332.9531	0.1142
333.1633	0.1196
333.3735	0.1092
333.5837	0.1054
333.7939	0.0978
334.0041	0.1207
334.2143	0.1019
334.4244	0.1067
334.6346	0.0961
334.8447	0.1129
335.0548	0.0991
335.2649	0.1048
335.475	0.1173
335.685	0.1034
335.8951	0.1261
336.1051	0.1101
336.3152	0.1114
336.5252	0.1131
336.7352	0.1122
336.9452	0.1268
337.1552	0.1153
337.3652	0.1044
337.5751	0.1073
337.7851	0.1288
337.995	0.1034
338.2049	0.119
338.4148	0.1131
338.6247	0.1204
338.8346	0.1131
339.0445	0.1087
339.2543	0.1084
339.4642	0.1211
339.674	0.1035
339.8838	0.123
340.0936	0.1144
340.3034	0.1203
340.5132	0.1198
340.7229	0.1236
340.9327	0.1174
341.1424	0.1169
341.3522	0.1337
341.5619	0.1269
341.7716	0.1181
341.9813	0.1177
342.1909	0.1171
342.4006	0.1181
342.6102	0.1192
342.8199	0.1263
343.0295	0.1201
343.2391	0.1226
343.4487	0.1226
343.6583	0.1235
343.8679	0.1224
344.0774	0.1224
344.287	0.1372
344.4965	0.1242
344.706	0.1255
344.9155	0.1224
345.125	0.1341
345.3345	0.1285
345.544	0.1156
345.7534	0.1166
345.9629	0.1174
346.1723	0.122
346.3817	0.133
346.5911	0.1243
346.8005	0.1411
347.0099	0.1311
347.2193	0.1475
347.4286	0.1222
347.638	0.137
347.8473	0.1392
348.0566	0.1426
348.2659	0.1414
348.4752	0.1459
348.6845	0.1318
348.8937	0.1318
349.103	0.1443
349.3122	0.1141
349.5214	0.1358
349.7306	0.1322
349.9398	0.128
350.149	0.1444
350.3582	0.1293
350.5674	0.1465
350.7765	0.1411
350.9856	0.139
351.1948	0.1411
351.4039	0.1381
351.613	0.1368
351.822	0.1404
352.0311	0.1542
352.2402	0.1449
352.4492	0.1365
352.6582	0.1433
352.8672	0.1388
353.0762	0.1507
353.2852	0.1472
353.4942	0.1612
353.7032	0.141
353.9121	0.1476
354.1211	0.142
354.33	0.1543
354.5389	0.1567
354.7478	0.1609
354.9567	0.1436
355.1655	0.1486
355.3744	0.1381
355.5833	0.1462
355.7921	0.1891
356.0009	0.1528
356.2097	0.1677
356.4185	0.169
356.6273	0.1565
356.8361	0.1703
357.0448	0.1571
357.2536	0.1467
357.4623	0.1442
357.671	0.1656
357.8797	0.1751
358.0884	0.1692
358.2971	0.1652
358.5057	0.1779
358.7144	0.1767
358.923	0.1688
359.1316	0.1646
359.3402	0.1814
359.5488	0.1737
359.7574	0.1646
359.966	0.1588
360.1746	0.1684
360.3831	0.1753
360.5916	0.1753
360.8002	0.1684
361.0087	0.1803
361.2172	0.1812
361.4256	0.168
361.6341	0.1865
361.8426	0.1743
362.051	0.1899
362.2594	0.1971
362.4678	0.1889
362.6762	0.2116
362.8846	0.1845
363.093	0.1871
363.3014	0.18
363.5097	0.1652
363.718	0.1841
363.9264	0.1811
364.1347	0.1875
364.343	0.195
364.5513	0.1844
364.7595	0.1989
364.9678	0.1948
365.176	0.1982
365.3842	0.1935
365.5925	0.2096
365.8007	0.204
366.0089	0.1952
366.217	0.1911
366.4252	0.2092
366.6333	0.2017
366.8415	0.2127
367.0496	0.1934
367.2577	0.2075
367.4658	0.2185
367.6739	0.2038
367.882	0.2311
368.09	0.1908
368.2981	0.2202
368.5061	0.2061
368.7141	0.196
368.9221	0.2157
369.1301	0.2161
369.3381	0.2015
369.5461	0.1879
369.754	0.2113
369.962	0.2305
370.1699	0.2107
370.3778	0.2183
370.5857	0.1969
370.7936	0.2044
371.0015	0.2215
371.2093	0.2296
371.4172	0.2288
371.625	0.2118
371.8328	0.2083
372.0406	0.1978
372.2484	0.2223
372.4562	0.2217
372.664	0.2161
372.8717	0.2387
373.0795	0.2184
373.2872	0.2359
373.4949	0.2268
373.7026	0.2314
373.9103	0.222
374.118	0.2269
374.3256	0.2344
374.5333	0.2116
374.7409	0.2247
374.9485	0.2403
375.1561	0.2268
375.3637	0.2432
375.5713	0.244
375.7789	0.2354
375.9864	0.234
376.194	0.232
376.4015	0.2544
376.609	0.2317
376.8165	0.2241
377.024	0.223
377.2315	0.2299
377.4389	0.2374
377.6464	0.2481
377.8538	0.2538
378.0612	0.2433
378.2686	0.2365
378.476	0.2514
378.6834	0.2311
378.8908	0.2597
379.0981	0.2484
379.3055	0.2518
379.5128	0.2428
379.7201	0.2611
379.9274	0.2429
380.1347	0.24
380.342	0.258
380.5492	0.2439
380.7565	0.2522
380.9637	0.2477
381.1709	0.2387
381.3781	0.2534
381.5853	0.2601
381.7925	0.2568
381.9997	0.2502
382.2068	0.2583
382.4139	0.2578
382.6211	0.2496
382.8282	0.252
383.0353	0.2419
383.2424	0.2557
383.4494	0.2644
383.6565	0.2402
383.8635	0.247
384.0706	0.2559
384.2776	0.2532
384.4846	0.249
384.6916	0.2651
384.8986	0.2629
385.1055	0.2608
385.3125	0.2582
385.5194	0.2408
385.7263	0.2642
385.9333	0.2407
386.1402	0.2464
386.347	0.2463
386.5539	0.2595
386.7608	0.2712
386.9676	0.2344
387.1744	0.2628
387.3813	0.2419
387.5881	0.2636
387.7948	0.2503
388.0016	0.2507
388.2084	0.2464
388.4151	0.2614
388.6219	0.2689
388.8286	0.2493
389.0353	0.2664
389.242	0.2598
389.4487	0.2541
389.6553	0.2382
389.862	0.22
390.0686	0.2348
390.2753	0.2391
390.4819	0.2262
390.6885	0.2426
390.8951	0.2679
391.1016	0.2394
391.3082	0.2318
391.5147	0.2485
391.7213	0.2367
391.9278	0.2435
392.1343	0.2465
392.3408	0.2382
392.5473	0.2408
392.7537	0.2322
392.9602	0.2338
393.1666	0.2244
393.373	0.2367
393.5794	0.2377
393.7858	0.2171
393.9922	0.2051
394.1986	0.2294
394.4049	0.2211
394.6113	0.2205
394.8176	0.2258
395.0239	0.2256
395.2302	0.1916
395.4365	0.2311
395.6428	0.2135
395.8491	0.2101
396.0553	0.212
396.2615	0.224
396.4678	0.1987
396.674	0.2012
396.8802	0.2151
397.0863	0.2306
397.2925	0.2039
397.4987	0.2151
397.7048	0.2001
397.9109	0.2179
398.117	0.202
398.3231	0.2079
398.5292	0.2224
398.7353	0.2166
398.9413	0.2009
399.1474	0.2147
399.3534	0.2055
399.5594	0.2045
399.7654	0.2215
399.9714	0.2278
400.1774	0.2128
400.3833	0.208
400.5893	0.2118
400.7952	0.2155
401.0011	0.2092
401.207	0.213
401.4129	0.201
401.6188	0.2139
401.8247	0.2103
402.0305	0.2058
402.2364	0.2014
402.4422	0.2226
402.648	0.2124
402.8538	0.2213
403.0596	0.2028
403.2654	0.2122
403.4711	0.2177
403.6768	0.2076
403.8826	0.2322
404.0883	0.2239
404.294	0.2196
404.4997	0.2189
404.7054	0.2091
404.911	0.1988
405.1167	0.2158
405.3223	0.2269
405.5279	0.2105
405.7335	0.2193
405.9391	0.2043
406.1447	0.2123
406.3502	0.2288
406.5558	0.2075
406.7613	0.2157
406.9668	0.2141
407.1724	0.1936
407.3778	0.1999
407.5833	0.2096
407.7888	0.1967
407.9942	0.2182
408.1997	0.2066
408.4051	0.2065
408.6105	0.2027
408.8159	0.2079
409.0213	0.1899
409.2267	0.2238
409.432	0.1993
409.6374	0.2327
409.8427	0.2082
410.048	0.2078
410.2533	0.1945
410.4586	0.2263
410.6639	0.1922
410.8691	0.2059
411.0744	0.1993
411.2796	0.1975
411.4848	0.1961
411.69	0.1902
411.8952	0.2358
412.1004	0.201
412.3056	0.1989
412.5107	0.2038
412.7158	0.2043
412.921	0.1908
413.1261	0.2158
413.3312	0.205
413.5362	0.1974
413.7413	0.1954
413.9464	0.1957
414.1514	0.2056
414.3564	0.2026
414.5614	0.1934
414.7664	0.1994
414.9714	0.2035
415.1764	0.2136
415.3813	0.2074
415.5863	0.2053
415.7912	0.205
415.9961	0.2219
416.201	0.2118
416.4059	0.2044
416.6108	0.1923
416.8156	0.2062
417.0205	0.2185
417.2253	0.1932
417.4301	0.2037
417.6349	0.2027
417.8397	0.1935
418.0445	0.2013
418.2492	0.197
418.454	0.1979
418.6587	0.1928
418.8634	0.1939
419.0681	0.1892
419.2728	0.1818
419.4775	0.1876
419.6822	0.1992
419.8868	0.1633
420.0915	0.1862
420.2961	0.1767
420.5007	0.1828
420.7053	0.2071
420.9099	0.1996
421.1144	0.1819
421.319	0.1716
421.5235	0.1956
421.728	0.1881
421.9325	0.1916
422.137	0.1905
422.3415	0.1844
422.546	0.1856
422.7504	0.186
422.9549	0.1765
423.1593	0.203
423.3637	0.1817
423.5681	0.1763
423.7725	0.174
423.9769	0.1844
424.1812	0.1801
424.3856	0.1884
424.5899	0.187
424.7942	0.1638
424.9985	0.1793
425.2028	0.1606
425.4071	0.1907
425.6113	0.1592
425.8156	0.1731
426.0198	0.1725
426.224	0.1623
426.4282	0.1625
