Data from MonoPyChalIsomerACN10uM350nmA_Absorbance_14-35-33-618.txt Node
Date: Fri Jul 05 14:35:33 BST 2024
User: LASERRRRR
Spectrometer: FLMT03099
Trigger mode: 0
Integration Time (sec): 1.000000E-1
Scans to average: 1
Electric dark correction enabled: true
Nonlinearity correction enabled: false
Boxcar width: 0
XAxis mode: Wavelengths
Number of Pixels in Spectrum: 3648
>>>>>Begin Spectral Data<<<<<
179.3399	-0.1997
179.5586	-0.1997
179.7771	-0.1997
179.9957	0.1146
180.2143	1.1461
180.4329	-0
180.6514	0.1875
180.8699	-0
181.0885	0.3312
181.307	0.1395
181.5255	-1.0057
181.744	-0.5619
181.9625	-0
182.181	-0
182.3994	0.1814
182.6179	-0
182.8363	-0.1511
183.0547	0.6146
183.2732	0.1306
183.4916	0.1107
183.71	0.1942
183.9284	0.0365
184.1467	0.0462
184.3651	0.3791
184.5835	0.0095
184.8018	0.1103
185.0201	0.3695
185.2385	0.2136
185.4568	0.2917
185.6751	0.222
185.8934	0.2973
186.1117	0.1895
186.3299	0.112
186.5482	0.3739
186.7664	0.0004
186.9847	-0.0087
187.2029	0.0449
187.4211	0.1546
187.6393	0.301
187.8575	0.2613
188.0757	0.1509
188.2939	-0.0156
188.512	0.0702
188.7302	0.0915
188.9483	0.2306
189.1665	0.0222
189.3846	-0.1995
189.6027	0.1138
189.8208	0.6307
190.0389	0.2388
190.257	0.1475
190.475	0.0755
190.6931	0.4736
190.9111	0.513
191.1292	0.1944
191.3472	0.536
191.5652	0.3029
191.7832	0.3283
192.0012	0.301
192.2192	0.3258
192.4371	0.5963
192.6551	0.3052
192.873	0.6003
193.091	0.5465
193.3089	0.7271
193.5268	0.4837
193.7447	0.7087
193.9626	0.6176
194.1805	0.6346
194.3984	0.7803
194.6162	0.7105
194.8341	0.7765
195.0519	0.6614
195.2697	0.5628
195.4875	0.6869
195.7054	0.82
195.9231	0.5858
196.1409	0.5682
196.3587	0.5848
196.5765	0.6092
196.7942	0.5455
197.012	0.4539
197.2297	0.5474
197.4474	0.812
197.6651	0.4995
197.8828	0.5022
198.1005	0.8875
198.3182	0.5911
198.5358	0.8266
198.7535	0.7163
198.9711	0.6116
199.1888	0.751
199.4064	0.7512
199.624	0.6713
199.8416	0.5383
200.0592	0.6078
200.2767	0.62
200.4943	0.8072
200.7119	0.8719
200.9294	0.6756
201.1469	0.6525
201.3645	0.6394
201.582	0.5465
201.7995	0.7156
202.017	0.6077
202.2344	0.6329
202.4519	0.664
202.6694	0.7461
202.8868	0.6687
203.1042	0.6418
203.3217	0.764
203.5391	0.728
203.7565	0.563
203.9739	0.6325
204.1913	0.682
204.4086	0.7412
204.626	0.7734
204.8433	0.6527
205.0607	0.7046
205.278	0.6563
205.4953	0.602
205.7126	0.7952
205.9299	0.8012
206.1472	0.7865
206.3644	0.587
206.5817	0.7577
206.7989	0.7477
207.0162	0.6195
207.2334	0.6413
207.4506	0.6242
207.6678	0.5833
207.885	0.6719
208.1022	0.646
208.3194	0.6779
208.5365	0.6115
208.7537	0.6476
208.9708	0.5548
209.1879	0.663
209.405	0.7084
209.6222	0.642
209.8392	0.5822
210.0563	0.689
210.2734	0.6689
210.4905	0.6434
210.7075	0.6399
210.9245	0.6424
211.1416	0.7573
211.3586	0.6123
211.5756	0.6079
211.7926	0.612
212.0096	0.6029
212.2265	0.5845
212.4435	0.5528
212.6604	0.59
212.8774	0.5929
213.0943	0.6459
213.3112	0.4779
213.5281	0.5046
213.745	0.4925
213.9619	0.4951
214.1788	0.5161
214.3956	0.472
214.6125	0.4853
214.8293	0.4385
215.0461	0.4774
215.2629	0.5016
215.4798	0.472
215.6965	0.4117
215.9133	0.4286
216.1301	0.4228
216.3469	0.4647
216.5636	0.4054
216.7803	0.4071
216.9971	0.3752
217.2138	0.4077
217.4305	0.3532
217.6472	0.3679
217.8639	0.3851
218.0805	0.3275
218.2972	0.3103
218.5138	0.3128
218.7305	0.2997
218.9471	0.3183
219.1637	0.3023
219.3803	0.2916
219.5969	0.2858
219.8135	0.2393
220.0301	0.242
220.2466	0.2799
220.4632	0.2637
220.6797	0.2249
220.8962	0.2444
221.1127	0.2558
221.3292	0.2629
221.5457	0.2395
221.7622	0.2581
221.9787	0.2501
222.1951	0.2331
222.4116	0.246
222.628	0.2487
222.8444	0.2701
223.0608	0.2628
223.2772	0.2615
223.4936	0.2476
223.71	0.2603
223.9264	0.2614
224.1427	0.2814
224.3591	0.2472
224.5754	0.252
224.7917	0.2689
225.008	0.2532
225.2243	0.2401
225.4406	0.2736
225.6569	0.2767
225.8732	0.2845
226.0894	0.273
226.3057	0.2611
226.5219	0.2942
226.7381	0.2718
226.9543	0.2886
227.1705	0.2749
227.3867	0.3153
227.6029	0.2796
227.8191	0.2896
228.0352	0.3061
228.2513	0.3365
228.4675	0.3012
228.6836	0.3017
228.8997	0.284
229.1158	0.3167
229.3319	0.3056
229.548	0.3157
229.764	0.3185
229.9801	0.322
230.1961	0.3216
230.4121	0.3201
230.6282	0.3382
230.8442	0.3208
231.0602	0.3422
231.2761	0.375
231.4921	0.3446
231.7081	0.3585
231.924	0.3496
232.14	0.3675
232.3559	0.339
232.5718	0.3687
232.7877	0.3491
233.0036	0.358
233.2195	0.3586
233.4353	0.3641
233.6512	0.3701
233.867	0.3642
234.0829	0.3632
234.2987	0.3644
234.5145	0.3721
234.7303	0.3545
234.9461	0.3827
235.1619	0.3826
235.3776	0.4054
235.5934	0.3701
235.8091	0.3872
236.0249	0.383
236.2406	0.4153
236.4563	0.3841
236.672	0.3879
236.8877	0.4172
237.1034	0.3962
237.319	0.3865
237.5347	0.4174
237.7503	0.3949
237.966	0.4193
238.1816	0.4012
238.3972	0.4098
238.6128	0.3878
238.8284	0.4057
239.0439	0.4103
239.2595	0.4035
239.475	0.4174
239.6906	0.4049
239.9061	0.3922
240.1216	0.4156
240.3371	0.4151
240.5526	0.41
240.7681	0.4083
240.9836	0.4048
241.199	0.4018
241.4145	0.3814
241.6299	0.389
241.8453	0.3824
242.0607	0.3749
242.2761	0.3712
242.4915	0.3625
242.7069	0.3604
242.9223	0.3584
243.1376	0.3444
243.353	0.3471
243.5683	0.3479
243.7836	0.3275
243.9989	0.3236
244.2142	0.3017
244.4295	0.3235
244.6448	0.3054
244.86	0.291
245.0753	0.2879
245.2905	0.2834
245.5057	0.2696
245.721	0.27
245.9362	0.2793
246.1514	0.2599
246.3665	0.2616
246.5817	0.262
246.7969	0.268
247.012	0.2569
247.2271	0.2464
247.4423	0.2453
247.6574	0.2369
247.8725	0.2294
248.0876	0.2269
248.3026	0.2241
248.5177	0.2196
248.7328	0.2099
248.9478	0.2
249.1628	0.2026
249.3779	0.2061
249.5929	0.2018
249.8079	0.2286
250.0228	0.2061
250.2378	0.2023
250.4528	0.1917
250.6677	0.185
250.8827	0.2007
251.0976	0.193
251.3125	0.1846
251.5274	0.1823
251.7423	0.1882
251.9572	0.1832
252.172	0.1875
252.3869	0.1871
252.6017	0.1712
252.8166	0.1653
253.0314	0.1739
253.2462	0.1619
253.461	0.176
253.6758	0.1803
253.8906	0.1681
254.1053	0.1665
254.3201	0.1628
254.5348	0.181
254.7496	0.183
254.9643	0.1726
255.179	0.1785
255.3937	0.1663
255.6083	0.1693
255.823	0.1735
256.0377	0.1654
256.2523	0.1735
256.467	0.1601
256.6816	0.1653
256.8962	0.1802
257.1108	0.1554
257.3254	0.1656
257.54	0.1717
257.7545	0.1678
257.9691	0.1761
258.1836	0.1747
258.3981	0.1785
258.6127	0.1766
258.8272	0.1603
259.0417	0.1615
259.2561	0.1502
259.4706	0.1738
259.6851	0.1755
259.8995	0.1719
260.114	0.15
260.3284	0.1479
260.5428	0.1565
260.7572	0.18
260.9716	0.1687
261.186	0.153
261.4003	0.1641
261.6147	0.1735
261.829	0.1545
262.0433	0.1624
262.2577	0.1697
262.472	0.17
262.6863	0.1618
262.9005	0.1629
263.1148	0.1705
263.3291	0.1464
263.5433	0.1623
263.7576	0.1567
263.9718	0.1672
264.186	0.1496
264.4002	0.1557
264.6144	0.1622
264.8286	0.1739
265.0427	0.1631
265.2569	0.1712
265.471	0.1636
265.6851	0.1528
265.8993	0.1501
266.1134	0.1573
266.3275	0.1508
266.5415	0.1563
266.7556	0.1673
266.9697	0.1653
267.1837	0.1748
267.3978	0.1567
267.6118	0.1688
267.8258	0.1742
268.0398	0.1518
268.2538	0.166
268.4677	0.165
268.6817	0.1478
268.8957	0.1488
269.1096	0.169
269.3235	0.1551
269.5374	0.1572
269.7514	0.1505
269.9652	0.153
270.1791	0.1466
270.393	0.1471
270.6068	0.1607
270.8207	0.1404
271.0345	0.1389
271.2483	0.1631
271.4622	0.1463
271.676	0.1441
271.8897	0.1468
272.1035	0.1356
272.3173	0.1375
272.531	0.1402
272.7448	0.1457
272.9585	0.1394
273.1722	0.1418
273.3859	0.1405
273.5996	0.1332
273.8133	0.1354
274.0269	0.147
274.2406	0.1405
274.4542	0.1389
274.6679	0.1335
274.8815	0.1405
275.0951	0.1439
275.3087	0.1515
275.5223	0.1429
275.7358	0.1297
275.9494	0.1487
276.1629	0.1303
276.3765	0.1341
276.59	0.1306
276.8035	0.1465
277.017	0.1406
277.2305	0.1331
277.444	0.1389
277.6574	0.1377
277.8709	0.1336
278.0843	0.1352
278.2978	0.1389
278.5112	0.1393
278.7246	0.1478
278.938	0.1393
279.1513	0.1545
279.3647	0.1452
279.5781	0.1419
279.7914	0.1497
280.0047	0.1583
280.2181	0.1454
280.4314	0.1476
280.6447	0.1573
280.8579	0.1538
281.0712	0.1481
281.2845	0.1458
281.4977	0.1412
281.711	0.1385
281.9242	0.1521
282.1374	0.1622
282.3506	0.1432
282.5638	0.1472
282.7769	0.1578
282.9901	0.1476
283.2033	0.1551
283.4164	0.1597
283.6295	0.1444
283.8426	0.1399
284.0557	0.1456
284.2688	0.1718
284.4819	0.1629
284.695	0.1517
284.908	0.1559
285.1211	0.1387
285.3341	0.1438
285.5471	0.1647
285.7601	0.1513
285.9731	0.1463
286.1861	0.1529
286.3991	0.1611
286.612	0.17
286.825	0.1597
287.0379	0.1557
287.2508	0.1629
287.4637	0.168
287.6766	0.155
287.8895	0.1622
288.1024	0.1837
288.3152	0.1643
288.5281	0.1501
288.7409	0.172
288.9538	0.1583
289.1666	0.1721
289.3794	0.1666
289.5922	0.1645
289.8049	0.1627
290.0177	0.1606
290.2304	0.1708
290.4432	0.1663
290.6559	0.1709
290.8686	0.1576
291.0813	0.1659
291.294	0.1616
291.5067	0.1781
291.7194	0.1601
291.932	0.1849
292.1447	0.1649
292.3573	0.1635
292.5699	0.1763
292.7825	0.1701
292.9951	0.1621
293.2077	0.1635
293.4203	0.1559
293.6328	0.1657
293.8454	0.1637
294.0579	0.1646
294.2704	0.17
294.4829	0.1675
294.6954	0.1736
294.9079	0.1622
295.1204	0.1619
295.3328	0.1649
295.5453	0.1705
295.7577	0.1831
295.9701	0.1601
296.1825	0.17
296.3949	0.1681
296.6073	0.1581
296.8197	0.1635
297.0321	0.1801
297.2444	0.1609
297.4567	0.1705
297.6691	0.176
297.8814	0.1659
298.0937	0.169
298.306	0.177
298.5182	0.1667
298.7305	0.1803
298.9428	0.1667
299.155	0.1701
299.3672	0.1622
299.5794	0.1584
299.7916	0.1608
300.0038	0.1756
300.216	0.1638
300.4282	0.1847
300.6403	0.1637
300.8525	0.1734
301.0646	0.1638
301.2767	0.1706
301.4888	0.1661
301.7009	0.1676
301.913	0.1703
302.125	0.1817
302.3371	0.1666
302.5491	0.1648
302.7612	0.1723
302.9732	0.1632
303.1852	0.164
303.3972	0.1655
303.6092	0.1613
303.8211	0.1611
304.0331	0.1627
304.245	0.1518
304.457	0.1498
304.6689	0.1599
304.8808	0.17
305.0927	0.1543
305.3046	0.1497
305.5164	0.1636
305.7283	0.1414
305.9401	0.1592
306.152	0.1488
306.3638	0.1494
306.5756	0.1514
306.7874	0.1501
306.9992	0.1531
307.2109	0.1501
307.4227	0.1328
307.6344	0.1395
307.8462	0.1348
308.0579	0.133
308.2696	0.1346
308.4813	0.1368
308.693	0.1312
308.9046	0.1341
309.1163	0.1397
309.328	0.1301
309.5396	0.1268
309.7512	0.1273
309.9628	0.1232
310.1744	0.1277
310.386	0.1228
310.5976	0.1174
310.8091	0.1137
311.0207	0.1102
311.2322	0.1109
311.4437	0.1039
311.6552	0.0981
311.8667	0.1077
312.0782	0.0994
312.2897	0.1072
312.5012	0.1136
312.7126	0.1082
312.924	0.0982
313.1355	0.1129
313.3469	0.1059
313.5583	0.1146
313.7696	0.1111
313.981	0.1011
314.1924	0.0969
314.4037	0.1045
314.6151	0.1117
314.8264	0.0925
315.0377	0.1018
315.249	0.1088
315.4603	0.1025
315.6716	0.0943
315.8828	0.0991
316.0941	0.0976
316.3053	0.102
316.5165	0.0928
316.7277	0.0916
316.9389	0.1089
317.1501	0.0927
317.3613	0.108
317.5724	0.0838
317.7836	0.1
317.9947	0.0964
318.2058	0.0972
318.417	0.0804
318.6281	0.0737
318.8391	0.0926
319.0502	0.0881
319.2613	0.094
319.4723	0.0909
319.6834	0.1003
319.8944	0.0949
320.1054	0.0933
320.3164	0.1052
320.5274	0.0953
320.7383	0.0962
320.9493	0.0923
321.1602	0.1065
321.3712	0.073
321.5821	0.094
321.793	0.1085
322.0039	0.0984
322.2148	0.0922
322.4257	0.0984
322.6365	0.1113
322.8474	0.1022
323.0582	0.0998
323.269	0.0963
323.4798	0.1095
323.6906	0.0838
323.9014	0.1
324.1122	0.094
324.3229	0.0846
324.5337	0.1035
324.7444	0.0953
324.9551	0.1146
325.1658	0.1037
325.3765	0.0965
325.5872	0.103
325.7979	0.0897
326.0085	0.1039
326.2192	0.1011
326.4298	0.1048
326.6404	0.0964
326.851	0.0939
327.0616	0.0936
327.2722	0.1047
327.4828	0.1016
327.6933	0.105
327.9039	0.1092
328.1144	0.1118
328.3249	0.1123
328.5354	0.0879
328.7459	0.1048
328.9564	0.0977
329.1669	0.1012
329.3773	0.1067
329.5878	0.0968
329.7982	0.1037
330.0086	0.0928
330.219	0.1037
330.4294	0.1006
330.6398	0.0987
330.8502	0.088
331.0605	0.1006
331.2708	0.1057
331.4812	0.1043
331.6915	0.1099
331.9018	0.103
332.1121	0.1118
332.3224	0.1031
332.5326	0.1091
332.7429	0.109
332.9531	0.1192
333.1633	0.0998
333.3735	0.1119
333.5837	0.1079
333.7939	0.0995
334.0041	0.1138
334.2143	0.1054
334.4244	0.1054
334.6346	0.0858
334.8447	0.1035
335.0548	0.1003
335.2649	0.1009
335.475	0.1068
335.685	0.103
335.8951	0.1065
336.1051	0.1028
336.3152	0.1104
336.5252	0.1033
336.7352	0.112
336.9452	0.1122
337.1552	0.1169
337.3652	0.1044
337.5751	0.107
337.7851	0.1088
337.995	0.1018
338.2049	0.1145
338.4148	0.1117
338.6247	0.1126
338.8346	0.0944
339.0445	0.0983
339.2543	0.0992
339.4642	0.1177
339.674	0.1004
339.8838	0.1088
340.0936	0.1101
340.3034	0.123
340.5132	0.121
340.7229	0.1084
340.9327	0.1107
341.1424	0.1114
341.3522	0.1206
341.5619	0.1323
341.7716	0.1162
341.9813	0.1157
342.1909	0.1035
342.4006	0.1263
342.6102	0.1197
342.8199	0.1205
343.0295	0.103
343.2391	0.1254
343.4487	0.118
343.6583	0.1123
343.8679	0.1319
344.0774	0.1284
344.287	0.1142
344.4965	0.1279
344.706	0.125
344.9155	0.1228
345.125	0.1166
345.3345	0.1234
345.544	0.1216
345.7534	0.1228
345.9629	0.1232
346.1723	0.1298
346.3817	0.1083
346.5911	0.1238
346.8005	0.1412
347.0099	0.1298
347.2193	0.1288
347.4286	0.1153
347.638	0.134
347.8473	0.134
348.0566	0.1366
348.2659	0.1387
348.4752	0.129
348.6845	0.132
348.8937	0.1326
349.103	0.1391
349.3122	0.1365
349.5214	0.1189
349.7306	0.1407
349.9398	0.1411
350.149	0.1359
350.3582	0.1396
350.5674	0.1305
350.7765	0.1375
350.9856	0.1311
351.1948	0.1369
351.4039	0.1411
351.613	0.1285
351.822	0.1437
352.0311	0.1516
352.2402	0.1422
352.4492	0.1423
352.6582	0.1505
352.8672	0.1425
353.0762	0.1385
353.2852	0.147
353.4942	0.1573
353.7032	0.1407
353.9121	0.1501
354.1211	0.1556
354.33	0.1437
354.5389	0.1435
354.7478	0.151
354.9567	0.151
355.1655	0.1389
355.3744	0.1546
355.5833	0.1573
355.7921	0.1814
356.0009	0.1655
356.2097	0.1575
356.4185	0.1669
356.6273	0.1697
356.8361	0.1625
357.0448	0.1593
357.2536	0.157
357.4623	0.1607
357.671	0.1631
357.8797	0.1728
358.0884	0.1643
358.2971	0.1658
358.5057	0.1647
358.7144	0.1667
358.923	0.1724
359.1316	0.1698
359.3402	0.1885
359.5488	0.1763
359.7574	0.1583
359.966	0.1662
360.1746	0.1752
360.3831	0.1794
360.5916	0.1811
360.8002	0.1671
361.0087	0.205
361.2172	0.1804
361.4256	0.1812
361.6341	0.1746
361.8426	0.1855
362.051	0.1866
362.2594	0.1757
362.4678	0.177
362.6762	0.2046
362.8846	0.1834
363.093	0.1864
363.3014	0.1935
363.5097	0.1832
363.718	0.1879
363.9264	0.2104
364.1347	0.1839
364.343	0.1986
364.5513	0.2018
364.7595	0.1981
364.9678	0.1972
365.176	0.1949
365.3842	0.198
365.5925	0.2011
365.8007	0.1982
366.0089	0.1979
366.217	0.1934
366.4252	0.2121
366.6333	0.2221
366.8415	0.2158
367.0496	0.1949
367.2577	0.2232
367.4658	0.2158
367.6739	0.2155
367.882	0.2314
368.09	0.2014
368.2981	0.209
368.5061	0.2069
368.7141	0.2167
368.9221	0.2245
369.1301	0.2093
369.3381	0.2129
369.5461	0.2024
369.754	0.2226
369.962	0.2222
370.1699	0.2313
370.3778	0.2229
370.5857	0.2227
370.7936	0.2148
371.0015	0.2088
371.2093	0.2123
371.4172	0.2407
371.625	0.2198
371.8328	0.2189
372.0406	0.2203
372.2484	0.2375
372.4562	0.2336
372.664	0.2181
372.8717	0.2394
373.0795	0.2155
373.2872	0.2197
373.4949	0.2286
373.7026	0.2473
373.9103	0.2621
374.118	0.2522
374.3256	0.243
374.5333	0.2444
374.7409	0.2254
374.9485	0.2374
375.1561	0.247
375.3637	0.2436
375.5713	0.2476
375.7789	0.2302
375.9864	0.2545
376.194	0.2435
376.4015	0.2351
376.609	0.2437
376.8165	0.2378
377.024	0.2482
377.2315	0.2353
377.4389	0.2516
377.6464	0.2704
377.8538	0.2585
378.0612	0.2478
378.2686	0.2537
378.476	0.2668
378.6834	0.2493
378.8908	0.2497
379.0981	0.2579
379.3055	0.2641
379.5128	0.2483
379.7201	0.2718
379.9274	0.2458
380.1347	0.2497
380.342	0.2677
380.5492	0.2634
380.7565	0.2691
380.9637	0.2565
381.1709	0.2646
381.3781	0.2485
381.5853	0.2583
381.7925	0.2572
381.9997	0.2779
382.2068	0.2743
382.4139	0.2756
382.6211	0.257
382.8282	0.2682
383.0353	0.264
383.2424	0.2649
383.4494	0.2636
383.6565	0.2618
383.8635	0.2754
384.0706	0.2515
384.2776	0.2607
384.4846	0.2619
384.6916	0.2753
384.8986	0.2691
385.1055	0.2795
385.3125	0.265
385.5194	0.2503
385.7263	0.2776
385.9333	0.2647
386.1402	0.2624
386.347	0.2718
386.5539	0.2694
386.7608	0.2781
386.9676	0.2701
387.1744	0.2888
387.3813	0.2587
387.5881	0.2739
387.7948	0.2674
388.0016	0.2739
388.2084	0.2698
388.4151	0.2497
388.6219	0.2652
388.8286	0.2659
389.0353	0.2718
389.242	0.2725
389.4487	0.2515
389.6553	0.2442
389.862	0.2434
390.0686	0.25
390.2753	0.2607
390.4819	0.2582
390.6885	0.2575
390.8951	0.267
391.1016	0.2475
391.3082	0.2597
391.5147	0.2465
391.7213	0.2512
391.9278	0.2511
392.1343	0.2441
392.3408	0.2429
392.5473	0.2407
392.7537	0.2414
392.9602	0.2522
393.1666	0.2257
393.373	0.2382
393.5794	0.2561
393.7858	0.2485
393.9922	0.2356
394.1986	0.2315
394.4049	0.246
394.6113	0.2268
394.8176	0.2217
395.0239	0.2232
395.2302	0.2388
395.4365	0.2298
395.6428	0.2374
395.8491	0.2412
396.0553	0.2257
396.2615	0.2267
396.4678	0.2218
396.674	0.2187
396.8802	0.2327
397.0863	0.2417
397.2925	0.2212
397.4987	0.2133
397.7048	0.206
397.9109	0.2114
398.117	0.2253
398.3231	0.2159
398.5292	0.2255
398.7353	0.2397
398.9413	0.2258
399.1474	0.222
399.3534	0.228
399.5594	0.2227
399.7654	0.248
399.9714	0.2348
400.1774	0.2077
400.3833	0.2214
400.5893	0.2285
400.7952	0.22
401.0011	0.2218
401.207	0.2321
401.4129	0.2263
401.6188	0.2341
401.8247	0.2224
402.0305	0.1981
402.2364	0.2187
402.4422	0.2381
402.648	0.2237
402.8538	0.2226
403.0596	0.2177
403.2654	0.2253
403.4711	0.215
403.6768	0.2404
403.8826	0.2327
404.0883	0.2285
404.294	0.2249
404.4997	0.2246
404.7054	0.2303
404.911	0.2162
405.1167	0.2201
405.3223	0.22
405.5279	0.2291
405.7335	0.2395
405.9391	0.233
406.1447	0.2176
406.3502	0.2433
406.5558	0.2169
406.7613	0.2172
406.9668	0.2235
407.1724	0.2154
407.3778	0.2232
407.5833	0.22
407.7888	0.2245
407.9942	0.2308
408.1997	0.217
408.4051	0.2278
408.6105	0.2189
408.8159	0.2259
409.0213	0.2207
409.2267	0.2442
409.432	0.2009
409.6374	0.2273
409.8427	0.208
410.048	0.2246
410.2533	0.2272
410.4586	0.2334
410.6639	0.2189
410.8691	0.2028
411.0744	0.2126
411.2796	0.2087
411.4848	0.2283
411.69	0.2136
411.8952	0.2356
412.1004	0.2114
412.3056	0.2122
412.5107	0.2174
412.7158	0.2298
412.921	0.2175
413.1261	0.2113
413.3312	0.2314
413.5362	0.2201
413.7413	0.2141
413.9464	0.2154
414.1514	0.2264
414.3564	0.2293
414.5614	0.2086
414.7664	0.2205
414.9714	0.2198
415.1764	0.2087
415.3813	0.2221
415.5863	0.2047
415.7912	0.2266
415.9961	0.2289
416.201	0.229
416.4059	0.2122
416.6108	0.2054
416.8156	0.2274
417.0205	0.1991
417.2253	0.2113
417.4301	0.2039
417.6349	0.2152
417.8397	0.2186
418.0445	0.2214
418.2492	0.2214
418.454	0.1988
418.6587	0.215
418.8634	0.2148
419.0681	0.2044
419.2728	0.2167
419.4775	0.1978
419.6822	0.2086
419.8868	0.1937
420.0915	0.1866
420.2961	0.1889
420.5007	0.2118
420.7053	0.2054
420.9099	0.2153
421.1144	0.1908
421.319	0.1867
421.5235	0.2121
421.728	0.2081
421.9325	0.2023
422.137	0.2321
422.3415	0.2101
422.546	0.2099
422.7504	0.1986
422.9549	0.2172
423.1593	0.2087
423.3637	0.1957
423.5681	0.1868
423.7725	0.184
423.9769	0.1997
424.1812	0.1939
424.3856	0.1892
424.5899	0.2149
424.7942	0.1793
424.9985	0.1962
425.2028	0.1956
425.4071	0.2133
425.6113	0.1904
425.8156	0.1788
426.0198	0.1797
426.224	0.1886
426.4282	0.1779
426.6324	0.1817
426.8366	0.1855
