Data from MonoPyChalIsomerACN10uM350nmA_Absorbance_14-35-39-414.txt Node
Date: Fri Jul 05 14:35:39 BST 2024
User: LASERRRRR
Spectrometer: FLMT03099
Trigger mode: 0
Integration Time (sec): 1.000000E-1
Scans to average: 1
Electric dark correction enabled: true
Nonlinearity correction enabled: false
Boxcar width: 0
XAxis mode: Wavelengths
Number of Pixels in Spectrum: 3648
>>>>>Begin Spectral Data<<<<<
179.3399	0.4383
179.5586	0.4383
179.7771	0.4383
179.9957	0.3158
180.2143	-0
180.4329	-0.2674
180.6514	0.5792
180.8699	-0
181.0885	0.1647
181.307	0.1746
181.5255	-0.4331
181.744	-0.5349
181.9625	-0
182.181	-0
182.3994	-0
182.6179	0.5545
182.8363	-0.0772
183.0547	-0.1744
183.2732	0.2517
183.4916	-0.0398
183.71	0.1912
183.9284	0.152
184.1467	-0.1113
184.3651	0.0076
184.5835	-0.0238
184.8018	0.2734
185.0201	0.2637
185.2385	-0.0072
185.4568	0.0978
185.6751	0.3248
185.8934	0.1364
186.1117	-0.0339
186.3299	0.2153
186.5482	0.2585
186.7664	-0.1321
186.9847	0.0073
187.2029	0.0653
187.4211	0.0819
187.6393	0.1469
187.8575	-0.206
188.0757	0.2148
188.2939	0.1585
188.512	0.1254
188.7302	-0.036
188.9483	0.1471
189.1665	0.2255
189.3846	0.1256
189.6027	0.1391
189.8208	0.3332
190.0389	0.2313
190.257	0.2126
190.475	0.2095
190.6931	0.4151
190.9111	0.2703
191.1292	0.1438
191.3472	0.7344
191.5652	0.2323
191.7832	0.2535
192.0012	0.4159
192.2192	0.3992
192.4371	0.5717
192.6551	0.5058
192.873	0.5326
193.091	0.4133
193.3089	0.7817
193.5268	0.5402
193.7447	0.566
193.9626	0.552
194.1805	0.7199
194.3984	0.8439
194.6162	0.7072
194.8341	0.6179
195.0519	0.4821
195.2697	0.9928
195.4875	0.7947
195.7054	0.5281
195.9231	0.5998
196.1409	0.6361
196.3587	0.7539
196.5765	0.6223
196.7942	0.6121
197.012	0.6492
197.2297	0.4967
197.4474	0.7528
197.6651	0.4952
197.8828	0.5804
198.1005	0.661
198.3182	0.5734
198.5358	0.8
198.7535	0.6268
198.9711	0.7236
199.1888	0.6396
199.4064	0.7964
199.624	0.6656
199.8416	0.5445
200.0592	0.5645
200.2767	0.6632
200.4943	0.6966
200.7119	0.729
200.9294	0.8128
201.1469	0.5726
201.3645	0.6233
201.582	0.6333
201.7995	0.6656
202.017	0.5988
202.2344	0.6596
202.4519	0.7889
202.6694	0.5801
202.8868	0.5634
203.1042	0.8502
203.3217	0.6712
203.5391	0.7507
203.7565	0.6537
203.9739	0.6875
204.1913	0.5394
204.4086	0.5946
204.626	0.7975
204.8433	0.6684
205.0607	0.6091
205.278	0.6803
205.4953	0.6713
205.7126	0.6932
205.9299	0.69
206.1472	0.6594
206.3644	0.6774
206.5817	0.6978
206.7989	0.7717
207.0162	0.7222
207.2334	0.6386
207.4506	0.6364
207.6678	0.6364
207.885	0.5948
208.1022	0.6353
208.3194	0.6248
208.5365	0.6576
208.7537	0.6109
208.9708	0.5705
209.1879	0.6211
209.405	0.6269
209.6222	0.691
209.8392	0.64
210.0563	0.6613
210.2734	0.6876
210.4905	0.6514
210.7075	0.6482
210.9245	0.6002
211.1416	0.7659
211.3586	0.5638
211.5756	0.583
211.7926	0.6238
212.0096	0.587
212.2265	0.5293
212.4435	0.5597
212.6604	0.6326
212.8774	0.5661
213.0943	0.5832
213.3112	0.5437
213.5281	0.5334
213.745	0.5287
213.9619	0.485
214.1788	0.4882
214.3956	0.4574
214.6125	0.4827
214.8293	0.424
215.0461	0.4954
215.2629	0.4748
215.4798	0.5077
215.6965	0.4047
215.9133	0.465
216.1301	0.3994
216.3469	0.4292
216.5636	0.4352
216.7803	0.3813
216.9971	0.3845
217.2138	0.3562
217.4305	0.3678
217.6472	0.346
217.8639	0.3626
218.0805	0.3443
218.2972	0.3255
218.5138	0.3414
218.7305	0.3332
218.9471	0.3049
219.1637	0.2791
219.3803	0.2889
219.5969	0.2711
219.8135	0.2638
220.0301	0.2795
220.2466	0.293
220.4632	0.2724
220.6797	0.2404
220.8962	0.2453
221.1127	0.2427
221.3292	0.248
221.5457	0.2278
221.7622	0.2242
221.9787	0.2683
222.1951	0.244
222.4116	0.2564
222.628	0.2753
222.8444	0.2545
223.0608	0.2415
223.2772	0.2554
223.4936	0.2773
223.71	0.2558
223.9264	0.2568
224.1427	0.2429
224.3591	0.2586
224.5754	0.2653
224.7917	0.2564
225.008	0.291
225.2243	0.2348
225.4406	0.2834
225.6569	0.2804
225.8732	0.2408
226.0894	0.2769
226.3057	0.2587
226.5219	0.2844
226.7381	0.256
226.9543	0.2731
227.1705	0.2831
227.3867	0.2736
227.6029	0.3015
227.8191	0.2816
228.0352	0.2876
228.2513	0.3045
228.4675	0.3029
228.6836	0.3065
228.8997	0.2866
229.1158	0.3058
229.3319	0.3212
229.548	0.3167
229.764	0.3134
229.9801	0.3378
230.1961	0.3045
230.4121	0.355
230.6282	0.3429
230.8442	0.3084
231.0602	0.3354
231.2761	0.355
231.4921	0.3433
231.7081	0.3592
231.924	0.3591
232.14	0.361
232.3559	0.3403
232.5718	0.3643
232.7877	0.3583
233.0036	0.3695
233.2195	0.3504
233.4353	0.3427
233.6512	0.3487
233.867	0.3803
234.0829	0.362
234.2987	0.3664
234.5145	0.3681
234.7303	0.3591
234.9461	0.3708
235.1619	0.3677
235.3776	0.362
235.5934	0.3694
235.8091	0.3686
236.0249	0.365
236.2406	0.3891
236.4563	0.3771
236.672	0.4008
236.8877	0.379
237.1034	0.3852
237.319	0.4032
237.5347	0.3894
237.7503	0.3993
237.966	0.394
238.1816	0.403
238.3972	0.3873
238.6128	0.3967
238.8284	0.4099
239.0439	0.4133
239.2595	0.398
239.475	0.4261
239.6906	0.4013
239.9061	0.4013
240.1216	0.4022
240.3371	0.4086
240.5526	0.398
240.7681	0.4159
240.9836	0.4036
241.199	0.3906
241.4145	0.395
241.6299	0.3842
241.8453	0.3748
242.0607	0.3836
242.2761	0.3596
242.4915	0.3828
242.7069	0.3751
242.9223	0.354
243.1376	0.3484
243.353	0.3545
243.5683	0.3698
243.7836	0.3249
243.9989	0.3314
244.2142	0.3119
244.4295	0.3179
244.6448	0.3065
244.86	0.2948
245.0753	0.2772
245.2905	0.2892
245.5057	0.2769
245.721	0.2745
245.9362	0.262
246.1514	0.2685
246.3665	0.2599
246.5817	0.258
246.7969	0.269
247.012	0.2456
247.2271	0.2351
247.4423	0.2425
247.6574	0.2443
247.8725	0.2312
248.0876	0.2271
248.3026	0.2292
248.5177	0.2317
248.7328	0.2233
248.9478	0.2034
249.1628	0.2173
249.3779	0.2057
249.5929	0.2074
249.8079	0.2162
250.0228	0.2103
250.2378	0.2058
250.4528	0.1978
250.6677	0.1901
250.8827	0.1822
251.0976	0.1877
251.3125	0.1941
251.5274	0.1744
251.7423	0.1767
251.9572	0.1952
252.172	0.183
252.3869	0.177
252.6017	0.1842
252.8166	0.1695
253.0314	0.1685
253.2462	0.1623
253.461	0.1808
253.6758	0.1677
253.8906	0.1805
254.1053	0.1635
254.3201	0.1817
254.5348	0.1779
254.7496	0.1824
254.9643	0.165
255.179	0.1665
255.3937	0.1586
255.6083	0.1668
255.823	0.1851
256.0377	0.1762
256.2523	0.1579
256.467	0.1317
256.6816	0.172
256.8962	0.1592
257.1108	0.1644
257.3254	0.1763
257.54	0.1626
257.7545	0.1617
257.9691	0.1672
258.1836	0.159
258.3981	0.1767
258.6127	0.1701
258.8272	0.1686
259.0417	0.1662
259.2561	0.1595
259.4706	0.1576
259.6851	0.1673
259.8995	0.1481
260.114	0.1542
260.3284	0.1634
260.5428	0.1515
260.7572	0.1572
260.9716	0.1693
261.186	0.1577
261.4003	0.1541
261.6147	0.1685
261.829	0.1586
262.0433	0.1581
262.2577	0.1585
262.472	0.1679
262.6863	0.1604
262.9005	0.1769
263.1148	0.1657
263.3291	0.1515
263.5433	0.1674
263.7576	0.1529
263.9718	0.1569
264.186	0.1537
264.4002	0.1516
264.6144	0.1517
264.8286	0.1726
265.0427	0.1647
265.2569	0.1639
265.471	0.1708
265.6851	0.1441
265.8993	0.1563
266.1134	0.156
266.3275	0.1618
266.5415	0.1595
266.7556	0.1675
266.9697	0.1637
267.1837	0.1684
267.3978	0.1567
267.6118	0.1647
267.8258	0.1664
268.0398	0.1441
268.2538	0.1733
268.4677	0.1602
268.6817	0.1543
268.8957	0.1476
269.1096	0.1722
269.3235	0.1579
269.5374	0.1591
269.7514	0.1551
269.9652	0.1617
270.1791	0.1521
270.393	0.1409
270.6068	0.1685
270.8207	0.1549
271.0345	0.1479
271.2483	0.151
271.4622	0.1493
271.676	0.1499
271.8897	0.1432
272.1035	0.1593
272.3173	0.1508
272.531	0.1406
272.7448	0.1415
272.9585	0.141
273.1722	0.1542
273.3859	0.1515
273.5996	0.1355
273.8133	0.144
274.0269	0.1329
274.2406	0.149
274.4542	0.1491
274.6679	0.1474
274.8815	0.1468
275.0951	0.1411
275.3087	0.1523
275.5223	0.149
275.7358	0.1448
275.9494	0.1421
276.1629	0.1432
276.3765	0.1517
276.59	0.1462
276.8035	0.1526
277.017	0.1509
277.2305	0.1455
277.444	0.1603
277.6574	0.1453
277.8709	0.1625
278.0843	0.1341
278.2978	0.1471
278.5112	0.1395
278.7246	0.1455
278.938	0.1556
279.1513	0.1466
279.3647	0.1457
279.5781	0.148
279.7914	0.1375
280.0047	0.1571
280.2181	0.1556
280.4314	0.1525
280.6447	0.1565
280.8579	0.1516
281.0712	0.1636
281.2845	0.1515
281.4977	0.1567
281.711	0.1466
281.9242	0.1549
282.1374	0.1454
282.3506	0.1564
282.5638	0.1547
282.7769	0.1482
282.9901	0.1489
283.2033	0.1588
283.4164	0.1662
283.6295	0.1444
283.8426	0.1528
284.0557	0.162
284.2688	0.1767
284.4819	0.1618
284.695	0.1632
284.908	0.1582
285.1211	0.1442
285.3341	0.1506
285.5471	0.1571
285.7601	0.1579
285.9731	0.1529
286.1861	0.1564
286.3991	0.1683
286.612	0.1775
286.825	0.1633
287.0379	0.1652
287.2508	0.1548
287.4637	0.1629
287.6766	0.1537
287.8895	0.169
288.1024	0.1848
288.3152	0.1638
288.5281	0.1552
288.7409	0.1533
288.9538	0.1536
289.1666	0.1568
289.3794	0.154
289.5922	0.1586
289.8049	0.1618
290.0177	0.1635
290.2304	0.1714
290.4432	0.1609
290.6559	0.1546
290.8686	0.1664
291.0813	0.1523
291.294	0.1557
291.5067	0.1805
291.7194	0.1645
291.932	0.167
292.1447	0.1627
292.3573	0.1586
292.5699	0.1685
292.7825	0.169
292.9951	0.1593
293.2077	0.1562
293.4203	0.1692
293.6328	0.1535
293.8454	0.1805
294.0579	0.1665
294.2704	0.1627
294.4829	0.1491
294.6954	0.1593
294.9079	0.1661
295.1204	0.1612
295.3328	0.167
295.5453	0.162
295.7577	0.1551
295.9701	0.1435
296.1825	0.1616
296.3949	0.1603
296.6073	0.1613
296.8197	0.1569
297.0321	0.174
297.2444	0.1531
297.4567	0.1667
297.6691	0.1635
297.8814	0.1522
298.0937	0.1637
298.306	0.1587
298.5182	0.1651
298.7305	0.1672
298.9428	0.1637
299.155	0.1606
299.3672	0.1543
299.5794	0.1579
299.7916	0.1566
300.0038	0.1713
300.216	0.1653
300.4282	0.1768
300.6403	0.1566
300.8525	0.1719
301.0646	0.1602
301.2767	0.1578
301.4888	0.1635
301.7009	0.1665
301.913	0.1625
302.125	0.1625
302.3371	0.1568
302.5491	0.1559
302.7612	0.1678
302.9732	0.1688
303.1852	0.1658
303.3972	0.1527
303.6092	0.1649
303.8211	0.1581
304.0331	0.1477
304.245	0.1531
304.457	0.1464
304.6689	0.155
304.8808	0.1519
305.0927	0.1454
305.3046	0.156
305.5164	0.159
305.7283	0.1471
305.9401	0.152
306.152	0.144
306.3638	0.1497
306.5756	0.143
306.7874	0.1517
306.9992	0.1546
307.2109	0.1388
307.4227	0.1248
307.6344	0.1348
307.8462	0.1332
308.0579	0.1358
308.2696	0.1342
308.4813	0.1321
308.693	0.1274
308.9046	0.1442
309.1163	0.129
309.328	0.1279
309.5396	0.1223
309.7512	0.1182
309.9628	0.1209
310.1744	0.1181
310.386	0.1258
310.5976	0.1127
310.8091	0.1206
311.0207	0.109
311.2322	0.1241
311.4437	0.109
311.6552	0.1054
311.8667	0.1249
312.0782	0.0956
312.2897	0.1012
312.5012	0.12
312.7126	0.1044
312.924	0.0994
313.1355	0.1129
313.3469	0.1082
313.5583	0.1106
313.7696	0.1085
313.981	0.1107
314.1924	0.0993
314.4037	0.109
314.6151	0.11
314.8264	0.1
315.0377	0.1062
315.249	0.1018
315.4603	0.1185
315.6716	0.0979
315.8828	0.0995
316.0941	0.093
316.3053	0.1003
316.5165	0.0992
316.7277	0.0929
316.9389	0.1027
317.1501	0.0994
317.3613	0.0982
317.5724	0.0895
317.7836	0.1028
317.9947	0.1002
318.2058	0.0955
318.417	0.0896
318.6281	0.1001
318.8391	0.0896
319.0502	0.0921
319.2613	0.1046
319.4723	0.101
319.6834	0.1105
319.8944	0.0837
320.1054	0.1138
320.3164	0.1007
320.5274	0.0989
320.7383	0.0928
320.9493	0.0958
321.1602	0.104
321.3712	0.0905
321.5821	0.1106
321.793	0.1127
322.0039	0.094
322.2148	0.0905
322.4257	0.1051
322.6365	0.1041
322.8474	0.113
323.0582	0.1043
323.269	0.1033
323.4798	0.1012
323.6906	0.1001
323.9014	0.1048
324.1122	0.1102
324.3229	0.104
324.5337	0.1078
324.7444	0.0878
324.9551	0.1131
325.1658	0.1125
325.3765	0.1097
325.5872	0.104
325.7979	0.1033
326.0085	0.1061
326.2192	0.1065
326.4298	0.1115
326.6404	0.0998
326.851	0.0863
327.0616	0.0995
327.2722	0.1093
327.4828	0.1132
327.6933	0.0914
327.9039	0.1154
328.1144	0.1097
328.3249	0.117
328.5354	0.1027
328.7459	0.1108
328.9564	0.1038
329.1669	0.1095
329.3773	0.1121
329.5878	0.1104
329.7982	0.1064
330.0086	0.1076
330.219	0.1144
330.4294	0.1037
330.6398	0.1048
330.8502	0.1041
331.0605	0.1078
331.2708	0.1126
331.4812	0.1209
331.6915	0.111
331.9018	0.1031
332.1121	0.1085
332.3224	0.1034
332.5326	0.1185
332.7429	0.1049
332.9531	0.1299
333.1633	0.1097
333.3735	0.1084
333.5837	0.1108
333.7939	0.1049
334.0041	0.1196
334.2143	0.115
334.4244	0.1129
334.6346	0.095
334.8447	0.1327
335.0548	0.1098
335.2649	0.1027
335.475	0.1147
335.685	0.0943
335.8951	0.1244
336.1051	0.1089
336.3152	0.1213
336.5252	0.1015
336.7352	0.1042
336.9452	0.1208
337.1552	0.1161
337.3652	0.1071
337.5751	0.1092
337.7851	0.1107
337.995	0.1
338.2049	0.115
338.4148	0.1132
338.6247	0.1138
338.8346	0.1031
339.0445	0.0929
339.2543	0.0973
339.4642	0.1154
339.674	0.1089
339.8838	0.1221
340.0936	0.1127
340.3034	0.1316
340.5132	0.1194
340.7229	0.1189
340.9327	0.1091
341.1424	0.1183
341.3522	0.1319
341.5619	0.1313
341.7716	0.1324
341.9813	0.1195
342.1909	0.126
342.4006	0.1364
342.6102	0.1295
342.8199	0.1227
343.0295	0.1252
343.2391	0.1256
343.4487	0.1424
343.6583	0.1204
343.8679	0.1257
344.0774	0.128
344.287	0.1307
344.4965	0.1255
344.706	0.1302
344.9155	0.1209
345.125	0.1365
345.3345	0.142
345.544	0.1239
345.7534	0.1283
345.9629	0.1268
346.1723	0.1316
346.3817	0.1345
346.5911	0.1292
346.8005	0.1362
347.0099	0.1198
347.2193	0.1297
347.4286	0.1314
347.638	0.1402
347.8473	0.137
348.0566	0.1361
348.2659	0.1332
348.4752	0.1274
348.6845	0.1288
348.8937	0.1279
349.103	0.1327
349.3122	0.1339
349.5214	0.1348
349.7306	0.1318
349.9398	0.1362
350.149	0.1364
350.3582	0.1373
350.5674	0.1425
350.7765	0.1472
350.9856	0.1316
351.1948	0.1424
351.4039	0.1307
351.613	0.1251
351.822	0.1397
352.0311	0.1532
352.2402	0.1453
352.4492	0.1421
352.6582	0.1516
352.8672	0.1452
353.0762	0.1492
353.2852	0.1353
353.4942	0.1411
353.7032	0.1557
353.9121	0.1442
354.1211	0.1421
354.33	0.1527
354.5389	0.1642
354.7478	0.1533
354.9567	0.1401
355.1655	0.1348
355.3744	0.1539
355.5833	0.1592
355.7921	0.1711
356.0009	0.1496
356.2097	0.1576
356.4185	0.1663
356.6273	0.1693
356.8361	0.1701
357.0448	0.1584
357.2536	0.157
357.4623	0.1504
357.671	0.1664
357.8797	0.169
358.0884	0.1646
358.2971	0.1633
358.5057	0.16
358.7144	0.1637
358.923	0.1657
359.1316	0.1815
359.3402	0.1683
359.5488	0.1735
359.7574	0.1557
359.966	0.1792
360.1746	0.1696
360.3831	0.1789
360.5916	0.1718
360.8002	0.1663
361.0087	0.1885
361.2172	0.1931
361.4256	0.1938
361.6341	0.189
361.8426	0.1838
362.051	0.1867
362.2594	0.1874
362.4678	0.1736
362.6762	0.2099
362.8846	0.1998
363.093	0.1886
363.3014	0.18
363.5097	0.1742
363.718	0.1765
363.9264	0.1871
364.1347	0.1793
364.343	0.1972
364.5513	0.2074
364.7595	0.1887
364.9678	0.1901
365.176	0.1952
365.3842	0.1977
365.5925	0.2086
365.8007	0.1966
366.0089	0.2012
366.217	0.1911
366.4252	0.2074
366.6333	0.2043
366.8415	0.2087
367.0496	0.1937
367.2577	0.2112
367.4658	0.2088
367.6739	0.2121
367.882	0.2209
368.09	0.1994
368.2981	0.2096
368.5061	0.1937
368.7141	0.2035
368.9221	0.2139
369.1301	0.2085
369.3381	0.193
369.5461	0.2077
369.754	0.2188
369.962	0.2272
370.1699	0.218
370.3778	0.2121
370.5857	0.1888
370.7936	0.2193
371.0015	0.2172
371.2093	0.2189
371.4172	0.2216
371.625	0.2114
371.8328	0.2138
372.0406	0.2169
372.2484	0.2292
372.4562	0.213
372.664	0.2324
372.8717	0.222
373.0795	0.2011
373.2872	0.2374
373.4949	0.2248
373.7026	0.2269
373.9103	0.2521
374.118	0.2343
374.3256	0.2212
374.5333	0.2181
374.7409	0.219
374.9485	0.2449
375.1561	0.2376
375.3637	0.2486
375.5713	0.237
375.7789	0.2447
375.9864	0.2299
376.194	0.2167
376.4015	0.2426
376.609	0.2407
376.8165	0.2307
377.024	0.2269
377.2315	0.2236
377.4389	0.2365
377.6464	0.255
377.8538	0.2371
378.0612	0.236
378.2686	0.2404
378.476	0.2561
378.6834	0.2496
378.8908	0.2368
379.0981	0.2408
379.3055	0.2399
379.5128	0.238
379.7201	0.2422
379.9274	0.25
380.1347	0.2383
380.342	0.2731
380.5492	0.2426
380.7565	0.2506
380.9637	0.2354
381.1709	0.2354
381.3781	0.2541
381.5853	0.264
381.7925	0.2395
381.9997	0.2517
382.2068	0.2558
382.4139	0.2546
382.6211	0.2494
382.8282	0.263
383.0353	0.2487
383.2424	0.2517
383.4494	0.2566
383.6565	0.2425
383.8635	0.267
384.0706	0.2516
384.2776	0.2597
384.4846	0.238
384.6916	0.2639
384.8986	0.2414
385.1055	0.2612
385.3125	0.2573
385.5194	0.2309
385.7263	0.2642
385.9333	0.2452
386.1402	0.2653
386.347	0.2649
386.5539	0.2489
386.7608	0.2596
386.9676	0.2409
387.1744	0.2592
387.3813	0.2405
387.5881	0.2409
387.7948	0.2478
388.0016	0.2495
388.2084	0.2543
388.4151	0.231
388.6219	0.2483
388.8286	0.2579
389.0353	0.2583
389.242	0.247
389.4487	0.2509
389.6553	0.2286
389.862	0.2096
390.0686	0.2389
390.2753	0.2402
390.4819	0.2299
390.6885	0.2469
390.8951	0.2362
391.1016	0.2401
391.3082	0.2416
391.5147	0.2382
391.7213	0.2333
391.9278	0.2224
392.1343	0.2184
392.3408	0.2385
392.5473	0.2297
392.7537	0.2422
392.9602	0.2211
393.1666	0.2387
393.373	0.2291
393.5794	0.2388
393.7858	0.2373
393.9922	0.2107
394.1986	0.2188
394.4049	0.2208
394.6113	0.2264
394.8176	0.2215
395.0239	0.2296
395.2302	0.2093
395.4365	0.2278
395.6428	0.2083
395.8491	0.1992
396.0553	0.2267
396.2615	0.2127
396.4678	0.2124
396.674	0.1982
396.8802	0.2234
397.0863	0.2259
397.2925	0.1987
397.4987	0.2054
397.7048	0.214
397.9109	0.2111
398.117	0.1996
398.3231	0.2051
398.5292	0.2291
398.7353	0.2181
398.9413	0.2103
399.1474	0.2145
399.3534	0.2139
399.5594	0.1777
399.7654	0.2207
399.9714	0.2185
400.1774	0.2186
400.3833	0.2002
400.5893	0.2063
400.7952	0.2224
401.0011	0.2162
401.207	0.2027
401.4129	0.2074
401.6188	0.2352
401.8247	0.2131
402.0305	0.196
402.2364	0.2001
402.4422	0.2506
402.648	0.2126
402.8538	0.2248
403.0596	0.2035
403.2654	0.2131
403.4711	0.1886
403.6768	0.2274
403.8826	0.2183
404.0883	0.2262
404.294	0.2085
404.4997	0.2042
404.7054	0.206
404.911	0.1929
405.1167	0.2118
405.3223	0.2294
405.5279	0.1989
405.7335	0.2036
405.9391	0.2228
406.1447	0.2066
406.3502	0.2191
406.5558	0.1936
406.7613	0.2183
406.9668	0.2341
407.1724	0.2192
407.3778	0.2083
407.5833	0.2033
407.7888	0.1952
407.9942	0.2223
408.1997	0.1976
408.4051	0.2068
408.6105	0.2217
408.8159	0.2
409.0213	0.2158
409.2267	0.2241
409.432	0.2029
409.6374	0.2215
409.8427	0.1946
410.048	0.1901
410.2533	0.2032
410.4586	0.2047
410.6639	0.1862
410.8691	0.2076
411.0744	0.1942
411.2796	0.1935
411.4848	0.2115
411.69	0.1881
411.8952	0.2172
412.1004	0.202
412.3056	0.2024
412.5107	0.1929
412.7158	0.2158
412.921	0.1922
413.1261	0.2057
413.3312	0.2084
413.5362	0.1823
413.7413	0.2075
413.9464	0.2
414.1514	0.1959
414.3564	0.1982
414.5614	0.1968
414.7664	0.2127
414.9714	0.1973
415.1764	0.2029
415.3813	0.1916
415.5863	0.1994
415.7912	0.2042
415.9961	0.203
416.201	0.214
416.4059	0.2032
416.6108	0.1895
416.8156	0.2054
417.0205	0.2039
417.2253	0.2013
417.4301	0.2022
417.6349	0.1862
417.8397	0.1968
418.0445	0.1958
418.2492	0.2126
418.454	0.2113
418.6587	0.1905
418.8634	0.2082
419.0681	0.1713
419.2728	0.1742
419.4775	0.1852
419.6822	0.1932
419.8868	0.1757
420.0915	0.1974
420.2961	0.1938
420.5007	0.1788
420.7053	0.208
420.9099	0.1933
421.1144	0.1895
421.319	0.1774
421.5235	0.1792
421.728	0.1967
421.9325	0.1992
422.137	0.199
422.3415	0.1822
422.546	0.1911
422.7504	0.1731
422.9549	0.1896
423.1593	0.1831
423.3637	0.2023
423.5681	0.1765
423.7725	0.1764
423.9769	0.1741
424.1812	0.1846
424.3856	0.1829
424.5899	0.1899
424.7942	0.1765
424.9985	0.1701
425.2028	0.1621
425.4071	0.1795
425.6113	0.1621
425.8156	0.1709
426.0198	0.1705
426.224	0.1628
426.4282	0.162
426.6324	0.1702
