Data from MonoPyChalIsomerACN10uM350nmA_Absorbance_14-35-32-315.txt Node
Date: Fri Jul 05 14:35:32 BST 2024
User: LASERRRRR
Spectrometer: FLMT03099
Trigger mode: 0
Integration Time (sec): 1.000000E-1
Scans to average: 1
Electric dark correction enabled: true
Nonlinearity correction enabled: false
Boxcar width: 0
XAxis mode: Wavelengths
Number of Pixels in Spectrum: 3648
>>>>>Begin Spectral Data<<<<<
179.3399	-0.0941
179.5586	-0.0941
179.7771	-0.0941
179.9957	0.0111
180.2143	-0
180.4329	-0.1893
180.6514	0.8318
180.8699	-0
181.0885	0.358
181.307	0.1817
181.5255	-0
181.744	-0.4893
181.9625	-0
182.181	-0
182.3994	-0
182.6179	-0
182.8363	0.0966
183.0547	0.0513
183.2732	0.0345
183.4916	0.0529
183.71	0.0293
183.9284	-0.0403
184.1467	-0.025
184.3651	-0.061
184.5835	-0.0295
184.8018	0.2916
185.0201	0.1378
185.2385	-0.1413
185.4568	0.0012
185.6751	0.2434
185.8934	0.3619
186.1117	0.2331
186.3299	0.0679
186.5482	0.0903
186.7664	0.1611
186.9847	-0.1181
187.2029	-0.0152
187.4211	-0.0639
187.6393	0.1445
187.8575	0.2317
188.0757	0.1355
188.2939	0.1133
188.512	0.6956
188.7302	-0.027
188.9483	0.5131
189.1665	0.2289
189.3846	0.0877
189.6027	0.3457
189.8208	0.3134
190.0389	0.1248
190.257	0.3459
190.475	0.0532
190.6931	0.4472
190.9111	0.453
191.1292	0.1131
191.3472	0.4682
191.5652	0.4873
191.7832	0.3237
192.0012	0.5139
192.2192	0.3121
192.4371	0.6198
192.6551	0.3498
192.873	0.4792
193.091	0.4492
193.3089	0.6365
193.5268	0.5617
193.7447	0.6027
193.9626	0.4561
194.1805	0.5264
194.3984	0.7226
194.6162	0.5512
194.8341	0.5345
195.0519	0.4981
195.2697	1.2112
195.4875	0.6653
195.7054	0.4993
195.9231	0.6109
196.1409	0.6638
196.3587	0.6446
196.5765	0.5711
196.7942	0.83
197.012	0.6602
197.2297	0.5243
197.4474	0.5502
197.6651	0.5266
197.8828	0.5882
198.1005	0.6316
198.3182	0.5449
198.5358	0.7138
198.7535	0.576
198.9711	0.485
199.1888	0.6296
199.4064	0.7643
199.624	0.6017
199.8416	0.7274
200.0592	0.509
200.2767	0.5475
200.4943	0.6987
200.7119	0.7982
200.9294	0.6188
201.1469	0.5258
201.3645	0.5174
201.582	0.5359
201.7995	0.592
202.017	0.6212
202.2344	0.6857
202.4519	0.6724
202.6694	0.6024
202.8868	0.7141
203.1042	0.6546
203.3217	0.7484
203.5391	0.6577
203.7565	0.6161
203.9739	0.6988
204.1913	0.6578
204.4086	0.7255
204.626	0.8362
204.8433	0.7057
205.0607	0.6242
205.278	0.6819
205.4953	0.5873
205.7126	0.7202
205.9299	0.6304
206.1472	0.7073
206.3644	0.6334
206.5817	0.6182
206.7989	0.7804
207.0162	0.643
207.2334	0.675
207.4506	0.6277
207.6678	0.7151
207.885	0.7267
208.1022	0.6564
208.3194	0.6681
208.5365	0.6486
208.7537	0.7063
208.9708	0.5501
209.1879	0.6666
209.405	0.7599
209.6222	0.6726
209.8392	0.6425
210.0563	0.5835
210.2734	0.6341
210.4905	0.669
210.7075	0.6282
210.9245	0.5405
211.1416	0.7042
211.3586	0.652
211.5756	0.5337
211.7926	0.6134
212.0096	0.5375
212.2265	0.5635
212.4435	0.5779
212.6604	0.6376
212.8774	0.6103
213.0943	0.5924
213.3112	0.5462
213.5281	0.5554
213.745	0.5141
213.9619	0.4812
214.1788	0.4652
214.3956	0.4745
214.6125	0.4685
214.8293	0.4238
215.0461	0.4486
215.2629	0.4615
215.4798	0.4943
215.6965	0.4225
215.9133	0.4464
216.1301	0.3956
216.3469	0.4426
216.5636	0.4187
216.7803	0.4028
216.9971	0.4145
217.2138	0.3812
217.4305	0.3564
217.6472	0.3453
217.8639	0.3825
218.0805	0.3603
218.2972	0.3221
218.5138	0.3187
218.7305	0.3353
218.9471	0.3069
219.1637	0.2814
219.3803	0.295
219.5969	0.2941
219.8135	0.251
220.0301	0.2724
220.2466	0.312
220.4632	0.2802
220.6797	0.2487
220.8962	0.232
221.1127	0.2782
221.3292	0.2465
221.5457	0.2389
221.7622	0.2423
221.9787	0.2659
222.1951	0.2468
222.4116	0.2639
222.628	0.2503
222.8444	0.2525
223.0608	0.256
223.2772	0.2477
223.4936	0.2797
223.71	0.24
223.9264	0.2734
224.1427	0.2494
224.3591	0.2295
224.5754	0.2616
224.7917	0.2687
225.008	0.2715
225.2243	0.2542
225.4406	0.2836
225.6569	0.2773
225.8732	0.2594
226.0894	0.2828
226.3057	0.2421
226.5219	0.2759
226.7381	0.281
226.9543	0.2844
227.1705	0.2968
227.3867	0.2919
227.6029	0.2936
227.8191	0.2979
228.0352	0.3014
228.2513	0.3126
228.4675	0.3219
228.6836	0.3109
228.8997	0.3139
229.1158	0.3214
229.3319	0.3101
229.548	0.321
229.764	0.3194
229.9801	0.3299
230.1961	0.3318
230.4121	0.3275
230.6282	0.3428
230.8442	0.3203
231.0602	0.3404
231.2761	0.3467
231.4921	0.3446
231.7081	0.358
231.924	0.3427
232.14	0.3579
232.3559	0.3514
232.5718	0.3541
232.7877	0.347
233.0036	0.3505
233.2195	0.3589
233.4353	0.355
233.6512	0.3616
233.867	0.3661
234.0829	0.3644
234.2987	0.3583
234.5145	0.3705
234.7303	0.3643
234.9461	0.3811
235.1619	0.393
235.3776	0.3928
235.5934	0.4013
235.8091	0.3685
236.0249	0.3726
236.2406	0.3922
236.4563	0.3831
236.672	0.3874
236.8877	0.3926
237.1034	0.3862
237.319	0.3961
237.5347	0.4071
237.7503	0.3936
237.966	0.4012
238.1816	0.4226
238.3972	0.4062
238.6128	0.4074
238.8284	0.3927
239.0439	0.4191
239.2595	0.4109
239.475	0.4098
239.6906	0.4171
239.9061	0.3982
240.1216	0.404
240.3371	0.4098
240.5526	0.4034
240.7681	0.405
240.9836	0.3849
241.199	0.3993
241.4145	0.3776
241.6299	0.3791
241.8453	0.3681
242.0607	0.3747
242.2761	0.3611
242.4915	0.3564
242.7069	0.3638
242.9223	0.3582
243.1376	0.3397
243.353	0.3388
243.5683	0.3464
243.7836	0.3288
243.9989	0.3349
244.2142	0.2975
244.4295	0.3133
244.6448	0.2975
244.86	0.2978
245.0753	0.2742
245.2905	0.2879
245.5057	0.2706
245.721	0.2714
245.9362	0.2594
246.1514	0.2671
246.3665	0.2426
246.5817	0.2318
246.7969	0.2559
247.012	0.2407
247.2271	0.2297
247.4423	0.2422
247.6574	0.2358
247.8725	0.2201
248.0876	0.2266
248.3026	0.2222
248.5177	0.2135
248.7328	0.2166
248.9478	0.194
249.1628	0.2036
249.3779	0.221
249.5929	0.1967
249.8079	0.2202
250.0228	0.193
250.2378	0.1969
250.4528	0.199
250.6677	0.1713
250.8827	0.1908
251.0976	0.194
251.3125	0.1949
251.5274	0.1711
251.7423	0.1813
251.9572	0.1838
252.172	0.171
252.3869	0.1819
252.6017	0.1809
252.8166	0.1653
253.0314	0.1693
253.2462	0.1495
253.461	0.1702
253.6758	0.1678
253.8906	0.1766
254.1053	0.163
254.3201	0.1724
254.5348	0.1763
254.7496	0.1785
254.9643	0.1637
255.179	0.1686
255.3937	0.1705
255.6083	0.1856
255.823	0.168
256.0377	0.1606
256.2523	0.1784
256.467	0.1522
256.6816	0.176
256.8962	0.1719
257.1108	0.1544
257.3254	0.1753
257.54	0.1617
257.7545	0.1652
257.9691	0.1712
258.1836	0.1615
258.3981	0.1805
258.6127	0.1608
258.8272	0.1688
259.0417	0.1591
259.2561	0.1544
259.4706	0.1598
259.6851	0.1707
259.8995	0.1604
260.114	0.1609
260.3284	0.1629
260.5428	0.1501
260.7572	0.1633
260.9716	0.1625
261.186	0.1524
261.4003	0.1539
261.6147	0.1619
261.829	0.1736
262.0433	0.1552
262.2577	0.1594
262.472	0.1664
262.6863	0.1639
262.9005	0.1728
263.1148	0.1527
263.3291	0.1317
263.5433	0.1566
263.7576	0.1567
263.9718	0.1564
264.186	0.1554
264.4002	0.1599
264.6144	0.1643
264.8286	0.1681
265.0427	0.158
265.2569	0.1491
265.471	0.1559
265.6851	0.1598
265.8993	0.1631
266.1134	0.1515
266.3275	0.1592
266.5415	0.1536
266.7556	0.1645
266.9697	0.1579
267.1837	0.1687
267.3978	0.1517
267.6118	0.1525
267.8258	0.1641
268.0398	0.1464
268.2538	0.1576
268.4677	0.1484
268.6817	0.1439
268.8957	0.1612
269.1096	0.1565
269.3235	0.1631
269.5374	0.1486
269.7514	0.1536
269.9652	0.1391
270.1791	0.1454
270.393	0.1378
270.6068	0.1551
270.8207	0.1343
271.0345	0.1292
271.2483	0.1494
271.4622	0.1369
271.676	0.1435
271.8897	0.1322
272.1035	0.1328
272.3173	0.1479
272.531	0.1416
272.7448	0.136
272.9585	0.1351
273.1722	0.1398
273.3859	0.1481
273.5996	0.126
273.8133	0.142
274.0269	0.1383
274.2406	0.12
274.4542	0.1403
274.6679	0.1316
274.8815	0.1301
275.0951	0.1402
275.3087	0.1385
275.5223	0.1328
275.7358	0.1421
275.9494	0.1288
276.1629	0.132
276.3765	0.127
276.59	0.1316
276.8035	0.1404
277.017	0.1352
277.2305	0.1294
277.444	0.1352
277.6574	0.1244
277.8709	0.1414
278.0843	0.1345
278.2978	0.1333
278.5112	0.1297
278.7246	0.1323
278.938	0.1299
279.1513	0.1395
279.3647	0.1403
279.5781	0.1348
279.7914	0.144
280.0047	0.1451
280.2181	0.1379
280.4314	0.1312
280.6447	0.1441
280.8579	0.1491
281.0712	0.1492
281.2845	0.156
281.4977	0.1403
281.711	0.1446
281.9242	0.1378
282.1374	0.1417
282.3506	0.1318
282.5638	0.1543
282.7769	0.1496
282.9901	0.1491
283.2033	0.1516
283.4164	0.1592
283.6295	0.1444
283.8426	0.1425
284.0557	0.1471
284.2688	0.1649
284.4819	0.1538
284.695	0.1602
284.908	0.1581
285.1211	0.1386
285.3341	0.1477
285.5471	0.1543
285.7601	0.1586
285.9731	0.1438
286.1861	0.1493
286.3991	0.154
286.612	0.1671
286.825	0.1593
287.0379	0.1664
287.2508	0.1635
287.4637	0.1571
287.6766	0.1606
287.8895	0.1582
288.1024	0.1779
288.3152	0.1649
288.5281	0.1619
288.7409	0.1578
288.9538	0.1632
289.1666	0.1539
289.3794	0.161
289.5922	0.1516
289.8049	0.1781
290.0177	0.1629
290.2304	0.163
290.4432	0.1706
290.6559	0.1714
290.8686	0.1798
291.0813	0.1676
291.294	0.1692
291.5067	0.1818
291.7194	0.168
291.932	0.1782
292.1447	0.1625
292.3573	0.1621
292.5699	0.1671
292.7825	0.1811
292.9951	0.1705
293.2077	0.1647
293.4203	0.1663
293.6328	0.1672
293.8454	0.1714
294.0579	0.1635
294.2704	0.1676
294.4829	0.1634
294.6954	0.1627
294.9079	0.166
295.1204	0.1624
295.3328	0.1654
295.5453	0.1668
295.7577	0.1704
295.9701	0.1573
296.1825	0.1661
296.3949	0.1693
296.6073	0.166
296.8197	0.1685
297.0321	0.1762
297.2444	0.1584
297.4567	0.1666
297.6691	0.1657
297.8814	0.1647
298.0937	0.1613
298.306	0.1678
298.5182	0.1677
298.7305	0.1787
298.9428	0.1528
299.155	0.1794
299.3672	0.1704
299.5794	0.1589
299.7916	0.1622
300.0038	0.1717
300.216	0.1665
300.4282	0.1731
300.6403	0.1603
300.8525	0.1751
301.0646	0.158
301.2767	0.167
301.4888	0.1733
301.7009	0.1653
301.913	0.1553
302.125	0.1645
302.3371	0.1688
302.5491	0.1759
302.7612	0.1726
302.9732	0.1685
303.1852	0.1716
303.3972	0.1657
303.6092	0.1662
303.8211	0.1612
304.0331	0.1594
304.245	0.1621
304.457	0.1559
304.6689	0.1643
304.8808	0.1714
305.0927	0.148
305.3046	0.1512
305.5164	0.1621
305.7283	0.1495
305.9401	0.1512
306.152	0.1652
306.3638	0.1573
306.5756	0.147
306.7874	0.1416
306.9992	0.152
307.2109	0.1499
307.4227	0.1317
307.6344	0.1483
307.8462	0.1375
308.0579	0.1368
308.2696	0.1331
308.4813	0.1306
308.693	0.1362
308.9046	0.1382
309.1163	0.1227
309.328	0.1293
309.5396	0.1189
309.7512	0.1181
309.9628	0.122
310.1744	0.1174
310.386	0.1143
310.5976	0.1176
310.8091	0.1105
311.0207	0.1194
311.2322	0.1121
311.4437	0.1006
311.6552	0.1021
311.8667	0.1087
312.0782	0.0974
312.2897	0.0988
312.5012	0.118
312.7126	0.1128
312.924	0.0957
313.1355	0.0975
313.3469	0.1001
313.5583	0.0986
313.7696	0.1032
313.981	0.1023
314.1924	0.1023
314.4037	0.1033
314.6151	0.0941
314.8264	0.0812
315.0377	0.1012
315.249	0.0958
315.4603	0.1012
315.6716	0.1005
315.8828	0.0885
316.0941	0.0964
316.3053	0.0939
316.5165	0.1014
316.7277	0.0895
316.9389	0.0996
317.1501	0.0868
317.3613	0.0952
317.5724	0.0864
317.7836	0.1
317.9947	0.09
318.2058	0.0895
318.417	0.0912
318.6281	0.0809
318.8391	0.0893
319.0502	0.0907
319.2613	0.0937
319.4723	0.0869
319.6834	0.0913
319.8944	0.0799
320.1054	0.0962
320.3164	0.0941
320.5274	0.0842
320.7383	0.0847
320.9493	0.0919
321.1602	0.1002
321.3712	0.0847
321.5821	0.0939
321.793	0.0978
322.0039	0.0831
322.2148	0.0878
322.4257	0.0974
322.6365	0.1008
322.8474	0.0851
323.0582	0.0934
323.269	0.103
323.4798	0.1022
323.6906	0.0925
323.9014	0.0832
324.1122	0.0871
324.3229	0.0872
324.5337	0.0916
324.7444	0.0855
324.9551	0.1148
325.1658	0.0959
325.3765	0.0847
325.5872	0.0922
325.7979	0.0856
326.0085	0.0892
326.2192	0.1088
326.4298	0.1027
326.6404	0.0896
326.851	0.0813
327.0616	0.0907
327.2722	0.0981
327.4828	0.0988
327.6933	0.0943
327.9039	0.093
328.1144	0.1048
328.3249	0.1018
328.5354	0.0893
328.7459	0.0939
328.9564	0.0832
329.1669	0.0826
329.3773	0.089
329.5878	0.0998
329.7982	0.0886
330.0086	0.0932
330.219	0.1039
330.4294	0.0981
330.6398	0.0948
330.8502	0.0934
331.0605	0.104
331.2708	0.1041
331.4812	0.111
331.6915	0.0984
331.9018	0.1015
332.1121	0.084
332.3224	0.0958
332.5326	0.1061
332.7429	0.1072
332.9531	0.113
333.1633	0.1084
333.3735	0.1049
333.5837	0.0925
333.7939	0.0983
334.0041	0.1098
334.2143	0.1019
334.4244	0.0961
334.6346	0.0783
334.8447	0.1152
335.0548	0.0915
335.2649	0.0824
335.475	0.1004
335.685	0.092
335.8951	0.1215
336.1051	0.1015
336.3152	0.1117
336.5252	0.1013
336.7352	0.1037
336.9452	0.0988
337.1552	0.1032
337.3652	0.1044
337.5751	0.1072
337.7851	0.1018
337.995	0.0849
338.2049	0.1059
338.4148	0.1018
338.6247	0.1073
338.8346	0.1006
339.0445	0.1014
339.2543	0.1051
339.4642	0.1117
339.674	0.1009
339.8838	0.1089
340.0936	0.1125
340.3034	0.1142
340.5132	0.1095
340.7229	0.1055
340.9327	0.1125
341.1424	0.1019
341.3522	0.1195
341.5619	0.1137
341.7716	0.1134
341.9813	0.1207
342.1909	0.1031
342.4006	0.125
342.6102	0.1205
342.8199	0.1124
343.0295	0.111
343.2391	0.1196
343.4487	0.133
343.6583	0.1131
343.8679	0.1202
344.0774	0.1068
344.287	0.1232
344.4965	0.1147
344.706	0.1243
344.9155	0.1236
345.125	0.1105
345.3345	0.1166
345.544	0.1207
345.7534	0.1264
345.9629	0.1231
346.1723	0.1139
346.3817	0.117
346.5911	0.1339
346.8005	0.1302
347.0099	0.1169
347.2193	0.1473
347.4286	0.1167
347.638	0.132
347.8473	0.1279
348.0566	0.1286
348.2659	0.1236
348.4752	0.1363
348.6845	0.1243
348.8937	0.1238
349.103	0.1423
349.3122	0.1179
349.5214	0.1225
349.7306	0.1235
349.9398	0.1258
350.149	0.1305
350.3582	0.1239
350.5674	0.1524
350.7765	0.1282
350.9856	0.1355
351.1948	0.1365
351.4039	0.1308
351.613	0.1269
351.822	0.1458
352.0311	0.1325
352.2402	0.1415
352.4492	0.1348
352.6582	0.1565
352.8672	0.1391
353.0762	0.1469
353.2852	0.1458
353.4942	0.1243
353.7032	0.1433
353.9121	0.1478
354.1211	0.1332
354.33	0.1452
354.5389	0.1563
354.7478	0.147
354.9567	0.1606
355.1655	0.1458
355.3744	0.1494
355.5833	0.1395
355.7921	0.1648
356.0009	0.1533
356.2097	0.1636
356.4185	0.1657
356.6273	0.1501
356.8361	0.1656
357.0448	0.1499
357.2536	0.1445
357.4623	0.1467
357.671	0.1654
357.8797	0.1533
358.0884	0.1735
358.2971	0.1614
358.5057	0.1647
358.7144	0.1536
358.923	0.1654
359.1316	0.1819
359.3402	0.1597
359.5488	0.1597
359.7574	0.1722
359.966	0.1906
360.1746	0.1729
360.3831	0.1766
360.5916	0.1738
360.8002	0.1595
361.0087	0.1811
361.2172	0.1688
361.4256	0.1797
361.6341	0.1776
361.8426	0.1919
362.051	0.1728
362.2594	0.1818
362.4678	0.1865
362.6762	0.1983
362.8846	0.1845
363.093	0.19
363.3014	0.1908
363.5097	0.1806
363.718	0.2063
363.9264	0.1858
364.1347	0.1796
364.343	0.1988
364.5513	0.2104
364.7595	0.1946
364.9678	0.1955
365.176	0.1891
365.3842	0.2103
365.5925	0.2034
365.8007	0.1898
366.0089	0.1822
366.217	0.1921
366.4252	0.2145
366.6333	0.2204
366.8415	0.2151
367.0496	0.2031
367.2577	0.2181
367.4658	0.2274
367.6739	0.2064
367.882	0.2139
368.09	0.2158
368.2981	0.2073
368.5061	0.2087
368.7141	0.2238
368.9221	0.2279
369.1301	0.2092
369.3381	0.2181
369.5461	0.2007
369.754	0.2247
369.962	0.2245
370.1699	0.2268
370.3778	0.2263
370.5857	0.2236
370.7936	0.2349
371.0015	0.2302
371.2093	0.2285
371.4172	0.2241
371.625	0.2093
371.8328	0.2162
372.0406	0.2262
372.2484	0.2429
372.4562	0.2239
372.664	0.2391
372.8717	0.2492
373.0795	0.2149
373.2872	0.2405
373.4949	0.2338
373.7026	0.2489
373.9103	0.247
374.118	0.242
374.3256	0.2404
374.5333	0.2314
374.7409	0.2329
374.9485	0.257
375.1561	0.2524
375.3637	0.2559
375.5713	0.2558
375.7789	0.2567
375.9864	0.242
376.194	0.2391
376.4015	0.26
376.609	0.266
376.8165	0.2432
377.024	0.2453
377.2315	0.2562
377.4389	0.2561
377.6464	0.2688
377.8538	0.2405
378.0612	0.25
378.2686	0.2535
378.476	0.2606
378.6834	0.2529
378.8908	0.2714
379.0981	0.2777
379.3055	0.2607
379.5128	0.2711
379.7201	0.2581
379.9274	0.2493
380.1347	0.2625
380.342	0.2691
380.5492	0.2523
380.7565	0.2615
380.9637	0.2607
381.1709	0.2639
381.3781	0.2485
381.5853	0.2714
381.7925	0.2717
381.9997	0.2733
382.2068	0.2668
382.4139	0.2875
382.6211	0.2809
382.8282	0.256
383.0353	0.2746
383.2424	0.2629
383.4494	0.2757
383.6565	0.2812
383.8635	0.2671
384.0706	0.2734
384.2776	0.2864
384.4846	0.2612
384.6916	0.2872
384.8986	0.2673
385.1055	0.2687
385.3125	0.2655
385.5194	0.2584
385.7263	0.2793
385.9333	0.2751
386.1402	0.2632
386.347	0.2584
386.5539	0.2657
386.7608	0.2726
386.9676	0.2709
387.1744	0.276
387.3813	0.257
387.5881	0.2757
387.7948	0.2641
388.0016	0.2681
388.2084	0.2659
388.4151	0.2618
388.6219	0.2845
388.8286	0.2461
389.0353	0.2812
389.242	0.2614
389.4487	0.2535
389.6553	0.2462
389.862	0.2394
390.0686	0.2441
390.2753	0.2602
390.4819	0.2675
390.6885	0.2456
390.8951	0.2618
391.1016	0.2478
391.3082	0.2526
391.5147	0.2512
391.7213	0.2623
391.9278	0.2576
392.1343	0.2517
392.3408	0.2589
392.5473	0.2429
392.7537	0.2426
392.9602	0.2462
393.1666	0.2593
393.373	0.24
393.5794	0.2497
393.7858	0.2562
393.9922	0.2374
394.1986	0.2485
394.4049	0.2529
394.6113	0.2257
394.8176	0.2272
395.0239	0.2326
395.2302	0.2484
395.4365	0.2531
395.6428	0.2315
395.8491	0.2263
396.0553	0.2476
396.2615	0.2282
396.4678	0.2365
396.674	0.2221
396.8802	0.2323
397.0863	0.2447
397.2925	0.2251
397.4987	0.2315
397.7048	0.2272
397.9109	0.2372
398.117	0.2306
398.3231	0.2227
398.5292	0.2322
398.7353	0.2358
398.9413	0.235
399.1474	0.2349
399.3534	0.2186
399.5594	0.2064
399.7654	0.2421
399.9714	0.2266
400.1774	0.2322
400.3833	0.2263
400.5893	0.2207
400.7952	0.2387
401.0011	0.2259
401.207	0.258
401.4129	0.2281
401.6188	0.2339
401.8247	0.2404
402.0305	0.2219
402.2364	0.2272
402.4422	0.2473
402.648	0.247
402.8538	0.2421
403.0596	0.2175
403.2654	0.2432
403.4711	0.2321
403.6768	0.2394
403.8826	0.2314
404.0883	0.2342
404.294	0.2356
404.4997	0.2283
404.7054	0.2282
404.911	0.2045
405.1167	0.2181
405.3223	0.2275
405.5279	0.2436
405.7335	0.242
405.9391	0.2418
406.1447	0.2397
406.3502	0.259
406.5558	0.2255
406.7613	0.2307
406.9668	0.2238
407.1724	0.2219
407.3778	0.2183
407.5833	0.2365
407.7888	0.2146
407.9942	0.2326
408.1997	0.2204
408.4051	0.2121
408.6105	0.2333
408.8159	0.2137
409.0213	0.2286
409.2267	0.2351
409.432	0.2189
409.6374	0.2585
409.8427	0.2145
410.048	0.2383
410.2533	0.2429
410.4586	0.2153
410.6639	0.2251
410.8691	0.2361
411.0744	0.2144
411.2796	0.2261
411.4848	0.2307
411.69	0.2167
411.8952	0.2513
412.1004	0.2001
412.3056	0.2492
412.5107	0.2211
412.7158	0.2483
412.921	0.2306
413.1261	0.2169
413.3312	0.2124
413.5362	0.2292
413.7413	0.2383
413.9464	0.2157
414.1514	0.227
414.3564	0.2155
414.5614	0.2011
414.7664	0.231
414.9714	0.2123
415.1764	0.2258
415.3813	0.2413
415.5863	0.2362
415.7912	0.2312
415.9961	0.2233
416.201	0.2224
416.4059	0.2328
416.6108	0.2124
416.8156	0.2377
417.0205	0.2274
417.2253	0.2
417.4301	0.217
417.6349	0.2217
417.8397	0.2139
418.0445	0.2262
418.2492	0.2236
418.454	0.2142
418.6587	0.2329
418.8634	0.2166
419.0681	0.1934
419.2728	0.228
419.4775	0.2251
419.6822	0.1973
419.8868	0.2033
420.0915	0.2243
420.2961	0.216
420.5007	0.2034
420.7053	0.2059
420.9099	0.2139
421.1144	0.2054
421.319	0.2119
421.5235	0.2089
421.728	0.2123
421.9325	0.2019
422.137	0.2088
422.3415	0.2064
422.546	0.2209
422.7504	0.2014
422.9549	0.217
423.1593	0.1985
423.3637	0.2056
423.5681	0.2099
423.7725	0.1996
423.9769	0.2002
424.1812	0.1928
424.3856	0.2058
424.5899	0.1918
424.7942	0.1914
424.9985	0.2071
425.2028	0.1896
425.4071	0.2037
425.6113	0.1914
425.8156	0.1947
426.0198	0.1952
426.224	0.186
426.4282	0.1856
