Data from MonoPyChalIsomerACN10uM350nmA_Absorbance_14-35-37-515.txt Node
Date: Fri Jul 05 14:35:37 BST 2024
User: LASERRRRR
Spectrometer: FLMT03099
Trigger mode: 0
Integration Time (sec): 1.000000E-1
Scans to average: 1
Electric dark correction enabled: true
Nonlinearity correction enabled: false
Boxcar width: 0
XAxis mode: Wavelengths
Number of Pixels in Spectrum: 3648
>>>>>Begin Spectral Data<<<<<
179.3399	0.029
179.5586	0.029
179.7771	0.029
179.9957	0.4675
180.2143	-0
180.4329	-0.3302
180.6514	0.7692
180.8699	-0
181.0885	-0.1989
181.307	-0.0747
181.5255	-0
181.744	-0.5111
181.9625	-0
182.181	-0.699
182.3994	0.0983
182.6179	-0
182.8363	-0.135
183.0547	-0.1867
183.2732	0.0095
183.4916	0.0685
183.71	0.2618
183.9284	-0.028
184.1467	-0.1165
184.3651	0.0016
184.5835	0.0153
184.8018	-0.1304
185.0201	0.289
185.2385	-0.0558
185.4568	0.2848
185.6751	-0.0422
185.8934	0.2006
186.1117	0.1021
186.3299	0.2259
186.5482	0.0341
186.7664	-0.2384
186.9847	0.0108
187.2029	0.0568
187.4211	0.1045
187.6393	0.0348
187.8575	-0.1603
188.0757	0.1241
188.2939	0.1136
188.512	-0.0504
188.7302	0.1233
188.9483	0.1724
189.1665	0.0361
189.3846	-0.2914
189.6027	0.1827
189.8208	0.2543
190.0389	0.0128
190.257	0.1833
190.475	0.0884
190.6931	0.2962
190.9111	0.4704
191.1292	0.1315
191.3472	0.2981
191.5652	0.1351
191.7832	0.1121
192.0012	0.2344
192.2192	0.2349
192.4371	0.3672
192.6551	0.4543
192.873	0.4622
193.091	0.4646
193.3089	0.428
193.5268	0.6875
193.7447	0.509
193.9626	0.6775
194.1805	0.4987
194.3984	0.9211
194.6162	0.4601
194.8341	0.4128
195.0519	0.4779
195.2697	0.6241
195.4875	0.6603
195.7054	0.65
195.9231	0.3727
196.1409	0.6349
196.3587	0.5443
196.5765	0.5266
196.7942	0.5794
197.012	0.4926
197.2297	0.6039
197.4474	0.6578
197.6651	0.572
197.8828	0.5176
198.1005	0.628
198.3182	0.6832
198.5358	0.7544
198.7535	0.613
198.9711	0.5827
199.1888	0.6542
199.4064	0.897
199.624	0.5248
199.8416	0.5267
200.0592	0.6144
200.2767	0.6013
200.4943	0.6013
200.7119	0.7751
200.9294	0.5855
201.1469	0.5861
201.3645	0.5492
201.582	0.6491
201.7995	0.582
202.017	0.5484
202.2344	0.5823
202.4519	0.7265
202.6694	0.7672
202.8868	0.7006
203.1042	0.6651
203.3217	0.89
203.5391	0.6864
203.7565	0.5402
203.9739	0.6524
204.1913	0.5558
204.4086	0.5941
204.626	0.7269
204.8433	0.6679
205.0607	0.5736
205.278	0.7191
205.4953	0.6102
205.7126	0.6302
205.9299	0.7932
206.1472	0.7161
206.3644	0.5629
206.5817	0.6456
206.7989	0.6938
207.0162	0.6071
207.2334	0.6435
207.4506	0.6311
207.6678	0.6326
207.885	0.6325
208.1022	0.6532
208.3194	0.6617
208.5365	0.6657
208.7537	0.5882
208.9708	0.5382
209.1879	0.6803
209.405	0.6614
209.6222	0.6424
209.8392	0.5975
210.0563	0.6176
210.2734	0.6506
210.4905	0.555
210.7075	0.6225
210.9245	0.6011
211.1416	0.6993
211.3586	0.6815
211.5756	0.6045
211.7926	0.5571
212.0096	0.6093
212.2265	0.499
212.4435	0.5997
212.6604	0.6295
212.8774	0.5989
213.0943	0.5957
213.3112	0.5771
213.5281	0.5322
213.745	0.4738
213.9619	0.4644
214.1788	0.4445
214.3956	0.448
214.6125	0.4467
214.8293	0.522
215.0461	0.4783
215.2629	0.4462
215.4798	0.4389
215.6965	0.4082
215.9133	0.4209
216.1301	0.4217
216.3469	0.4159
216.5636	0.4127
216.7803	0.3871
216.9971	0.3681
217.2138	0.3824
217.4305	0.3693
217.6472	0.3395
217.8639	0.374
218.0805	0.3432
218.2972	0.3149
218.5138	0.3219
218.7305	0.2994
218.9471	0.2903
219.1637	0.2968
219.3803	0.2632
219.5969	0.2778
219.8135	0.2291
220.0301	0.2765
220.2466	0.2499
220.4632	0.2631
220.6797	0.2194
220.8962	0.2489
221.1127	0.2518
221.3292	0.239
221.5457	0.2343
221.7622	0.2331
221.9787	0.2693
222.1951	0.2164
222.4116	0.2348
222.628	0.2665
222.8444	0.2509
223.0608	0.2348
223.2772	0.2572
223.4936	0.2772
223.71	0.2481
223.9264	0.2525
224.1427	0.253
224.3591	0.2494
224.5754	0.2649
224.7917	0.2432
225.008	0.2828
225.2243	0.2512
225.4406	0.2798
225.6569	0.2496
225.8732	0.2515
226.0894	0.2555
226.3057	0.2606
226.5219	0.2708
226.7381	0.2668
226.9543	0.2855
227.1705	0.2922
227.3867	0.2769
227.6029	0.3055
227.8191	0.2962
228.0352	0.2728
228.2513	0.3091
228.4675	0.3087
228.6836	0.3149
228.8997	0.3031
229.1158	0.3261
229.3319	0.2963
229.548	0.3051
229.764	0.3273
229.9801	0.3288
230.1961	0.3175
230.4121	0.3172
230.6282	0.3263
230.8442	0.3244
231.0602	0.3312
231.2761	0.3456
231.4921	0.3475
231.7081	0.3338
231.924	0.343
232.14	0.3601
232.3559	0.3296
232.5718	0.3631
232.7877	0.3678
233.0036	0.351
233.2195	0.3437
233.4353	0.3461
233.6512	0.373
233.867	0.3752
234.0829	0.3446
234.2987	0.3642
234.5145	0.3667
234.7303	0.3643
234.9461	0.4081
235.1619	0.3863
235.3776	0.384
235.5934	0.3764
235.8091	0.3725
236.0249	0.3758
236.2406	0.383
236.4563	0.3733
236.672	0.3904
236.8877	0.399
237.1034	0.3881
237.319	0.3947
237.5347	0.4052
237.7503	0.3901
237.966	0.4121
238.1816	0.4072
238.3972	0.408
238.6128	0.3876
238.8284	0.3997
239.0439	0.4157
239.2595	0.4043
239.475	0.3982
239.6906	0.4148
239.9061	0.4033
240.1216	0.3994
240.3371	0.4075
240.5526	0.3897
240.7681	0.4211
240.9836	0.3673
241.199	0.4159
241.4145	0.3803
241.6299	0.3692
241.8453	0.3708
242.0607	0.3714
242.2761	0.3537
242.4915	0.3637
242.7069	0.3669
242.9223	0.3499
243.1376	0.3573
243.353	0.3421
243.5683	0.3364
243.7836	0.3176
243.9989	0.3326
244.2142	0.3034
244.4295	0.3091
244.6448	0.3063
244.86	0.31
245.0753	0.3064
245.2905	0.2714
245.5057	0.2767
245.721	0.2721
245.9362	0.2571
246.1514	0.276
246.3665	0.2551
246.5817	0.271
246.7969	0.2571
247.012	0.2454
247.2271	0.2475
247.4423	0.2655
247.6574	0.2539
247.8725	0.2304
248.0876	0.2299
248.3026	0.2255
248.5177	0.2177
248.7328	0.2138
248.9478	0.2063
249.1628	0.2051
249.3779	0.2152
249.5929	0.1945
249.8079	0.222
250.0228	0.1975
250.2378	0.1912
250.4528	0.1988
250.6677	0.1872
250.8827	0.1991
251.0976	0.1878
251.3125	0.1889
251.5274	0.1692
251.7423	0.1603
251.9572	0.1995
252.172	0.1723
252.3869	0.1888
252.6017	0.1744
252.8166	0.163
253.0314	0.1712
253.2462	0.1592
253.461	0.1779
253.6758	0.1724
253.8906	0.1879
254.1053	0.1715
254.3201	0.1726
254.5348	0.1802
254.7496	0.1745
254.9643	0.1707
255.179	0.1746
255.3937	0.1691
255.6083	0.1854
255.823	0.1713
256.0377	0.1576
256.2523	0.1704
256.467	0.1498
256.6816	0.1587
256.8962	0.1602
257.1108	0.1589
257.3254	0.1724
257.54	0.1593
257.7545	0.1705
257.9691	0.1829
258.1836	0.1693
258.3981	0.1771
258.6127	0.1767
258.8272	0.1609
259.0417	0.1617
259.2561	0.1536
259.4706	0.1709
259.6851	0.1622
259.8995	0.1591
260.114	0.1746
260.3284	0.1606
260.5428	0.1557
260.7572	0.1776
260.9716	0.1674
261.186	0.1444
261.4003	0.1619
261.6147	0.1767
261.829	0.1651
262.0433	0.154
262.2577	0.155
262.472	0.1622
262.6863	0.1553
262.9005	0.159
263.1148	0.1671
263.3291	0.1537
263.5433	0.1562
263.7576	0.1705
263.9718	0.1631
264.186	0.1606
264.4002	0.1644
264.6144	0.1629
264.8286	0.1635
265.0427	0.1607
265.2569	0.1753
265.471	0.1613
265.6851	0.162
265.8993	0.1552
266.1134	0.1527
266.3275	0.1625
266.5415	0.1605
266.7556	0.1673
266.9697	0.1531
267.1837	0.1671
267.3978	0.1558
267.6118	0.1698
267.8258	0.1825
268.0398	0.1573
268.2538	0.1644
268.4677	0.1722
268.6817	0.1541
268.8957	0.1572
269.1096	0.1634
269.3235	0.1629
269.5374	0.1475
269.7514	0.1546
269.9652	0.1576
270.1791	0.1522
270.393	0.1452
270.6068	0.1635
270.8207	0.1306
271.0345	0.1479
271.2483	0.1492
271.4622	0.143
271.676	0.1659
271.8897	0.137
272.1035	0.1486
272.3173	0.1492
272.531	0.1436
272.7448	0.1507
272.9585	0.1476
273.1722	0.1394
273.3859	0.1501
273.5996	0.1336
273.8133	0.1429
274.0269	0.1469
274.2406	0.1422
274.4542	0.1419
274.6679	0.1314
274.8815	0.1508
275.0951	0.1425
275.3087	0.1551
275.5223	0.1565
275.7358	0.1533
275.9494	0.1449
276.1629	0.1366
276.3765	0.1477
276.59	0.1411
276.8035	0.156
277.017	0.1341
277.2305	0.1362
277.444	0.1533
277.6574	0.135
277.8709	0.1495
278.0843	0.1392
278.2978	0.1418
278.5112	0.1385
278.7246	0.1509
278.938	0.1565
279.1513	0.1419
279.3647	0.1499
279.5781	0.1464
279.7914	0.164
280.0047	0.1643
280.2181	0.1524
280.4314	0.1576
280.6447	0.1532
280.8579	0.1492
281.0712	0.1556
281.2845	0.1585
281.4977	0.154
281.711	0.1561
281.9242	0.1573
282.1374	0.1454
282.3506	0.1544
282.5638	0.16
282.7769	0.1503
282.9901	0.1461
283.2033	0.1721
283.4164	0.1706
283.6295	0.1506
283.8426	0.138
284.0557	0.1534
284.2688	0.1633
284.4819	0.165
284.695	0.1499
284.908	0.1578
285.1211	0.1566
285.3341	0.1625
285.5471	0.165
285.7601	0.1586
285.9731	0.1536
286.1861	0.1497
286.3991	0.1613
286.612	0.1608
286.825	0.1491
287.0379	0.1623
287.2508	0.1564
287.4637	0.1639
287.6766	0.1416
287.8895	0.166
288.1024	0.166
288.3152	0.1694
288.5281	0.163
288.7409	0.1615
288.9538	0.1526
289.1666	0.1643
289.3794	0.1689
289.5922	0.1567
289.8049	0.1606
290.0177	0.1629
290.2304	0.1637
290.4432	0.1648
290.6559	0.16
290.8686	0.1634
291.0813	0.1654
291.294	0.1601
291.5067	0.1733
291.7194	0.1645
291.932	0.1807
292.1447	0.1643
292.3573	0.1645
292.5699	0.1607
292.7825	0.1608
292.9951	0.1629
293.2077	0.1678
293.4203	0.17
293.6328	0.1666
293.8454	0.1683
294.0579	0.1567
294.2704	0.1634
294.4829	0.16
294.6954	0.1698
294.9079	0.1652
295.1204	0.1682
295.3328	0.1676
295.5453	0.156
295.7577	0.1648
295.9701	0.1512
296.1825	0.1551
296.3949	0.162
296.6073	0.1637
296.8197	0.1565
297.0321	0.1752
297.2444	0.1479
297.4567	0.1703
297.6691	0.1593
297.8814	0.1555
298.0937	0.1552
298.306	0.1661
298.5182	0.164
298.7305	0.1653
298.9428	0.1574
299.155	0.1657
299.3672	0.1563
299.5794	0.1512
299.7916	0.1608
300.0038	0.1695
300.216	0.1635
300.4282	0.1675
300.6403	0.1553
300.8525	0.1632
301.0646	0.1499
301.2767	0.1634
301.4888	0.1623
301.7009	0.1642
301.913	0.1617
302.125	0.1612
302.3371	0.1702
302.5491	0.1666
302.7612	0.1706
302.9732	0.1669
303.1852	0.1564
303.3972	0.1606
303.6092	0.1477
303.8211	0.1503
304.0331	0.1495
304.245	0.1518
304.457	0.1558
304.6689	0.1591
304.8808	0.1728
305.0927	0.144
305.3046	0.1676
305.5164	0.1532
305.7283	0.1519
305.9401	0.15
306.152	0.1471
306.3638	0.157
306.5756	0.1428
306.7874	0.1466
306.9992	0.1372
307.2109	0.1434
307.4227	0.1265
307.6344	0.1373
307.8462	0.1407
308.0579	0.1352
308.2696	0.1415
308.4813	0.1273
308.693	0.1289
308.9046	0.1382
309.1163	0.1282
309.328	0.13
309.5396	0.1186
309.7512	0.125
309.9628	0.125
310.1744	0.1194
310.386	0.1263
310.5976	0.1226
310.8091	0.1121
311.0207	0.1223
311.2322	0.1272
311.4437	0.1194
311.6552	0.1107
311.8667	0.1163
312.0782	0.103
312.2897	0.1117
312.5012	0.1079
312.7126	0.1012
312.924	0.1005
313.1355	0.115
313.3469	0.1144
313.5583	0.1098
313.7696	0.1183
313.981	0.1155
314.1924	0.1067
314.4037	0.1094
314.6151	0.1189
314.8264	0.1034
315.0377	0.0999
315.249	0.1031
315.4603	0.1099
315.6716	0.1026
315.8828	0.1015
316.0941	0.0969
316.3053	0.0991
316.5165	0.0908
316.7277	0.0966
316.9389	0.1105
317.1501	0.1083
317.3613	0.109
317.5724	0.0945
317.7836	0.0986
317.9947	0.0985
318.2058	0.0986
318.417	0.0884
318.6281	0.0842
318.8391	0.0938
319.0502	0.0947
319.2613	0.0947
319.4723	0.1012
319.6834	0.0996
319.8944	0.0953
320.1054	0.1088
320.3164	0.1084
320.5274	0.09
320.7383	0.087
320.9493	0.0938
321.1602	0.1133
321.3712	0.0886
321.5821	0.0936
321.793	0.0982
322.0039	0.096
322.2148	0.0943
322.4257	0.1011
322.6365	0.1152
322.8474	0.1003
323.0582	0.1014
323.269	0.102
323.4798	0.1108
323.6906	0.0944
323.9014	0.1043
324.1122	0.1078
324.3229	0.1125
324.5337	0.1029
324.7444	0.0973
324.9551	0.1161
325.1658	0.1066
325.3765	0.101
325.5872	0.1105
325.7979	0.1085
326.0085	0.1068
326.2192	0.1123
326.4298	0.1106
326.6404	0.0913
326.851	0.0935
327.0616	0.1002
327.2722	0.1013
327.4828	0.1074
327.6933	0.1056
327.9039	0.1175
328.1144	0.1085
328.3249	0.1021
328.5354	0.1006
328.7459	0.1004
328.9564	0.0988
329.1669	0.1022
329.3773	0.1046
329.5878	0.0986
329.7982	0.1077
330.0086	0.098
330.219	0.1091
330.4294	0.0941
330.6398	0.1044
330.8502	0.1012
331.0605	0.1047
331.2708	0.1007
331.4812	0.1008
331.6915	0.1087
331.9018	0.107
332.1121	0.1099
332.3224	0.1081
332.5326	0.1211
332.7429	0.1105
332.9531	0.1137
333.1633	0.1153
333.3735	0.1212
333.5837	0.113
333.7939	0.1004
334.0041	0.1124
334.2143	0.1219
334.4244	0.1078
334.6346	0.0904
334.8447	0.1244
335.0548	0.0927
335.2649	0.0983
335.475	0.1217
335.685	0.1099
335.8951	0.1131
336.1051	0.1112
336.3152	0.1141
336.5252	0.1062
336.7352	0.1142
336.9452	0.1158
337.1552	0.1223
337.3652	0.1062
337.5751	0.1177
337.7851	0.1108
337.995	0.0947
338.2049	0.1076
338.4148	0.1155
338.6247	0.1154
338.8346	0.1025
339.0445	0.1122
339.2543	0.1073
339.4642	0.1102
339.674	0.1114
339.8838	0.1203
340.0936	0.1111
340.3034	0.1285
340.5132	0.1213
340.7229	0.1313
340.9327	0.1203
341.1424	0.1127
341.3522	0.1323
341.5619	0.1155
341.7716	0.126
341.9813	0.126
342.1909	0.1154
342.4006	0.1328
342.6102	0.1346
342.8199	0.1282
343.0295	0.1269
343.2391	0.1185
343.4487	0.13
343.6583	0.1184
343.8679	0.1316
344.0774	0.1368
344.287	0.1361
344.4965	0.1307
344.706	0.1365
344.9155	0.1256
345.125	0.1127
345.3345	0.133
345.544	0.1239
345.7534	0.1342
345.9629	0.1192
346.1723	0.1264
346.3817	0.1307
346.5911	0.1192
346.8005	0.1361
347.0099	0.1208
347.2193	0.1367
347.4286	0.1406
347.638	0.1336
347.8473	0.1428
348.0566	0.142
348.2659	0.1274
348.4752	0.1378
348.6845	0.1373
348.8937	0.1346
349.103	0.1476
349.3122	0.1154
349.5214	0.1309
349.7306	0.1416
349.9398	0.1434
350.149	0.13
350.3582	0.1298
350.5674	0.1429
350.7765	0.1446
350.9856	0.1313
351.1948	0.1453
351.4039	0.1218
351.613	0.1233
351.822	0.1385
352.0311	0.1443
352.2402	0.1627
352.4492	0.146
352.6582	0.1405
352.8672	0.1441
353.0762	0.1488
353.2852	0.1354
353.4942	0.1501
353.7032	0.1454
353.9121	0.1465
354.1211	0.1485
354.33	0.164
354.5389	0.1575
354.7478	0.1505
354.9567	0.148
355.1655	0.1521
355.3744	0.1496
355.5833	0.1536
355.7921	0.174
356.0009	0.1543
356.2097	0.1635
356.4185	0.1746
356.6273	0.1634
356.8361	0.1737
357.0448	0.1596
357.2536	0.1595
357.4623	0.1498
357.671	0.162
357.8797	0.169
358.0884	0.1624
358.2971	0.158
358.5057	0.1699
358.7144	0.1688
358.923	0.1714
359.1316	0.1698
359.3402	0.1629
359.5488	0.174
359.7574	0.1461
359.966	0.1933
360.1746	0.1662
360.3831	0.1841
360.5916	0.1723
360.8002	0.1744
361.0087	0.1817
361.2172	0.1792
361.4256	0.1749
361.6341	0.1963
361.8426	0.1813
362.051	0.1808
362.2594	0.1772
362.4678	0.1758
362.6762	0.1962
362.8846	0.1861
363.093	0.1815
363.3014	0.1883
363.5097	0.1758
363.718	0.1792
363.9264	0.1814
364.1347	0.1743
364.343	0.1822
364.5513	0.2115
364.7595	0.2053
364.9678	0.1897
365.176	0.1968
365.3842	0.1826
365.5925	0.1831
365.8007	0.192
366.0089	0.2165
366.217	0.184
366.4252	0.2038
366.6333	0.2173
366.8415	0.2014
367.0496	0.2077
367.2577	0.2166
367.4658	0.2092
367.6739	0.2138
367.882	0.2029
368.09	0.1992
368.2981	0.2079
368.5061	0.2125
368.7141	0.2098
368.9221	0.2178
369.1301	0.2045
369.3381	0.2187
369.5461	0.2162
369.754	0.1986
369.962	0.216
370.1699	0.2295
370.3778	0.2289
370.5857	0.1978
370.7936	0.2098
371.0015	0.2125
371.2093	0.2029
371.4172	0.2293
371.625	0.2204
371.8328	0.206
372.0406	0.2233
372.2484	0.2164
372.4562	0.2154
372.664	0.2282
372.8717	0.2266
373.0795	0.1941
373.2872	0.2327
373.4949	0.2241
373.7026	0.2305
373.9103	0.2339
374.118	0.2354
374.3256	0.2301
374.5333	0.2272
374.7409	0.2346
374.9485	0.2472
375.1561	0.2265
375.3637	0.2276
375.5713	0.2357
375.7789	0.2252
375.9864	0.2418
376.194	0.224
376.4015	0.2437
376.609	0.2407
376.8165	0.2143
377.024	0.2423
377.2315	0.2262
377.4389	0.2492
377.6464	0.2484
377.8538	0.2509
378.0612	0.2281
378.2686	0.2409
378.476	0.2431
378.6834	0.2347
378.8908	0.2469
379.0981	0.2449
379.3055	0.2556
379.5128	0.229
379.7201	0.2501
379.9274	0.2292
380.1347	0.2341
380.342	0.262
380.5492	0.2532
380.7565	0.2367
380.9637	0.2584
381.1709	0.2442
381.3781	0.2529
381.5853	0.2614
381.7925	0.2682
381.9997	0.2525
382.2068	0.2485
382.4139	0.253
382.6211	0.2346
382.8282	0.2387
383.0353	0.248
383.2424	0.2542
383.4494	0.272
383.6565	0.2642
383.8635	0.2785
384.0706	0.2608
384.2776	0.2645
384.4846	0.2458
384.6916	0.2615
384.8986	0.2425
385.1055	0.2554
385.3125	0.2665
385.5194	0.2441
385.7263	0.2514
385.9333	0.2471
386.1402	0.2516
386.347	0.2697
386.5539	0.2419
386.7608	0.2759
386.9676	0.2411
387.1744	0.2638
387.3813	0.245
387.5881	0.2762
387.7948	0.2588
388.0016	0.2465
388.2084	0.2406
388.4151	0.2385
388.6219	0.2734
388.8286	0.2362
389.0353	0.263
389.242	0.2665
389.4487	0.2466
389.6553	0.2274
389.862	0.2375
390.0686	0.242
390.2753	0.2458
390.4819	0.2465
390.6885	0.2357
390.8951	0.2424
391.1016	0.2398
391.3082	0.226
391.5147	0.2393
391.7213	0.2287
391.9278	0.2278
392.1343	0.2289
392.3408	0.2268
392.5473	0.2352
392.7537	0.216
392.9602	0.2308
393.1666	0.2343
393.373	0.223
393.5794	0.2504
393.7858	0.2343
393.9922	0.2204
394.1986	0.2272
394.4049	0.213
394.6113	0.2169
394.8176	0.1991
395.0239	0.2157
395.2302	0.2234
395.4365	0.2255
395.6428	0.2228
395.8491	0.2155
396.0553	0.2141
396.2615	0.2198
396.4678	0.2123
396.674	0.2075
396.8802	0.2019
397.0863	0.2413
397.2925	0.2096
397.4987	0.2239
397.7048	0.2137
397.9109	0.2191
398.117	0.2136
398.3231	0.2016
398.5292	0.2199
398.7353	0.2145
398.9413	0.2103
399.1474	0.2
399.3534	0.2025
399.5594	0.2057
399.7654	0.2304
399.9714	0.2216
400.1774	0.2094
400.3833	0.205
400.5893	0.2159
400.7952	0.2145
401.0011	0.2157
401.207	0.2158
401.4129	0.213
401.6188	0.2349
401.8247	0.213
402.0305	0.1895
402.2364	0.2072
402.4422	0.2078
402.648	0.2152
402.8538	0.207
403.0596	0.196
403.2654	0.2165
403.4711	0.2079
403.6768	0.216
403.8826	0.2244
404.0883	0.212
404.294	0.2126
404.4997	0.2271
404.7054	0.196
404.911	0.1935
405.1167	0.2126
405.3223	0.2103
405.5279	0.2187
405.7335	0.2071
405.9391	0.2274
406.1447	0.214
406.3502	0.2285
406.5558	0.1954
406.7613	0.2264
406.9668	0.2021
407.1724	0.2023
407.3778	0.2248
407.5833	0.2233
407.7888	0.2093
407.9942	0.2172
408.1997	0.2126
408.4051	0.2261
408.6105	0.2254
408.8159	0.1972
409.0213	0.2081
409.2267	0.2316
409.432	0.1933
409.6374	0.212
409.8427	0.2199
410.048	0.2085
410.2533	0.2026
410.4586	0.1995
410.6639	0.2014
410.8691	0.1938
411.0744	0.2094
411.2796	0.1974
411.4848	0.2069
411.69	0.2034
411.8952	0.2316
412.1004	0.1894
412.3056	0.2222
412.5107	0.2095
412.7158	0.2153
412.921	0.2104
413.1261	0.2076
413.3312	0.1918
413.5362	0.2106
413.7413	0.2035
413.9464	0.2063
414.1514	0.2153
414.3564	0.208
414.5614	0.1922
414.7664	0.1954
414.9714	0.2002
415.1764	0.2138
415.3813	0.214
415.5863	0.207
415.7912	0.2151
415.9961	0.1921
416.201	0.1934
416.4059	0.2082
416.6108	0.187
416.8156	0.2083
417.0205	0.1974
417.2253	0.2027
417.4301	0.1897
417.6349	0.1989
417.8397	0.2046
418.0445	0.2097
418.2492	0.1997
418.454	0.1968
418.6587	0.1927
418.8634	0.1897
419.0681	0.1729
419.2728	0.18
419.4775	0.2074
419.6822	0.1856
419.8868	0.1786
420.0915	0.2037
420.2961	0.1831
420.5007	0.1722
420.7053	0.193
420.9099	0.2048
421.1144	0.1969
421.319	0.1804
421.5235	0.1933
421.728	0.1903
421.9325	0.1848
422.137	0.1989
422.3415	0.1873
422.546	0.1838
422.7504	0.1826
422.9549	0.1892
423.1593	0.1832
423.3637	0.1973
423.5681	0.1861
423.7725	0.1667
423.9769	0.1826
424.1812	0.1819
424.3856	0.1613
424.5899	0.1809
424.7942	0.1809
424.9985	0.1832
425.2028	0.1852
425.4071	0.2011
425.6113	0.1618
425.8156	0.1679
426.0198	0.1752
426.224	0.1611
426.4282	0.1611
426.6324	0.1597
