Data from MonoPyChalIsomerACN10uM350nmA_Absorbance_14-35-31-915.txt Node
Date: Fri Jul 05 14:35:31 BST 2024
User: LASERRRRR
Spectrometer: FLMT03099
Trigger mode: 0
Integration Time (sec): 1.000000E-1
Scans to average: 1
Electric dark correction enabled: true
Nonlinearity correction enabled: false
Boxcar width: 0
XAxis mode: Wavelengths
Number of Pixels in Spectrum: 3648
>>>>>Begin Spectral Data<<<<<
179.3399	-0.3506
179.5586	-0.3506
179.7771	-0.3506
179.9957	-0
180.2143	-0.2518
180.4329	-0.2021
180.6514	0.6456
180.8699	-0.0287
181.0885	0.1146
181.307	0.261
181.5255	-0.2835
181.744	-0.5954
181.9625	-0
182.181	-0.8427
182.3994	-0
182.6179	-0
182.8363	-0.0826
183.0547	-0.4107
183.2732	-0.1914
183.4916	0.0325
183.71	0.1479
183.9284	0.2597
184.1467	-0.2298
184.3651	-0.1339
184.5835	0.2663
184.8018	0.1735
185.0201	0.2505
185.2385	0.016
185.4568	0.0399
185.6751	-0.0975
185.8934	0.3959
186.1117	-0.039
186.3299	0.0003
186.5482	0.0049
186.7664	-0.1304
186.9847	-0.0825
187.2029	-0.069
187.4211	0.0877
187.6393	0.1217
187.8575	0.0442
188.0757	0.1156
188.2939	0.0826
188.512	0.0702
188.7302	-0.2539
188.9483	0.0201
189.1665	0.289
189.3846	-0.0356
189.6027	0.1711
189.8208	0.1623
190.0389	-0.0027
190.257	0.1602
190.475	0.2398
190.6931	-0.074
190.9111	0.3128
191.1292	0.116
191.3472	0.4672
191.5652	0.2213
191.7832	0.1431
192.0012	0.6614
192.2192	0.3115
192.4371	0.6036
192.6551	0.3136
192.873	0.4091
193.091	0.4533
193.3089	0.5011
193.5268	0.3319
193.7447	0.5546
193.9626	0.4462
194.1805	0.6735
194.3984	0.7883
194.6162	0.5024
194.8341	0.6358
195.0519	0.6271
195.2697	0.5227
195.4875	0.5578
195.7054	0.7673
195.9231	0.5303
196.1409	0.6244
196.3587	0.558
196.5765	0.5983
196.7942	0.5746
197.012	0.4048
197.2297	0.7047
197.4474	0.6708
197.6651	0.5261
197.8828	0.512
198.1005	0.6083
198.3182	0.4838
198.5358	0.6049
198.7535	0.5444
198.9711	0.606
199.1888	0.5485
199.4064	0.8319
199.624	0.5852
199.8416	0.5334
200.0592	0.6288
200.2767	0.6711
200.4943	0.6642
200.7119	0.6032
200.9294	0.6786
201.1469	0.6177
201.3645	0.5058
201.582	0.6597
201.7995	0.5739
202.017	0.5852
202.2344	0.602
202.4519	0.6511
202.6694	0.6906
202.8868	0.5194
203.1042	0.6321
203.3217	0.5969
203.5391	0.5711
203.7565	0.5649
203.9739	0.6
204.1913	0.618
204.4086	0.5878
204.626	0.6576
204.8433	0.6384
205.0607	0.6179
205.278	0.6283
205.4953	0.5888
205.7126	0.681
205.9299	0.7264
206.1472	0.7379
206.3644	0.6112
206.5817	0.7388
206.7989	0.7367
207.0162	0.6747
207.2334	0.6448
207.4506	0.5801
207.6678	0.6688
207.885	0.6973
208.1022	0.6016
208.3194	0.5995
208.5365	0.6039
208.7537	0.5705
208.9708	0.6156
209.1879	0.5956
209.405	0.5997
209.6222	0.6307
209.8392	0.5862
210.0563	0.5751
210.2734	0.6041
210.4905	0.5814
210.7075	0.5615
210.9245	0.5259
211.1416	0.6685
211.3586	0.587
211.5756	0.5708
211.7926	0.5999
212.0096	0.5552
212.2265	0.5054
212.4435	0.5656
212.6604	0.5912
212.8774	0.551
213.0943	0.5987
213.3112	0.5357
213.5281	0.5841
213.745	0.4933
213.9619	0.4734
214.1788	0.4612
214.3956	0.4925
214.6125	0.4472
214.8293	0.4335
215.0461	0.5008
215.2629	0.4332
215.4798	0.4578
215.6965	0.4263
215.9133	0.4407
216.1301	0.4171
216.3469	0.4366
216.5636	0.3971
216.7803	0.37
216.9971	0.4011
217.2138	0.3669
217.4305	0.3537
217.6472	0.3542
217.8639	0.3738
218.0805	0.331
218.2972	0.3355
218.5138	0.3355
218.7305	0.3266
218.9471	0.2974
219.1637	0.2726
219.3803	0.2785
219.5969	0.2709
219.8135	0.2682
220.0301	0.2738
220.2466	0.3
220.4632	0.2402
220.6797	0.2327
220.8962	0.2488
221.1127	0.2575
221.3292	0.2379
221.5457	0.2326
221.7622	0.2222
221.9787	0.2619
222.1951	0.2273
222.4116	0.2472
222.628	0.2527
222.8444	0.2471
223.0608	0.2437
223.2772	0.2458
223.4936	0.2549
223.71	0.2447
223.9264	0.2775
224.1427	0.2481
224.3591	0.2338
224.5754	0.2639
224.7917	0.2554
225.008	0.2812
225.2243	0.2489
225.4406	0.2904
225.6569	0.2537
225.8732	0.2658
226.0894	0.2634
226.3057	0.2492
226.5219	0.2879
226.7381	0.2706
226.9543	0.2621
227.1705	0.2881
227.3867	0.2709
227.6029	0.295
227.8191	0.2945
228.0352	0.2872
228.2513	0.3084
228.4675	0.2923
228.6836	0.2949
228.8997	0.3036
229.1158	0.2894
229.3319	0.3034
229.548	0.296
229.764	0.3177
229.9801	0.3414
230.1961	0.3191
230.4121	0.3349
230.6282	0.3294
230.8442	0.3095
231.0602	0.3416
231.2761	0.3531
231.4921	0.3191
231.7081	0.3359
231.924	0.3324
232.14	0.3633
232.3559	0.3539
232.5718	0.3402
232.7877	0.3451
233.0036	0.3261
233.2195	0.3439
233.4353	0.3316
233.6512	0.3599
233.867	0.3634
234.0829	0.3527
234.2987	0.345
234.5145	0.3632
234.7303	0.3694
234.9461	0.3709
235.1619	0.3796
235.3776	0.3764
235.5934	0.3926
235.8091	0.3551
236.0249	0.3582
236.2406	0.3926
236.4563	0.3704
236.672	0.3825
236.8877	0.3804
237.1034	0.3976
237.319	0.4068
237.5347	0.4097
237.7503	0.3874
237.966	0.4199
238.1816	0.4012
238.3972	0.3946
238.6128	0.395
238.8284	0.4068
239.0439	0.4111
239.2595	0.3907
239.475	0.4036
239.6906	0.4145
239.9061	0.4186
240.1216	0.4039
240.3371	0.4038
240.5526	0.3935
240.7681	0.4081
240.9836	0.3749
241.199	0.3838
241.4145	0.3899
241.6299	0.3691
241.8453	0.3597
242.0607	0.3692
242.2761	0.3568
242.4915	0.355
242.7069	0.3539
242.9223	0.3327
243.1376	0.3261
243.353	0.331
243.5683	0.3292
243.7836	0.3093
243.9989	0.3126
244.2142	0.3007
244.4295	0.3016
244.6448	0.3043
244.86	0.2782
245.0753	0.2835
245.2905	0.2796
245.5057	0.2622
245.721	0.2639
245.9362	0.2466
246.1514	0.2679
246.3665	0.2437
246.5817	0.2538
246.7969	0.228
247.012	0.2422
247.2271	0.2244
247.4423	0.2314
247.6574	0.2292
247.8725	0.2252
248.0876	0.2095
248.3026	0.2187
248.5177	0.2168
248.7328	0.2044
248.9478	0.1963
249.1628	0.2026
249.3779	0.2103
249.5929	0.1858
249.8079	0.2116
250.0228	0.1982
250.2378	0.196
250.4528	0.1864
250.6677	0.1739
250.8827	0.1878
251.0976	0.1758
251.3125	0.1832
251.5274	0.1719
251.7423	0.178
251.9572	0.1819
252.172	0.1789
252.3869	0.1658
252.6017	0.1699
252.8166	0.1547
253.0314	0.1513
253.2462	0.1663
253.461	0.1738
253.6758	0.1661
253.8906	0.1683
254.1053	0.1605
254.3201	0.1831
254.5348	0.1886
254.7496	0.1804
254.9643	0.1626
255.179	0.1813
255.3937	0.1621
255.6083	0.163
255.823	0.1655
256.0377	0.1635
256.2523	0.157
256.467	0.1552
256.6816	0.1663
256.8962	0.1658
257.1108	0.1462
257.3254	0.1718
257.54	0.1621
257.7545	0.1587
257.9691	0.1683
258.1836	0.1587
258.3981	0.1683
258.6127	0.1649
258.8272	0.1555
259.0417	0.156
259.2561	0.1661
259.4706	0.1548
259.6851	0.1524
259.8995	0.1484
260.114	0.1567
260.3284	0.1486
260.5428	0.1493
260.7572	0.1554
260.9716	0.1672
261.186	0.1532
261.4003	0.1631
261.6147	0.1643
261.829	0.1613
262.0433	0.148
262.2577	0.1593
262.472	0.1609
262.6863	0.1489
262.9005	0.146
263.1148	0.1601
263.3291	0.1368
263.5433	0.1625
263.7576	0.1617
263.9718	0.1589
264.186	0.1595
264.4002	0.1554
264.6144	0.1502
264.8286	0.1697
265.0427	0.1565
265.2569	0.1658
265.471	0.1503
265.6851	0.1543
265.8993	0.1491
266.1134	0.1517
266.3275	0.1487
266.5415	0.1559
266.7556	0.1614
266.9697	0.156
267.1837	0.1541
267.3978	0.1567
267.6118	0.1539
267.8258	0.1619
268.0398	0.1415
268.2538	0.1493
268.4677	0.1448
268.6817	0.1645
268.8957	0.1466
269.1096	0.153
269.3235	0.1444
269.5374	0.1613
269.7514	0.1454
269.9652	0.1388
270.1791	0.1408
270.393	0.1384
270.6068	0.1396
270.8207	0.1326
271.0345	0.1264
271.2483	0.1451
271.4622	0.1371
271.676	0.1463
271.8897	0.1158
272.1035	0.1256
272.3173	0.129
272.531	0.1337
272.7448	0.1267
272.9585	0.1317
273.1722	0.1365
273.3859	0.1308
273.5996	0.1248
273.8133	0.1295
274.0269	0.1179
274.2406	0.1267
274.4542	0.1284
274.6679	0.1219
274.8815	0.1297
275.0951	0.1366
275.3087	0.1457
275.5223	0.1399
275.7358	0.1371
275.9494	0.1365
276.1629	0.128
276.3765	0.1225
276.59	0.1298
276.8035	0.1363
277.017	0.1322
277.2305	0.1274
277.444	0.1412
277.6574	0.1201
277.8709	0.1358
278.0843	0.1283
278.2978	0.1244
278.5112	0.1322
278.7246	0.1381
278.938	0.1429
279.1513	0.1398
279.3647	0.1538
279.5781	0.1272
279.7914	0.143
280.0047	0.1453
280.2181	0.1343
280.4314	0.1317
280.6447	0.1396
280.8579	0.1418
281.0712	0.1455
281.2845	0.1386
281.4977	0.1462
281.711	0.1285
281.9242	0.136
282.1374	0.1491
282.3506	0.1272
282.5638	0.1506
282.7769	0.1457
282.9901	0.1379
283.2033	0.1462
283.4164	0.158
283.6295	0.1372
283.8426	0.1304
284.0557	0.1502
284.2688	0.1625
284.4819	0.1487
284.695	0.1417
284.908	0.152
285.1211	0.1431
285.3341	0.1483
285.5471	0.1577
285.7601	0.1508
285.9731	0.1456
286.1861	0.1434
286.3991	0.163
286.612	0.1584
286.825	0.1628
287.0379	0.1674
287.2508	0.1495
287.4637	0.1604
287.6766	0.1413
287.8895	0.1649
288.1024	0.1737
288.3152	0.1669
288.5281	0.1494
288.7409	0.1495
288.9538	0.1606
289.1666	0.1518
289.3794	0.155
289.5922	0.1615
289.8049	0.1748
290.0177	0.1544
290.2304	0.1586
290.4432	0.1632
290.6559	0.1619
290.8686	0.1689
291.0813	0.1744
291.294	0.1571
291.5067	0.1718
291.7194	0.1544
291.932	0.1736
292.1447	0.166
292.3573	0.1602
292.5699	0.1559
292.7825	0.1707
292.9951	0.1625
293.2077	0.16
293.4203	0.1612
293.6328	0.1607
293.8454	0.1664
294.0579	0.1794
294.2704	0.1563
294.4829	0.1564
294.6954	0.1644
294.9079	0.1756
295.1204	0.1656
295.3328	0.1674
295.5453	0.1718
295.7577	0.1692
295.9701	0.1592
296.1825	0.165
296.3949	0.1546
296.6073	0.1549
296.8197	0.1526
297.0321	0.1693
297.2444	0.1563
297.4567	0.1732
297.6691	0.1719
297.8814	0.1543
298.0937	0.1617
298.306	0.1757
298.5182	0.164
298.7305	0.1754
298.9428	0.1668
299.155	0.1623
299.3672	0.1563
299.5794	0.164
299.7916	0.1643
300.0038	0.1767
300.216	0.1779
300.4282	0.1673
300.6403	0.1493
300.8525	0.1687
301.0646	0.1584
301.2767	0.1655
301.4888	0.1575
301.7009	0.161
301.913	0.1587
302.125	0.1751
302.3371	0.1672
302.5491	0.1577
302.7612	0.1688
302.9732	0.1749
303.1852	0.1687
303.3972	0.1729
303.6092	0.1625
303.8211	0.1609
304.0331	0.1572
304.245	0.1553
304.457	0.1518
304.6689	0.1577
304.8808	0.1796
305.0927	0.1492
305.3046	0.1676
305.5164	0.1577
305.7283	0.1484
305.9401	0.1587
306.152	0.151
306.3638	0.1438
306.5756	0.1559
306.7874	0.1394
306.9992	0.1529
307.2109	0.1462
307.4227	0.1236
307.6344	0.1417
307.8462	0.1369
308.0579	0.1348
308.2696	0.1243
308.4813	0.125
308.693	0.1268
308.9046	0.1284
309.1163	0.1201
309.328	0.1248
309.5396	0.1188
309.7512	0.1189
309.9628	0.1112
310.1744	0.1146
310.386	0.1244
310.5976	0.1072
310.8091	0.1156
311.0207	0.1167
311.2322	0.118
311.4437	0.1019
311.6552	0.1063
311.8667	0.1114
312.0782	0.1008
312.2897	0.1007
312.5012	0.1036
312.7126	0.1068
312.924	0.097
313.1355	0.1108
313.3469	0.1081
313.5583	0.0984
313.7696	0.1019
313.981	0.1061
314.1924	0.0913
314.4037	0.0954
314.6151	0.105
314.8264	0.0899
315.0377	0.0945
315.249	0.1018
315.4603	0.0955
315.6716	0.0907
315.8828	0.0936
316.0941	0.0924
316.3053	0.0839
316.5165	0.0924
316.7277	0.076
316.9389	0.095
317.1501	0.0949
317.3613	0.0995
317.5724	0.0771
317.7836	0.0929
317.9947	0.0975
318.2058	0.0836
318.417	0.0877
318.6281	0.0859
318.8391	0.0812
319.0502	0.0841
319.2613	0.0873
319.4723	0.1015
319.6834	0.1007
319.8944	0.0854
320.1054	0.0926
320.3164	0.0979
320.5274	0.085
320.7383	0.0702
320.9493	0.09
321.1602	0.0933
321.3712	0.0725
321.5821	0.0915
321.793	0.0979
322.0039	0.0876
322.2148	0.0875
322.4257	0.0867
322.6365	0.0961
322.8474	0.0932
323.0582	0.0858
323.269	0.1037
323.4798	0.0983
323.6906	0.0906
323.9014	0.0918
324.1122	0.0894
324.3229	0.0946
324.5337	0.0837
324.7444	0.0809
324.9551	0.1011
325.1658	0.0955
325.3765	0.096
325.5872	0.0859
325.7979	0.0925
326.0085	0.0968
326.2192	0.0936
326.4298	0.0916
326.6404	0.0814
326.851	0.0916
327.0616	0.0836
327.2722	0.0878
327.4828	0.1008
327.6933	0.0958
327.9039	0.0976
328.1144	0.0915
328.3249	0.0962
328.5354	0.0885
328.7459	0.0885
328.9564	0.0896
329.1669	0.0893
329.3773	0.0873
329.5878	0.0981
329.7982	0.0762
330.0086	0.0957
330.219	0.0923
330.4294	0.1006
330.6398	0.0848
330.8502	0.0905
331.0605	0.1012
331.2708	0.1004
331.4812	0.1013
331.6915	0.1008
331.9018	0.1006
332.1121	0.0935
332.3224	0.0974
332.5326	0.1002
332.7429	0.0878
332.9531	0.1131
333.1633	0.0974
333.3735	0.106
333.5837	0.0881
333.7939	0.0828
334.0041	0.1098
334.2143	0.1022
334.4244	0.0966
334.6346	0.084
334.8447	0.0984
335.0548	0.099
335.2649	0.0928
335.475	0.1038
335.685	0.0933
335.8951	0.1149
336.1051	0.1087
336.3152	0.0974
336.5252	0.0975
336.7352	0.1031
336.9452	0.0938
337.1552	0.1144
337.3652	0.0989
337.5751	0.0946
337.7851	0.099
337.995	0.0973
338.2049	0.1012
338.4148	0.1001
338.6247	0.1026
338.8346	0.1081
339.0445	0.0845
339.2543	0.1029
339.4642	0.0955
339.674	0.0912
339.8838	0.1025
340.0936	0.0953
340.3034	0.1156
340.5132	0.1167
340.7229	0.1033
340.9327	0.1052
341.1424	0.1052
341.3522	0.1144
341.5619	0.1092
341.7716	0.1035
341.9813	0.0998
342.1909	0.1152
342.4006	0.1184
342.6102	0.1202
342.8199	0.1033
343.0295	0.097
343.2391	0.1155
343.4487	0.1217
343.6583	0.1155
343.8679	0.121
344.0774	0.1208
344.287	0.122
344.4965	0.1153
344.706	0.1234
344.9155	0.119
345.125	0.1114
345.3345	0.128
345.544	0.1154
345.7534	0.1185
345.9629	0.1116
346.1723	0.1126
346.3817	0.1182
346.5911	0.1279
346.8005	0.1214
347.0099	0.1218
347.2193	0.1278
347.4286	0.1145
347.638	0.1225
347.8473	0.1258
348.0566	0.1256
348.2659	0.1383
348.4752	0.1231
348.6845	0.1254
348.8937	0.1317
349.103	0.1297
349.3122	0.123
349.5214	0.1287
349.7306	0.1422
349.9398	0.127
350.149	0.1259
350.3582	0.1335
350.5674	0.143
350.7765	0.1312
350.9856	0.1192
351.1948	0.1373
351.4039	0.1223
351.613	0.1287
351.822	0.1312
352.0311	0.1371
352.2402	0.1313
352.4492	0.14
352.6582	0.1376
352.8672	0.1259
353.0762	0.1338
353.2852	0.1372
353.4942	0.1292
353.7032	0.1402
353.9121	0.1379
354.1211	0.1544
354.33	0.1483
354.5389	0.1463
354.7478	0.1472
354.9567	0.1296
355.1655	0.1359
355.3744	0.1519
355.5833	0.1593
355.7921	0.1684
356.0009	0.1439
356.2097	0.1731
356.4185	0.1749
356.6273	0.1484
356.8361	0.156
357.0448	0.1357
357.2536	0.1597
357.4623	0.1508
357.671	0.1591
357.8797	0.1593
358.0884	0.1571
358.2971	0.1646
358.5057	0.164
358.7144	0.1612
358.923	0.1592
359.1316	0.1534
359.3402	0.168
359.5488	0.1655
359.7574	0.1533
359.966	0.18
360.1746	0.1647
360.3831	0.1722
360.5916	0.1578
360.8002	0.1676
361.0087	0.1856
361.2172	0.1725
361.4256	0.163
361.6341	0.1849
361.8426	0.1816
362.051	0.1694
362.2594	0.1822
362.4678	0.1735
362.6762	0.1995
362.8846	0.1787
363.093	0.166
363.3014	0.1827
363.5097	0.1776
363.718	0.192
363.9264	0.1959
364.1347	0.1848
364.343	0.1855
364.5513	0.1938
364.7595	0.2002
364.9678	0.1949
365.176	0.2023
365.3842	0.2045
365.5925	0.189
365.8007	0.1911
366.0089	0.1825
366.217	0.1901
366.4252	0.2265
366.6333	0.2013
366.8415	0.2028
367.0496	0.1983
367.2577	0.2165
367.4658	0.2115
367.6739	0.2096
367.882	0.216
368.09	0.2036
368.2981	0.2073
368.5061	0.1971
368.7141	0.2238
368.9221	0.217
369.1301	0.2147
369.3381	0.2129
369.5461	0.2157
369.754	0.2173
369.962	0.239
370.1699	0.2079
370.3778	0.2151
370.5857	0.1954
370.7936	0.2171
371.0015	0.2449
371.2093	0.2234
371.4172	0.2251
371.625	0.2036
371.8328	0.23
372.0406	0.2365
372.2484	0.2161
372.4562	0.2423
372.664	0.2332
372.8717	0.2304
373.0795	0.2069
373.2872	0.2347
373.4949	0.2445
373.7026	0.2235
373.9103	0.2411
374.118	0.2382
374.3256	0.2334
374.5333	0.2378
374.7409	0.2293
374.9485	0.2389
375.1561	0.2366
375.3637	0.2511
375.5713	0.2369
375.7789	0.2422
375.9864	0.2453
376.194	0.2356
376.4015	0.2392
376.609	0.2539
376.8165	0.2378
377.024	0.2313
377.2315	0.2366
377.4389	0.2523
377.6464	0.2551
377.8538	0.2464
378.0612	0.235
378.2686	0.2562
378.476	0.2721
378.6834	0.2507
378.8908	0.2466
379.0981	0.2562
379.3055	0.2553
379.5128	0.2595
379.7201	0.2535
379.9274	0.2473
380.1347	0.2618
380.342	0.2796
380.5492	0.252
380.7565	0.2612
380.9637	0.2586
381.1709	0.2629
381.3781	0.2632
381.5853	0.2646
381.7925	0.2801
381.9997	0.2612
382.2068	0.2672
382.4139	0.2737
382.6211	0.265
382.8282	0.2748
383.0353	0.2842
383.2424	0.2688
383.4494	0.2728
383.6565	0.2597
383.8635	0.283
384.0706	0.2722
384.2776	0.2725
384.4846	0.2628
384.6916	0.2746
384.8986	0.2809
385.1055	0.2783
385.3125	0.2768
385.5194	0.2616
385.7263	0.2768
385.9333	0.2684
386.1402	0.2762
386.347	0.2812
386.5539	0.2805
386.7608	0.2761
386.9676	0.2521
387.1744	0.2788
387.3813	0.2795
387.5881	0.2915
387.7948	0.2669
388.0016	0.2642
388.2084	0.2732
388.4151	0.2568
388.6219	0.2714
388.8286	0.2546
389.0353	0.2762
389.242	0.2863
389.4487	0.2489
389.6553	0.2489
389.862	0.2439
390.0686	0.2628
390.2753	0.2744
390.4819	0.2548
390.6885	0.2575
390.8951	0.2558
391.1016	0.258
391.3082	0.2581
391.5147	0.2519
391.7213	0.2432
391.9278	0.2378
392.1343	0.2607
392.3408	0.2482
392.5473	0.243
392.7537	0.2451
392.9602	0.2444
393.1666	0.2369
393.373	0.2379
393.5794	0.2506
393.7858	0.2642
393.9922	0.2502
394.1986	0.2457
394.4049	0.2522
394.6113	0.2385
394.8176	0.2305
395.0239	0.2402
395.2302	0.22
395.4365	0.2315
395.6428	0.2406
395.8491	0.2197
396.0553	0.2211
396.2615	0.2436
396.4678	0.2313
396.674	0.2219
396.8802	0.239
397.0863	0.2575
397.2925	0.2311
397.4987	0.2242
397.7048	0.2148
397.9109	0.2307
398.117	0.2129
398.3231	0.2259
398.5292	0.2415
398.7353	0.258
398.9413	0.2284
399.1474	0.2162
399.3534	0.2231
399.5594	0.2185
399.7654	0.2383
399.9714	0.2406
400.1774	0.2163
400.3833	0.2202
400.5893	0.2323
400.7952	0.2019
401.0011	0.2174
401.207	0.2309
401.4129	0.2315
401.6188	0.2348
401.8247	0.2428
402.0305	0.2212
402.2364	0.2157
402.4422	0.2431
402.648	0.2405
402.8538	0.246
403.0596	0.2303
403.2654	0.239
403.4711	0.2239
403.6768	0.2437
403.8826	0.2344
404.0883	0.2306
404.294	0.2261
404.4997	0.2106
404.7054	0.2319
404.911	0.2273
405.1167	0.2289
405.3223	0.254
405.5279	0.2426
405.7335	0.2273
405.9391	0.229
406.1447	0.2171
406.3502	0.2446
406.5558	0.2339
406.7613	0.2271
406.9668	0.215
407.1724	0.2364
407.3778	0.2157
407.5833	0.2333
407.7888	0.2224
407.9942	0.245
408.1997	0.2424
408.4051	0.2304
408.6105	0.2254
408.8159	0.2273
409.0213	0.2157
409.2267	0.2467
409.432	0.2184
409.6374	0.2361
409.8427	0.2233
410.048	0.2276
410.2533	0.216
410.4586	0.2228
410.6639	0.2137
410.8691	0.2265
411.0744	0.2131
411.2796	0.2248
411.4848	0.2169
411.69	0.2365
411.8952	0.2333
412.1004	0.2221
412.3056	0.2271
412.5107	0.2229
412.7158	0.2346
412.921	0.2308
413.1261	0.2213
413.3312	0.2228
413.5362	0.2028
413.7413	0.2131
413.9464	0.2264
414.1514	0.2098
414.3564	0.2072
414.5614	0.2074
414.7664	0.2133
414.9714	0.2298
415.1764	0.2219
415.3813	0.2312
415.5863	0.2241
415.7912	0.2054
415.9961	0.2011
416.201	0.2066
416.4059	0.224
416.6108	0.1927
416.8156	0.2209
417.0205	0.2063
417.2253	0.2106
417.4301	0.2318
417.6349	0.2038
417.8397	0.1994
418.0445	0.2135
418.2492	0.2169
418.454	0.2011
418.6587	0.2229
418.8634	0.2292
419.0681	0.2018
419.2728	0.205
419.4775	0.2226
419.6822	0.1856
419.8868	0.1843
420.0915	0.2095
420.2961	0.2048
420.5007	0.1849
420.7053	0.2112
420.9099	0.2123
421.1144	0.1932
421.319	0.1965
421.5235	0.2052
421.728	0.2099
421.9325	0.214
422.137	0.2182
422.3415	0.1985
422.546	0.1941
422.7504	0.2167
422.9549	0.1908
423.1593	0.1999
423.3637	0.2019
423.5681	0.187
423.7725	0.19
423.9769	0.1965
424.1812	0.1768
424.3856	0.183
424.5899	0.1847
424.7942	0.1804
424.9985	0.1987
425.2028	0.1928
425.4071	0.1917
425.6113	0.182
425.8156	0.1847
426.0198	0.1954
426.224	0.1788
