Data from MonoPyChalIsomerACN10uM350nmA_Absorbance_14-35-36-115.txt Node
Date: Fri Jul 05 14:35:36 BST 2024
User: LASERRRRR
Spectrometer: FLMT03099
Trigger mode: 0
Integration Time (sec): 1.000000E-1
Scans to average: 1
Electric dark correction enabled: true
Nonlinearity correction enabled: false
Boxcar width: 0
XAxis mode: Wavelengths
Number of Pixels in Spectrum: 3648
>>>>>Begin Spectral Data<<<<<
179.3399	0.2409
179.5586	0.2409
179.7771	0.2409
179.9957	0.0148
180.2143	-0
180.4329	-0
180.6514	-0
180.8699	-0
181.0885	0.482
181.307	0.0931
181.5255	-0
181.744	-0
181.9625	-0
182.181	-0.284
182.3994	-0
182.6179	-0
182.8363	-0.0369
183.0547	-0.4337
183.2732	0.004
183.4916	0.3881
183.71	0.2319
183.9284	0.1672
184.1467	-0.0364
184.3651	-0.0977
184.5835	0.107
184.8018	-0.0875
185.0201	0.0979
185.2385	0.1656
185.4568	0.1184
185.6751	0.0687
185.8934	0.5751
186.1117	0.0776
186.3299	0.1309
186.5482	0.2701
186.7664	0.0195
186.9847	-0.2151
187.2029	0.1414
187.4211	0.0835
187.6393	0.1576
187.8575	-0.1321
188.0757	0.1229
188.2939	0.0363
188.512	-0.2016
188.7302	0.1446
188.9483	0.0764
189.1665	0.3523
189.3846	-0.1581
189.6027	0.1556
189.8208	0.5734
190.0389	0.0903
190.257	0.0887
190.475	0.2117
190.6931	0.1584
190.9111	0.5029
191.1292	0.3061
191.3472	0.4553
191.5652	0.3336
191.7832	0.4506
192.0012	0.3318
192.2192	0.3077
192.4371	0.4876
192.6551	0.536
192.873	0.2877
193.091	0.3562
193.3089	0.7872
193.5268	0.6848
193.7447	0.5498
193.9626	0.5123
194.1805	0.4227
194.3984	0.581
194.6162	0.4664
194.8341	0.5546
195.0519	0.7038
195.2697	0.8143
195.4875	0.5532
195.7054	0.7312
195.9231	0.6057
196.1409	0.4901
196.3587	0.639
196.5765	0.5048
196.7942	0.5976
197.012	0.5759
197.2297	0.6661
197.4474	0.8998
197.6651	0.5383
197.8828	0.6441
198.1005	0.6464
198.3182	0.6469
198.5358	0.709
198.7535	0.645
198.9711	0.5445
199.1888	0.6172
199.4064	0.7007
199.624	0.5349
199.8416	0.5741
200.0592	0.6194
200.2767	0.6709
200.4943	0.8786
200.7119	0.6941
200.9294	0.6941
201.1469	0.6385
201.3645	0.5424
201.582	0.5185
201.7995	0.6953
202.017	0.6506
202.2344	0.5772
202.4519	0.5786
202.6694	0.7393
202.8868	0.6394
203.1042	0.7311
203.3217	0.7476
203.5391	0.7614
203.7565	0.5556
203.9739	0.6473
204.1913	0.5873
204.4086	0.6217
204.626	0.7211
204.8433	0.6225
205.0607	0.6158
205.278	0.6837
205.4953	0.5582
205.7126	0.6334
205.9299	0.8668
206.1472	0.74
206.3644	0.6463
206.5817	0.6376
206.7989	0.768
207.0162	0.6308
207.2334	0.6556
207.4506	0.7495
207.6678	0.6508
207.885	0.6442
208.1022	0.6972
208.3194	0.6727
208.5365	0.6448
208.7537	0.6935
208.9708	0.6141
209.1879	0.6498
209.405	0.6422
209.6222	0.6809
209.8392	0.6723
210.0563	0.6275
210.2734	0.6866
210.4905	0.6462
210.7075	0.5793
210.9245	0.6154
211.1416	0.7071
211.3586	0.6445
211.5756	0.6078
211.7926	0.5927
212.0096	0.5969
212.2265	0.5441
212.4435	0.5889
212.6604	0.6013
212.8774	0.5784
213.0943	0.603
213.3112	0.5393
213.5281	0.5582
213.745	0.4825
213.9619	0.4633
214.1788	0.4465
214.3956	0.4409
214.6125	0.4875
214.8293	0.4765
215.0461	0.4933
215.2629	0.4578
215.4798	0.4756
215.6965	0.4068
215.9133	0.4476
216.1301	0.417
216.3469	0.4194
216.5636	0.3971
216.7803	0.3648
216.9971	0.3657
217.2138	0.3998
217.4305	0.3901
217.6472	0.3399
217.8639	0.395
218.0805	0.3339
218.2972	0.3111
218.5138	0.2984
218.7305	0.3062
218.9471	0.3139
219.1637	0.3014
219.3803	0.2841
219.5969	0.3164
219.8135	0.2651
220.0301	0.2461
220.2466	0.276
220.4632	0.2719
220.6797	0.2636
220.8962	0.261
221.1127	0.2624
221.3292	0.2516
221.5457	0.2408
221.7622	0.2432
221.9787	0.2628
222.1951	0.2426
222.4116	0.2481
222.628	0.2626
222.8444	0.2556
223.0608	0.2254
223.2772	0.2434
223.4936	0.2679
223.71	0.2486
223.9264	0.2666
224.1427	0.2511
224.3591	0.2484
224.5754	0.2817
224.7917	0.2725
225.008	0.2684
225.2243	0.2298
225.4406	0.2892
225.6569	0.2755
225.8732	0.2492
226.0894	0.2593
226.3057	0.2733
226.5219	0.2882
226.7381	0.2789
226.9543	0.2855
227.1705	0.2938
227.3867	0.2802
227.6029	0.3027
227.8191	0.2738
228.0352	0.3113
228.2513	0.3044
228.4675	0.2979
228.6836	0.3123
228.8997	0.2853
229.1158	0.3248
229.3319	0.2992
229.548	0.3148
229.764	0.3146
229.9801	0.3259
230.1961	0.3235
230.4121	0.336
230.6282	0.326
230.8442	0.3268
231.0602	0.3508
231.2761	0.369
231.4921	0.3624
231.7081	0.3465
231.924	0.3496
232.14	0.3423
232.3559	0.3393
232.5718	0.3613
232.7877	0.3412
233.0036	0.3369
233.2195	0.3486
233.4353	0.3613
233.6512	0.3515
233.867	0.3519
234.0829	0.3474
234.2987	0.3796
234.5145	0.3732
234.7303	0.3844
234.9461	0.3805
235.1619	0.3898
235.3776	0.4086
235.5934	0.3931
235.8091	0.3697
236.0249	0.3932
236.2406	0.3793
236.4563	0.3748
236.672	0.382
236.8877	0.3981
237.1034	0.3967
237.319	0.4003
237.5347	0.4121
237.7503	0.3905
237.966	0.4207
238.1816	0.3943
238.3972	0.4016
238.6128	0.3927
238.8284	0.3986
239.0439	0.4098
239.2595	0.3942
239.475	0.4234
239.6906	0.4145
239.9061	0.4103
240.1216	0.391
240.3371	0.3997
240.5526	0.4057
240.7681	0.4145
240.9836	0.3943
241.199	0.3975
241.4145	0.3826
241.6299	0.37
241.8453	0.3678
242.0607	0.3903
242.2761	0.3554
242.4915	0.368
242.7069	0.3593
242.9223	0.35
243.1376	0.3516
243.353	0.3405
243.5683	0.352
243.7836	0.3404
243.9989	0.3347
244.2142	0.3163
244.4295	0.3067
244.6448	0.3035
244.86	0.2962
245.0753	0.2946
245.2905	0.2889
245.5057	0.2926
245.721	0.2916
245.9362	0.2836
246.1514	0.2638
246.3665	0.2692
246.5817	0.2475
246.7969	0.2452
247.012	0.2448
247.2271	0.2391
247.4423	0.2383
247.6574	0.2442
247.8725	0.2221
248.0876	0.217
248.3026	0.2217
248.5177	0.2263
248.7328	0.1965
248.9478	0.2137
249.1628	0.2126
249.3779	0.2186
249.5929	0.1995
249.8079	0.2305
250.0228	0.1986
250.2378	0.1971
250.4528	0.2153
250.6677	0.1842
250.8827	0.1979
251.0976	0.2047
251.3125	0.1744
251.5274	0.1684
251.7423	0.1731
251.9572	0.1758
252.172	0.1749
252.3869	0.1885
252.6017	0.1781
252.8166	0.1787
253.0314	0.1706
253.2462	0.1692
253.461	0.173
253.6758	0.1736
253.8906	0.1795
254.1053	0.1784
254.3201	0.1709
254.5348	0.1832
254.7496	0.1804
254.9643	0.1756
255.179	0.1676
255.3937	0.1809
255.6083	0.1749
255.823	0.1744
256.0377	0.168
256.2523	0.1698
256.467	0.1567
256.6816	0.1718
256.8962	0.1584
257.1108	0.1598
257.3254	0.1763
257.54	0.1659
257.7545	0.1728
257.9691	0.1685
258.1836	0.1703
258.3981	0.1712
258.6127	0.1731
258.8272	0.1616
259.0417	0.1771
259.2561	0.1588
259.4706	0.1708
259.6851	0.1658
259.8995	0.1641
260.114	0.1745
260.3284	0.1612
260.5428	0.1563
260.7572	0.1622
260.9716	0.172
261.186	0.1587
261.4003	0.1683
261.6147	0.1728
261.829	0.1835
262.0433	0.1663
262.2577	0.1551
262.472	0.1702
262.6863	0.1578
262.9005	0.1602
263.1148	0.1651
263.3291	0.155
263.5433	0.1601
263.7576	0.1556
263.9718	0.1486
264.186	0.1638
264.4002	0.1596
264.6144	0.1765
264.8286	0.1768
265.0427	0.1686
265.2569	0.1567
265.471	0.1446
265.6851	0.1598
265.8993	0.1557
266.1134	0.1529
266.3275	0.1544
266.5415	0.1482
266.7556	0.175
266.9697	0.1625
267.1837	0.1641
267.3978	0.1685
267.6118	0.1566
267.8258	0.1853
268.0398	0.1477
268.2538	0.1733
268.4677	0.1577
268.6817	0.1467
268.8957	0.1565
269.1096	0.1724
269.3235	0.167
269.5374	0.1524
269.7514	0.1553
269.9652	0.1551
270.1791	0.1538
270.393	0.1531
270.6068	0.1541
270.8207	0.1416
271.0345	0.1424
271.2483	0.156
271.4622	0.1465
271.676	0.1493
271.8897	0.1394
272.1035	0.1465
272.3173	0.1466
272.531	0.1487
272.7448	0.1487
272.9585	0.1321
273.1722	0.1443
273.3859	0.1426
273.5996	0.1421
273.8133	0.1497
274.0269	0.1329
274.2406	0.1436
274.4542	0.1512
274.6679	0.1482
274.8815	0.1504
275.0951	0.1499
275.3087	0.1427
275.5223	0.1558
275.7358	0.1413
275.9494	0.1481
276.1629	0.1403
276.3765	0.1472
276.59	0.1549
276.8035	0.1477
277.017	0.1435
277.2305	0.1529
277.444	0.1545
277.6574	0.137
277.8709	0.1409
278.0843	0.1419
278.2978	0.1407
278.5112	0.1474
278.7246	0.1435
278.938	0.1526
279.1513	0.1417
279.3647	0.1591
279.5781	0.1339
279.7914	0.1484
280.0047	0.1619
280.2181	0.148
280.4314	0.1523
280.6447	0.1577
280.8579	0.1499
281.0712	0.1584
281.2845	0.155
281.4977	0.1528
281.711	0.1471
281.9242	0.1558
282.1374	0.1548
282.3506	0.1513
282.5638	0.1583
282.7769	0.1591
282.9901	0.1515
283.2033	0.1637
283.4164	0.1685
283.6295	0.1421
283.8426	0.1561
284.0557	0.1521
284.2688	0.1677
284.4819	0.1584
284.695	0.1601
284.908	0.1572
285.1211	0.1479
285.3341	0.1658
285.5471	0.1647
285.7601	0.1552
285.9731	0.153
286.1861	0.149
286.3991	0.173
286.612	0.1667
286.825	0.1593
287.0379	0.1548
287.2508	0.1691
287.4637	0.1727
287.6766	0.1616
287.8895	0.1764
288.1024	0.1786
288.3152	0.171
288.5281	0.1588
288.7409	0.1653
288.9538	0.1602
289.1666	0.158
289.3794	0.1591
289.5922	0.1534
289.8049	0.1657
290.0177	0.1584
290.2304	0.178
290.4432	0.164
290.6559	0.1702
290.8686	0.1741
291.0813	0.1673
291.294	0.1709
291.5067	0.1831
291.7194	0.1626
291.932	0.1784
292.1447	0.1738
292.3573	0.1544
292.5699	0.163
292.7825	0.1697
292.9951	0.1609
293.2077	0.1697
293.4203	0.1669
293.6328	0.1623
293.8454	0.1744
294.0579	0.1648
294.2704	0.1658
294.4829	0.1619
294.6954	0.1745
294.9079	0.1671
295.1204	0.1666
295.3328	0.1664
295.5453	0.1657
295.7577	0.1621
295.9701	0.1542
296.1825	0.1689
296.3949	0.1618
296.6073	0.1594
296.8197	0.1593
297.0321	0.1688
297.2444	0.1625
297.4567	0.1721
297.6691	0.1601
297.8814	0.1554
298.0937	0.167
298.306	0.1794
298.5182	0.1661
298.7305	0.1646
298.9428	0.159
299.155	0.1738
299.3672	0.157
299.5794	0.165
299.7916	0.1674
300.0038	0.1715
300.216	0.1693
300.4282	0.1677
300.6403	0.1655
300.8525	0.17
301.0646	0.1656
301.2767	0.1724
301.4888	0.1657
301.7009	0.1618
301.913	0.1573
302.125	0.1735
302.3371	0.1667
302.5491	0.1634
302.7612	0.164
302.9732	0.1671
303.1852	0.1696
303.3972	0.1553
303.6092	0.1539
303.8211	0.1537
304.0331	0.1599
304.245	0.1576
304.457	0.1606
304.6689	0.1701
304.8808	0.1752
305.0927	0.1433
305.3046	0.1548
305.5164	0.1514
305.7283	0.1591
305.9401	0.1494
306.152	0.1434
306.3638	0.1571
306.5756	0.1447
306.7874	0.1478
306.9992	0.1448
307.2109	0.1379
307.4227	0.1331
307.6344	0.1431
307.8462	0.14
308.0579	0.1398
308.2696	0.1345
308.4813	0.1292
308.693	0.1263
308.9046	0.1389
309.1163	0.1386
309.328	0.1366
309.5396	0.1224
309.7512	0.1245
309.9628	0.1258
310.1744	0.1244
310.386	0.1228
310.5976	0.1207
310.8091	0.1162
311.0207	0.1229
311.2322	0.1232
311.4437	0.1173
311.6552	0.1183
311.8667	0.1181
312.0782	0.0953
312.2897	0.1077
312.5012	0.1262
312.7126	0.1025
312.924	0.1065
313.1355	0.1105
313.3469	0.1253
313.5583	0.1081
313.7696	0.1103
313.981	0.1079
314.1924	0.1056
314.4037	0.0999
314.6151	0.1158
314.8264	0.1045
315.0377	0.106
315.249	0.1138
315.4603	0.102
315.6716	0.1029
315.8828	0.0974
316.0941	0.1059
316.3053	0.1002
316.5165	0.1013
316.7277	0.094
316.9389	0.1115
317.1501	0.093
317.3613	0.1093
317.5724	0.0957
317.7836	0.1121
317.9947	0.1026
318.2058	0.0925
318.417	0.0889
318.6281	0.0855
318.8391	0.0982
319.0502	0.1074
319.2613	0.1064
319.4723	0.1071
319.6834	0.1037
319.8944	0.1002
320.1054	0.0979
320.3164	0.0955
320.5274	0.0926
320.7383	0.0967
320.9493	0.101
321.1602	0.1131
321.3712	0.099
321.5821	0.099
321.793	0.0988
322.0039	0.1039
322.2148	0.1014
322.4257	0.1029
322.6365	0.1063
322.8474	0.1048
323.0582	0.1025
323.269	0.1
323.4798	0.1176
323.6906	0.1054
323.9014	0.1063
324.1122	0.1081
324.3229	0.0981
324.5337	0.0957
324.7444	0.091
324.9551	0.0962
325.1658	0.0998
325.3765	0.1083
325.5872	0.1023
325.7979	0.0926
326.0085	0.1035
326.2192	0.1158
326.4298	0.1046
326.6404	0.1021
326.851	0.0896
327.0616	0.0916
327.2722	0.1001
327.4828	0.113
327.6933	0.0985
327.9039	0.1161
328.1144	0.1207
328.3249	0.1017
328.5354	0.1073
328.7459	0.1123
328.9564	0.0931
329.1669	0.0986
329.3773	0.1078
329.5878	0.1012
329.7982	0.1055
330.0086	0.1055
330.219	0.1163
330.4294	0.1043
330.6398	0.1122
330.8502	0.1071
331.0605	0.1097
331.2708	0.108
331.4812	0.1091
331.6915	0.1124
331.9018	0.1215
332.1121	0.0986
332.3224	0.1063
332.5326	0.1084
332.7429	0.1097
332.9531	0.1223
333.1633	0.1101
333.3735	0.1104
333.5837	0.1036
333.7939	0.1034
334.0041	0.1222
334.2143	0.1165
334.4244	0.1132
334.6346	0.0922
334.8447	0.127
335.0548	0.1102
335.2649	0.1072
335.475	0.1203
335.685	0.1132
335.8951	0.125
336.1051	0.1226
336.3152	0.1204
336.5252	0.1046
336.7352	0.1072
336.9452	0.1229
337.1552	0.1119
337.3652	0.1127
337.5751	0.106
337.7851	0.1231
337.995	0.1003
338.2049	0.1146
338.4148	0.118
338.6247	0.1182
338.8346	0.0942
339.0445	0.1129
339.2543	0.1222
339.4642	0.1077
339.674	0.1026
339.8838	0.1103
340.0936	0.1142
340.3034	0.1322
340.5132	0.1189
340.7229	0.1264
340.9327	0.1161
341.1424	0.1216
341.3522	0.1325
341.5619	0.1197
341.7716	0.1156
341.9813	0.1311
342.1909	0.1203
342.4006	0.1242
342.6102	0.1337
342.8199	0.1207
343.0295	0.1206
343.2391	0.125
343.4487	0.1344
343.6583	0.1236
343.8679	0.1163
344.0774	0.1288
344.287	0.1283
344.4965	0.1161
344.706	0.1409
344.9155	0.1192
345.125	0.1185
345.3345	0.1397
345.544	0.1176
345.7534	0.1317
345.9629	0.1212
346.1723	0.1352
346.3817	0.1377
346.5911	0.132
346.8005	0.1296
347.0099	0.1397
347.2193	0.1445
347.4286	0.1302
347.638	0.1451
347.8473	0.1437
348.0566	0.1441
348.2659	0.143
348.4752	0.1337
348.6845	0.1406
348.8937	0.1239
349.103	0.1351
349.3122	0.1224
349.5214	0.1318
349.7306	0.1398
349.9398	0.1375
350.149	0.135
350.3582	0.1359
350.5674	0.13
350.7765	0.1348
350.9856	0.1411
351.1948	0.1519
351.4039	0.1198
351.613	0.1487
351.822	0.1485
352.0311	0.1473
352.2402	0.1413
352.4492	0.1611
352.6582	0.1667
352.8672	0.1391
353.0762	0.1595
353.2852	0.1494
353.4942	0.1331
353.7032	0.156
353.9121	0.161
354.1211	0.1573
354.33	0.1578
354.5389	0.1535
354.7478	0.1548
354.9567	0.1489
355.1655	0.1512
355.3744	0.1588
355.5833	0.1618
355.7921	0.1718
356.0009	0.152
356.2097	0.1706
356.4185	0.1656
356.6273	0.1673
356.8361	0.1617
357.0448	0.1634
357.2536	0.1586
357.4623	0.1539
357.671	0.1678
357.8797	0.1678
358.0884	0.1668
358.2971	0.1691
358.5057	0.1678
358.7144	0.1661
358.923	0.1753
359.1316	0.1666
359.3402	0.172
359.5488	0.1752
359.7574	0.1729
359.966	0.1784
360.1746	0.1655
360.3831	0.1844
360.5916	0.1818
360.8002	0.166
361.0087	0.1884
361.2172	0.1868
361.4256	0.1774
361.6341	0.191
361.8426	0.1731
362.051	0.1938
362.2594	0.1769
362.4678	0.1697
362.6762	0.202
362.8846	0.2017
363.093	0.1848
363.3014	0.1856
363.5097	0.172
363.718	0.1973
363.9264	0.202
364.1347	0.1857
364.343	0.1977
364.5513	0.2089
364.7595	0.2138
364.9678	0.2
365.176	0.1975
365.3842	0.1892
365.5925	0.1962
365.8007	0.2001
366.0089	0.2013
366.217	0.1966
366.4252	0.2098
366.6333	0.2039
366.8415	0.196
367.0496	0.1851
367.2577	0.2081
367.4658	0.2277
367.6739	0.2088
367.882	0.2168
368.09	0.2037
368.2981	0.2107
368.5061	0.2012
368.7141	0.2104
368.9221	0.2215
369.1301	0.2214
369.3381	0.2078
369.5461	0.2241
369.754	0.2141
369.962	0.2226
370.1699	0.2282
370.3778	0.2326
370.5857	0.2148
370.7936	0.2177
371.0015	0.2226
371.2093	0.2246
371.4172	0.2308
371.625	0.214
371.8328	0.2192
372.0406	0.2376
372.2484	0.2181
372.4562	0.2167
372.664	0.2338
372.8717	0.2416
373.0795	0.2137
373.2872	0.2326
373.4949	0.2195
373.7026	0.2338
373.9103	0.2374
374.118	0.2206
374.3256	0.236
374.5333	0.2121
374.7409	0.2134
374.9485	0.2454
375.1561	0.2412
375.3637	0.242
375.5713	0.252
375.7789	0.2209
375.9864	0.2359
376.194	0.2239
376.4015	0.2599
376.609	0.2413
376.8165	0.2372
377.024	0.2347
377.2315	0.2222
377.4389	0.2513
377.6464	0.2459
377.8538	0.2444
378.0612	0.2447
378.2686	0.2579
378.476	0.2536
378.6834	0.2597
378.8908	0.2466
379.0981	0.2376
379.3055	0.25
379.5128	0.244
379.7201	0.2509
379.9274	0.2335
380.1347	0.238
380.342	0.276
380.5492	0.2411
380.7565	0.2484
380.9637	0.256
381.1709	0.2428
381.3781	0.2551
381.5853	0.2742
381.7925	0.2592
381.9997	0.2587
382.2068	0.2679
382.4139	0.2674
382.6211	0.2429
382.8282	0.2479
383.0353	0.2586
383.2424	0.2563
383.4494	0.2558
383.6565	0.2632
383.8635	0.2581
384.0706	0.2534
384.2776	0.2533
384.4846	0.2475
384.6916	0.2596
384.8986	0.2616
385.1055	0.2592
385.3125	0.2603
385.5194	0.2406
385.7263	0.2711
385.9333	0.2594
386.1402	0.2634
386.347	0.2564
386.5539	0.2416
386.7608	0.2735
386.9676	0.2455
387.1744	0.2637
387.3813	0.2387
387.5881	0.2654
387.7948	0.2511
388.0016	0.2485
388.2084	0.2372
388.4151	0.2511
388.6219	0.2652
388.8286	0.2538
389.0353	0.2711
389.242	0.2544
389.4487	0.2598
389.6553	0.2434
389.862	0.2217
390.0686	0.2475
390.2753	0.257
390.4819	0.2635
390.6885	0.2358
390.8951	0.2603
391.1016	0.2386
391.3082	0.2331
391.5147	0.2545
391.7213	0.2345
391.9278	0.2338
392.1343	0.2334
392.3408	0.2304
392.5473	0.233
392.7537	0.2223
392.9602	0.2406
393.1666	0.2397
393.373	0.2564
393.5794	0.2508
393.7858	0.2517
393.9922	0.2252
394.1986	0.2501
394.4049	0.2311
394.6113	0.2166
394.8176	0.2259
395.0239	0.2216
395.2302	0.2226
395.4365	0.2217
395.6428	0.2182
395.8491	0.2136
396.0553	0.2202
396.2615	0.2296
396.4678	0.2243
396.674	0.2081
396.8802	0.2112
397.0863	0.2442
397.2925	0.2214
397.4987	0.2186
397.7048	0.2109
397.9109	0.2272
398.117	0.2176
398.3231	0.2125
398.5292	0.2193
398.7353	0.2444
398.9413	0.2295
399.1474	0.2203
399.3534	0.2076
399.5594	0.1951
399.7654	0.2288
399.9714	0.2244
400.1774	0.221
400.3833	0.2023
400.5893	0.1991
400.7952	0.2028
401.0011	0.2206
401.207	0.2164
401.4129	0.2211
401.6188	0.201
401.8247	0.2132
402.0305	0.2025
402.2364	0.2257
402.4422	0.2036
402.648	0.2306
402.8538	0.2367
403.0596	0.2141
403.2654	0.2267
403.4711	0.2102
403.6768	0.2148
403.8826	0.2163
404.0883	0.2056
404.294	0.2277
404.4997	0.2155
404.7054	0.2154
404.911	0.2152
405.1167	0.2183
405.3223	0.2153
405.5279	0.2302
405.7335	0.2293
405.9391	0.2327
406.1447	0.2105
406.3502	0.2355
406.5558	0.2205
406.7613	0.248
406.9668	0.2209
407.1724	0.209
407.3778	0.2049
407.5833	0.223
407.7888	0.1985
407.9942	0.2284
408.1997	0.2184
408.4051	0.2185
408.6105	0.2078
408.8159	0.2155
409.0213	0.1989
409.2267	0.2271
409.432	0.2121
409.6374	0.2196
409.8427	0.2038
410.048	0.2163
410.2533	0.2139
410.4586	0.2031
410.6639	0.2137
410.8691	0.2242
411.0744	0.1982
411.2796	0.2197
411.4848	0.2011
411.69	0.2018
411.8952	0.2491
412.1004	0.2062
412.3056	0.2219
412.5107	0.2154
412.7158	0.2249
412.921	0.2115
413.1261	0.2125
413.3312	0.1939
413.5362	0.1956
413.7413	0.2143
413.9464	0.1999
414.1514	0.194
414.3564	0.2079
414.5614	0.1976
414.7664	0.1924
414.9714	0.2239
415.1764	0.202
415.3813	0.2287
415.5863	0.2086
415.7912	0.2102
415.9961	0.2031
416.201	0.1986
416.4059	0.1988
416.6108	0.1963
416.8156	0.2323
417.0205	0.1956
417.2253	0.1999
417.4301	0.1969
417.6349	0.2008
417.8397	0.1813
418.0445	0.2137
418.2492	0.2088
418.454	0.2066
418.6587	0.2166
418.8634	0.1903
419.0681	0.207
419.2728	0.1857
419.4775	0.2003
419.6822	0.1955
419.8868	0.1716
420.0915	0.201
420.2961	0.198
420.5007	0.1789
420.7053	0.1858
420.9099	0.2014
421.1144	0.1916
421.319	0.1761
421.5235	0.1851
421.728	0.201
421.9325	0.183
422.137	0.1954
422.3415	0.1792
422.546	0.1983
422.7504	0.1984
422.9549	0.1849
423.1593	0.1944
423.3637	0.2035
423.5681	0.1709
423.7725	0.1838
423.9769	0.1683
424.1812	0.1717
424.3856	0.1737
424.5899	0.1856
424.7942	0.1583
424.9985	0.1856
425.2028	0.1847
425.4071	0.2128
425.6113	0.1654
425.8156	0.1785
426.0198	0.1831
426.224	0.1605
426.4282	0.1592
426.6324	0.1808
