Data from MonoPyChalIsomerACN10uM350nmA_Absorbance_14-35-35-315.txt Node
Date: Fri Jul 05 14:35:35 BST 2024
User: LASERRRRR
Spectrometer: FLMT03099
Trigger mode: 0
Integration Time (sec): 1.000000E-1
Scans to average: 1
Electric dark correction enabled: true
Nonlinearity correction enabled: false
Boxcar width: 0
XAxis mode: Wavelengths
Number of Pixels in Spectrum: 3648
>>>>>Begin Spectral Data<<<<<
179.3399	0.692
179.5586	0.692
179.7771	0.692
179.9957	0.2638
180.2143	-0
180.4329	0.1516
180.6514	1.0298
180.8699	0.6877
181.0885	-0.2516
181.307	0.1056
181.5255	-0.6967
181.744	-0.6007
181.9625	0.026
182.181	-0
182.3994	-0
182.6179	-0
182.8363	0.5186
183.0547	-0.1859
183.2732	-0.0294
183.4916	0.1807
183.71	0.074
183.9284	0.1962
184.1467	-0.112
184.3651	-0.1431
184.5835	0.0705
184.8018	0.1054
185.0201	-0.0076
185.2385	-0.2182
185.4568	0.1467
185.6751	0.0854
185.8934	0.1407
186.1117	0.0053
186.3299	-0.0057
186.5482	0.0645
186.7664	-0.0391
186.9847	-0.1574
187.2029	0.0498
187.4211	-0.0552
187.6393	0.5577
187.8575	-0.1123
188.0757	0.3393
188.2939	0.0203
188.512	0.0283
188.7302	0.1087
188.9483	-0.0946
189.1665	0.1326
189.3846	0.1579
189.6027	0.1479
189.8208	0.0954
190.0389	0.0847
190.257	0.1659
190.475	0.1633
190.6931	0.2369
190.9111	0.5664
191.1292	0.0894
191.3472	0.4691
191.5652	0.2446
191.7832	0.2341
192.0012	0.4945
192.2192	0.2886
192.4371	0.5441
192.6551	0.2371
192.873	0.3155
193.091	0.3423
193.3089	0.452
193.5268	0.3156
193.7447	0.4783
193.9626	0.5247
194.1805	0.4991
194.3984	0.5357
194.6162	0.4142
194.8341	0.4807
195.0519	0.543
195.2697	0.5551
195.4875	0.6889
195.7054	0.5686
195.9231	0.4134
196.1409	0.6033
196.3587	0.6105
196.5765	0.5854
196.7942	0.5361
197.012	0.5538
197.2297	0.4931
197.4474	0.6398
197.6651	0.4363
197.8828	0.6355
198.1005	0.5741
198.3182	0.696
198.5358	0.7676
198.7535	0.5111
198.9711	0.5576
199.1888	0.6184
199.4064	0.8806
199.624	0.5333
199.8416	0.6174
200.0592	0.6329
200.2767	0.6238
200.4943	0.5913
200.7119	0.6361
200.9294	0.5832
201.1469	0.5389
201.3645	0.4829
201.582	0.6221
201.7995	0.6357
202.017	0.5463
202.2344	0.5548
202.4519	0.7452
202.6694	0.5494
202.8868	0.6499
203.1042	0.7117
203.3217	0.676
203.5391	0.5268
203.7565	0.5692
203.9739	0.5948
204.1913	0.556
204.4086	0.5903
204.626	0.71
204.8433	0.6992
205.0607	0.6775
205.278	0.6046
205.4953	0.595
205.7126	0.5967
205.9299	0.7151
206.1472	0.7599
206.3644	0.6549
206.5817	0.6274
206.7989	0.5974
207.0162	0.6572
207.2334	0.7375
207.4506	0.6121
207.6678	0.6749
207.885	0.6292
208.1022	0.7192
208.3194	0.6143
208.5365	0.626
208.7537	0.5802
208.9708	0.5926
209.1879	0.5699
209.405	0.6792
209.6222	0.6066
209.8392	0.6713
210.0563	0.6046
210.2734	0.5615
210.4905	0.5492
210.7075	0.6285
210.9245	0.5555
211.1416	0.6391
211.3586	0.6451
211.5756	0.6058
211.7926	0.592
212.0096	0.5632
212.2265	0.5342
212.4435	0.55
212.6604	0.6135
212.8774	0.591
213.0943	0.6046
213.3112	0.5803
213.5281	0.4918
213.745	0.5369
213.9619	0.5191
214.1788	0.4468
214.3956	0.4488
214.6125	0.4447
214.8293	0.4274
215.0461	0.4953
215.2629	0.4696
215.4798	0.4723
215.6965	0.4246
215.9133	0.4349
216.1301	0.4192
216.3469	0.444
216.5636	0.3875
216.7803	0.3754
216.9971	0.3931
217.2138	0.3795
217.4305	0.372
217.6472	0.3357
217.8639	0.373
218.0805	0.3422
218.2972	0.3172
218.5138	0.3094
218.7305	0.3151
218.9471	0.2883
219.1637	0.2947
219.3803	0.2798
219.5969	0.2755
219.8135	0.2577
220.0301	0.2602
220.2466	0.2597
220.4632	0.2314
220.6797	0.2257
220.8962	0.2298
221.1127	0.244
221.3292	0.236
221.5457	0.2563
221.7622	0.2427
221.9787	0.2643
222.1951	0.2431
222.4116	0.2681
222.628	0.2534
222.8444	0.2516
223.0608	0.2487
223.2772	0.2588
223.4936	0.2593
223.71	0.2472
223.9264	0.2713
224.1427	0.2485
224.3591	0.2692
224.5754	0.2756
224.7917	0.2598
225.008	0.2623
225.2243	0.2348
225.4406	0.2854
225.6569	0.2686
225.8732	0.2614
226.0894	0.2643
226.3057	0.2496
226.5219	0.2849
226.7381	0.2626
226.9543	0.2733
227.1705	0.2914
227.3867	0.2844
227.6029	0.2875
227.8191	0.299
228.0352	0.2966
228.2513	0.3069
228.4675	0.3103
228.6836	0.2939
228.8997	0.2825
229.1158	0.31
229.3319	0.3101
229.548	0.2987
229.764	0.3136
229.9801	0.33
230.1961	0.3203
230.4121	0.3342
230.6282	0.3473
230.8442	0.322
231.0602	0.3583
231.2761	0.3529
231.4921	0.3422
231.7081	0.3392
231.924	0.3411
232.14	0.3279
232.3559	0.3378
232.5718	0.3581
232.7877	0.3471
233.0036	0.3336
233.2195	0.3557
233.4353	0.3486
233.6512	0.3575
233.867	0.3608
234.0829	0.3576
234.2987	0.3664
234.5145	0.3646
234.7303	0.3743
234.9461	0.3838
235.1619	0.377
235.3776	0.3743
235.5934	0.3803
235.8091	0.363
236.0249	0.3732
236.2406	0.3938
236.4563	0.3844
236.672	0.3882
236.8877	0.3974
237.1034	0.3987
237.319	0.3853
237.5347	0.3884
237.7503	0.4006
237.966	0.3978
238.1816	0.4185
238.3972	0.4025
238.6128	0.4046
238.8284	0.3881
239.0439	0.4279
239.2595	0.3987
239.475	0.4011
239.6906	0.3934
239.9061	0.4015
240.1216	0.3878
240.3371	0.3982
240.5526	0.392
240.7681	0.3958
240.9836	0.3922
241.199	0.4188
241.4145	0.382
241.6299	0.3774
241.8453	0.3755
242.0607	0.3826
242.2761	0.3575
242.4915	0.3562
242.7069	0.3623
242.9223	0.3549
243.1376	0.3535
243.353	0.3509
243.5683	0.3591
243.7836	0.3269
243.9989	0.3335
244.2142	0.3098
244.4295	0.3228
244.6448	0.3224
244.86	0.3004
245.0753	0.2891
245.2905	0.2857
245.5057	0.2789
245.721	0.2608
245.9362	0.2746
246.1514	0.2699
246.3665	0.2528
246.5817	0.2608
246.7969	0.2395
247.012	0.2488
247.2271	0.2451
247.4423	0.2398
247.6574	0.2526
247.8725	0.2366
248.0876	0.2128
248.3026	0.2338
248.5177	0.2364
248.7328	0.226
248.9478	0.2052
249.1628	0.2105
249.3779	0.2255
249.5929	0.2011
249.8079	0.2084
250.0228	0.2053
250.2378	0.2005
250.4528	0.2089
250.6677	0.185
250.8827	0.1881
251.0976	0.2076
251.3125	0.1968
251.5274	0.1778
251.7423	0.1807
251.9572	0.1884
252.172	0.183
252.3869	0.1861
252.6017	0.1837
252.8166	0.1708
253.0314	0.1633
253.2462	0.1693
253.461	0.1771
253.6758	0.1654
253.8906	0.1825
254.1053	0.1517
254.3201	0.1627
254.5348	0.1716
254.7496	0.1756
254.9643	0.1688
255.179	0.1638
255.3937	0.1642
255.6083	0.1857
255.823	0.1575
256.0377	0.1674
256.2523	0.1601
256.467	0.1598
256.6816	0.1686
256.8962	0.1673
257.1108	0.1688
257.3254	0.1646
257.54	0.1588
257.7545	0.1777
257.9691	0.1765
258.1836	0.1566
258.3981	0.1731
258.6127	0.1718
258.8272	0.1628
259.0417	0.161
259.2561	0.1638
259.4706	0.1605
259.6851	0.1754
259.8995	0.1639
260.114	0.1629
260.3284	0.1546
260.5428	0.1603
260.7572	0.1631
260.9716	0.1788
261.186	0.169
261.4003	0.1648
261.6147	0.1702
261.829	0.1565
262.0433	0.1552
262.2577	0.1516
262.472	0.1769
262.6863	0.1651
262.9005	0.1609
263.1148	0.1628
263.3291	0.1443
263.5433	0.161
263.7576	0.1749
263.9718	0.1645
264.186	0.1594
264.4002	0.1637
264.6144	0.1678
264.8286	0.1678
265.0427	0.1558
265.2569	0.1591
265.471	0.1551
265.6851	0.1592
265.8993	0.1567
266.1134	0.1512
266.3275	0.1658
266.5415	0.1419
266.7556	0.1743
266.9697	0.1672
267.1837	0.159
267.3978	0.1606
267.6118	0.1697
267.8258	0.1618
268.0398	0.1526
268.2538	0.1791
268.4677	0.1674
268.6817	0.1465
268.8957	0.1688
269.1096	0.1653
269.3235	0.1686
269.5374	0.1584
269.7514	0.1451
269.9652	0.1509
270.1791	0.1427
270.393	0.1471
270.6068	0.1558
270.8207	0.1404
271.0345	0.1335
271.2483	0.1548
271.4622	0.1442
271.676	0.1564
271.8897	0.1434
272.1035	0.1433
272.3173	0.1413
272.531	0.1478
272.7448	0.1452
272.9585	0.1358
273.1722	0.1439
273.3859	0.1487
273.5996	0.1256
273.8133	0.1341
274.0269	0.1504
274.2406	0.1292
274.4542	0.1439
274.6679	0.1385
274.8815	0.1425
275.0951	0.1549
275.3087	0.151
275.5223	0.1528
275.7358	0.1438
275.9494	0.1539
276.1629	0.1358
276.3765	0.1441
276.59	0.1374
276.8035	0.1342
277.017	0.1434
277.2305	0.1446
277.444	0.1437
277.6574	0.148
277.8709	0.138
278.0843	0.1499
278.2978	0.1387
278.5112	0.139
278.7246	0.1442
278.938	0.1477
279.1513	0.1362
279.3647	0.1481
279.5781	0.1421
279.7914	0.1481
280.0047	0.1537
280.2181	0.1497
280.4314	0.1589
280.6447	0.152
280.8579	0.143
281.0712	0.1525
281.2845	0.163
281.4977	0.1444
281.711	0.1333
281.9242	0.1435
282.1374	0.154
282.3506	0.1515
282.5638	0.158
282.7769	0.1495
282.9901	0.1556
283.2033	0.1619
283.4164	0.1631
283.6295	0.1456
283.8426	0.1482
284.0557	0.1625
284.2688	0.1603
284.4819	0.1616
284.695	0.1604
284.908	0.1733
285.1211	0.1558
285.3341	0.1484
285.5471	0.1639
285.7601	0.1496
285.9731	0.1429
286.1861	0.1482
286.3991	0.157
286.612	0.1663
286.825	0.1481
287.0379	0.1613
287.2508	0.1551
287.4637	0.1583
287.6766	0.152
287.8895	0.1657
288.1024	0.1766
288.3152	0.1642
288.5281	0.1487
288.7409	0.1631
288.9538	0.1623
289.1666	0.1524
289.3794	0.1632
289.5922	0.1575
289.8049	0.1712
290.0177	0.1622
290.2304	0.1693
290.4432	0.1696
290.6559	0.1645
290.8686	0.1737
291.0813	0.1602
291.294	0.1628
291.5067	0.1747
291.7194	0.1611
291.932	0.1707
292.1447	0.1681
292.3573	0.1528
292.5699	0.1683
292.7825	0.1789
292.9951	0.1579
293.2077	0.1699
293.4203	0.1604
293.6328	0.1538
293.8454	0.1674
294.0579	0.1631
294.2704	0.1679
294.4829	0.1553
294.6954	0.1707
294.9079	0.1542
295.1204	0.1584
295.3328	0.1645
295.5453	0.1769
295.7577	0.1712
295.9701	0.137
296.1825	0.1767
296.3949	0.1682
296.6073	0.1701
296.8197	0.1557
297.0321	0.1805
297.2444	0.1493
297.4567	0.1598
297.6691	0.1679
297.8814	0.1546
298.0937	0.1602
298.306	0.184
298.5182	0.16
298.7305	0.1617
298.9428	0.1654
299.155	0.1676
299.3672	0.165
299.5794	0.1546
299.7916	0.1633
300.0038	0.1663
300.216	0.1723
300.4282	0.1632
300.6403	0.1578
300.8525	0.177
301.0646	0.1666
301.2767	0.1605
301.4888	0.1674
301.7009	0.165
301.913	0.1677
302.125	0.1669
302.3371	0.1577
302.5491	0.1697
302.7612	0.1723
302.9732	0.1608
303.1852	0.1674
303.3972	0.1641
303.6092	0.1623
303.8211	0.1655
304.0331	0.1519
304.245	0.1531
304.457	0.1474
304.6689	0.1551
304.8808	0.1603
305.0927	0.1529
305.3046	0.1482
305.5164	0.158
305.7283	0.1503
305.9401	0.1532
306.152	0.143
306.3638	0.1528
306.5756	0.1426
306.7874	0.1469
306.9992	0.1456
307.2109	0.1454
307.4227	0.1296
307.6344	0.1425
307.8462	0.1286
308.0579	0.1504
308.2696	0.1393
308.4813	0.1338
308.693	0.1332
308.9046	0.1385
309.1163	0.1331
309.328	0.1291
309.5396	0.1292
309.7512	0.1269
309.9628	0.1219
310.1744	0.1232
310.386	0.117
310.5976	0.1203
310.8091	0.1236
311.0207	0.1162
311.2322	0.126
311.4437	0.1173
311.6552	0.1065
311.8667	0.1191
312.0782	0.0997
312.2897	0.1047
312.5012	0.1096
312.7126	0.0914
312.924	0.0937
313.1355	0.12
313.3469	0.1054
313.5583	0.1155
313.7696	0.1144
313.981	0.1017
314.1924	0.1042
314.4037	0.1109
314.6151	0.1085
314.8264	0.095
315.0377	0.0989
315.249	0.0985
315.4603	0.1074
315.6716	0.1038
315.8828	0.0883
316.0941	0.108
316.3053	0.0853
316.5165	0.0934
316.7277	0.0934
316.9389	0.0955
317.1501	0.1009
317.3613	0.1085
317.5724	0.0887
317.7836	0.0978
317.9947	0.0948
318.2058	0.0973
318.417	0.0906
318.6281	0.0956
318.8391	0.092
319.0502	0.0963
319.2613	0.1042
319.4723	0.1029
319.6834	0.1092
319.8944	0.0874
320.1054	0.1016
320.3164	0.1016
320.5274	0.0905
320.7383	0.0906
320.9493	0.0944
321.1602	0.1064
321.3712	0.0815
321.5821	0.0997
321.793	0.1
322.0039	0.1037
322.2148	0.0839
322.4257	0.0987
322.6365	0.1093
322.8474	0.0938
323.0582	0.107
323.269	0.1064
323.4798	0.1094
323.6906	0.1068
323.9014	0.1125
324.1122	0.11
324.3229	0.0933
324.5337	0.1016
324.7444	0.094
324.9551	0.1136
325.1658	0.1028
325.3765	0.1087
325.5872	0.0978
325.7979	0.0923
326.0085	0.1006
326.2192	0.1075
326.4298	0.1116
326.6404	0.0925
326.851	0.0928
327.0616	0.0922
327.2722	0.1115
327.4828	0.0928
327.6933	0.0963
327.9039	0.1053
328.1144	0.1139
328.3249	0.0941
328.5354	0.0908
328.7459	0.1051
328.9564	0.0851
329.1669	0.0978
329.3773	0.1052
329.5878	0.1122
329.7982	0.1002
330.0086	0.1014
330.219	0.1084
330.4294	0.1061
330.6398	0.1051
330.8502	0.0927
331.0605	0.1101
331.2708	0.1033
331.4812	0.12
331.6915	0.1012
331.9018	0.1167
332.1121	0.1019
332.3224	0.0996
332.5326	0.1095
332.7429	0.103
332.9531	0.1202
333.1633	0.1113
333.3735	0.1133
333.5837	0.1108
333.7939	0.0899
334.0041	0.1108
334.2143	0.1118
334.4244	0.1047
334.6346	0.0984
334.8447	0.1137
335.0548	0.1061
335.2649	0.1028
335.475	0.1142
335.685	0.113
335.8951	0.1212
336.1051	0.1088
336.3152	0.1269
336.5252	0.0969
336.7352	0.1256
336.9452	0.1166
337.1552	0.1175
337.3652	0.105
337.5751	0.1189
337.7851	0.118
337.995	0.1056
338.2049	0.1144
338.4148	0.1146
338.6247	0.117
338.8346	0.1073
339.0445	0.0999
339.2543	0.1055
339.4642	0.1143
339.674	0.103
339.8838	0.1073
340.0936	0.1134
340.3034	0.1153
340.5132	0.1037
340.7229	0.1166
340.9327	0.1157
341.1424	0.1112
341.3522	0.1188
341.5619	0.1166
341.7716	0.1089
341.9813	0.1211
342.1909	0.1168
342.4006	0.1298
342.6102	0.1268
342.8199	0.1305
343.0295	0.1111
343.2391	0.1256
343.4487	0.1261
343.6583	0.1113
343.8679	0.1249
344.0774	0.1239
344.287	0.1341
344.4965	0.1165
344.706	0.1262
344.9155	0.1268
345.125	0.1265
345.3345	0.1316
345.544	0.1247
345.7534	0.1188
345.9629	0.1139
346.1723	0.1146
346.3817	0.1254
346.5911	0.1283
346.8005	0.1254
347.0099	0.1304
347.2193	0.1396
347.4286	0.1219
347.638	0.1336
347.8473	0.1365
348.0566	0.1376
348.2659	0.1284
348.4752	0.1398
348.6845	0.1243
348.8937	0.1343
349.103	0.1432
349.3122	0.1156
349.5214	0.1363
349.7306	0.1386
349.9398	0.1237
350.149	0.1361
350.3582	0.1287
350.5674	0.1466
350.7765	0.1394
350.9856	0.1329
351.1948	0.1386
351.4039	0.117
351.613	0.1379
351.822	0.1276
352.0311	0.1497
352.2402	0.1477
352.4492	0.1419
352.6582	0.1472
352.8672	0.1366
353.0762	0.1428
353.2852	0.1486
353.4942	0.1333
353.7032	0.1493
353.9121	0.1491
354.1211	0.1431
354.33	0.1629
354.5389	0.1468
354.7478	0.1578
354.9567	0.1426
355.1655	0.1484
355.3744	0.1569
355.5833	0.1551
355.7921	0.1681
356.0009	0.1468
356.2097	0.1668
356.4185	0.1613
356.6273	0.1522
356.8361	0.1535
357.0448	0.1522
357.2536	0.1668
357.4623	0.1397
357.671	0.1758
357.8797	0.1658
358.0884	0.1606
358.2971	0.162
358.5057	0.159
358.7144	0.1744
358.923	0.1721
359.1316	0.174
359.3402	0.1655
359.5488	0.1733
359.7574	0.1612
359.966	0.1727
360.1746	0.183
360.3831	0.1822
360.5916	0.1698
360.8002	0.163
361.0087	0.1862
361.2172	0.1675
361.4256	0.1752
361.6341	0.1848
361.8426	0.1916
362.051	0.1817
362.2594	0.1801
362.4678	0.172
362.6762	0.2032
362.8846	0.1879
363.093	0.186
363.3014	0.1781
363.5097	0.1672
363.718	0.1852
363.9264	0.2
364.1347	0.1703
364.343	0.1872
364.5513	0.1903
364.7595	0.2023
364.9678	0.1952
365.176	0.191
365.3842	0.2036
365.5925	0.19
365.8007	0.1934
366.0089	0.2057
366.217	0.1945
366.4252	0.2013
366.6333	0.2094
366.8415	0.1972
367.0496	0.1946
367.2577	0.21
367.4658	0.2209
367.6739	0.2308
367.882	0.2167
368.09	0.2073
368.2981	0.2128
368.5061	0.2112
368.7141	0.2128
368.9221	0.2277
369.1301	0.2047
369.3381	0.2116
369.5461	0.2138
369.754	0.208
369.962	0.2254
370.1699	0.2178
370.3778	0.2168
370.5857	0.2104
370.7936	0.2345
371.0015	0.2246
371.2093	0.2177
371.4172	0.2187
371.625	0.2126
371.8328	0.222
372.0406	0.2193
372.2484	0.2204
372.4562	0.2289
372.664	0.2214
372.8717	0.2335
373.0795	0.2008
373.2872	0.2165
373.4949	0.2256
373.7026	0.2312
373.9103	0.2557
374.118	0.2256
374.3256	0.2367
374.5333	0.2381
374.7409	0.2265
374.9485	0.2368
375.1561	0.2293
375.3637	0.233
375.5713	0.2298
375.7789	0.2337
375.9864	0.2369
376.194	0.23
376.4015	0.2411
376.609	0.2595
376.8165	0.2347
377.024	0.2296
377.2315	0.2284
377.4389	0.2307
377.6464	0.2334
377.8538	0.2383
378.0612	0.2418
378.2686	0.2427
378.476	0.2498
378.6834	0.2427
378.8908	0.25
379.0981	0.2582
379.3055	0.2601
379.5128	0.2359
379.7201	0.2712
379.9274	0.2365
380.1347	0.2359
380.342	0.2703
380.5492	0.2434
380.7565	0.258
380.9637	0.2638
381.1709	0.2403
381.3781	0.2452
381.5853	0.2623
381.7925	0.2668
381.9997	0.2471
382.2068	0.2712
382.4139	0.2557
382.6211	0.2575
382.8282	0.2453
383.0353	0.2565
383.2424	0.2557
383.4494	0.2618
383.6565	0.2614
383.8635	0.264
384.0706	0.2504
384.2776	0.2608
384.4846	0.246
384.6916	0.2569
384.8986	0.2593
385.1055	0.2641
385.3125	0.2614
385.5194	0.2431
385.7263	0.2488
385.9333	0.2505
386.1402	0.2655
386.347	0.2575
386.5539	0.2665
386.7608	0.2442
386.9676	0.2428
387.1744	0.2712
387.3813	0.2498
387.5881	0.2672
387.7948	0.2539
388.0016	0.2527
388.2084	0.2477
388.4151	0.2477
388.6219	0.2558
388.8286	0.2365
389.0353	0.2813
389.242	0.2509
389.4487	0.2421
389.6553	0.2448
389.862	0.2282
390.0686	0.2546
390.2753	0.2605
390.4819	0.2556
390.6885	0.2478
390.8951	0.235
391.1016	0.2355
391.3082	0.2358
391.5147	0.2285
391.7213	0.2403
391.9278	0.2323
392.1343	0.232
392.3408	0.2399
392.5473	0.2348
392.7537	0.2134
392.9602	0.2379
393.1666	0.2379
393.373	0.2458
393.5794	0.2383
393.7858	0.2368
393.9922	0.2211
394.1986	0.2338
394.4049	0.2354
394.6113	0.2154
394.8176	0.2248
395.0239	0.2265
395.2302	0.2194
395.4365	0.21
395.6428	0.209
395.8491	0.2139
396.0553	0.2336
396.2615	0.2154
396.4678	0.2157
396.674	0.2038
396.8802	0.2319
397.0863	0.2323
397.2925	0.2319
397.4987	0.225
397.7048	0.2011
397.9109	0.22
398.117	0.2275
398.3231	0.2065
398.5292	0.2301
398.7353	0.2295
398.9413	0.2204
399.1474	0.2188
399.3534	0.2109
399.5594	0.2062
399.7654	0.2324
399.9714	0.2326
400.1774	0.2243
400.3833	0.2107
400.5893	0.2142
400.7952	0.2323
401.0011	0.2306
401.207	0.2233
401.4129	0.2106
401.6188	0.2291
401.8247	0.2227
402.0305	0.2053
402.2364	0.2207
402.4422	0.2198
402.648	0.2087
402.8538	0.2461
403.0596	0.2224
403.2654	0.2352
403.4711	0.2189
403.6768	0.2237
403.8826	0.2207
404.0883	0.2229
404.294	0.2259
404.4997	0.2193
404.7054	0.2205
404.911	0.2061
405.1167	0.2155
405.3223	0.233
405.5279	0.214
405.7335	0.2172
405.9391	0.2309
406.1447	0.2116
406.3502	0.2369
406.5558	0.2063
406.7613	0.2304
406.9668	0.2261
407.1724	0.2175
407.3778	0.2264
407.5833	0.2086
407.7888	0.2037
407.9942	0.2339
408.1997	0.2149
408.4051	0.1873
408.6105	0.2048
408.8159	0.2159
409.0213	0.2011
409.2267	0.2149
409.432	0.2145
409.6374	0.2229
409.8427	0.1881
410.048	0.192
410.2533	0.2145
410.4586	0.2096
410.6639	0.1845
410.8691	0.1962
411.0744	0.1896
411.2796	0.1987
411.4848	0.2155
411.69	0.2054
411.8952	0.2339
412.1004	0.2068
412.3056	0.2392
412.5107	0.2023
412.7158	0.234
412.921	0.2099
413.1261	0.2231
413.3312	0.2001
413.5362	0.2045
413.7413	0.1972
413.9464	0.1952
414.1514	0.2066
414.3564	0.1946
414.5614	0.1958
414.7664	0.2096
414.9714	0.2173
415.1764	0.2356
415.3813	0.212
415.5863	0.2033
415.7912	0.2167
415.9961	0.2068
416.201	0.2001
416.4059	0.2151
416.6108	0.1845
416.8156	0.2146
417.0205	0.2105
417.2253	0.1848
417.4301	0.2168
417.6349	0.2132
417.8397	0.2026
418.0445	0.1988
418.2492	0.1969
418.454	0.2073
418.6587	0.2031
418.8634	0.1951
419.0681	0.1847
419.2728	0.2024
419.4775	0.1946
419.6822	0.2009
419.8868	0.1859
420.0915	0.203
420.2961	0.1899
420.5007	0.1935
420.7053	0.214
420.9099	0.1983
421.1144	0.1805
421.319	0.1878
421.5235	0.1958
421.728	0.1827
421.9325	0.1996
422.137	0.209
422.3415	0.1776
422.546	0.2011
422.7504	0.1895
422.9549	0.1894
423.1593	0.1866
423.3637	0.1973
423.5681	0.1898
423.7725	0.1808
423.9769	0.1754
424.1812	0.1821
424.3856	0.1697
424.5899	0.1755
424.7942	0.1703
424.9985	0.1874
425.2028	0.1756
425.4071	0.2011
425.6113	0.1764
425.8156	0.1677
426.0198	0.1959
426.224	0.1653
426.4282	0.166
