Data from D4ACN5uM420nmA_Absorbance_14-37-08-141.txt Node
Date: Fri Feb 21 14:37:08 GMT 2025
User: LASERRRRR
Spectrometer: FLMT03099
Trigger mode: 0
Integration Time (sec): 1.500000E-2
Scans to average: 1
Electric dark correction enabled: true
Nonlinearity correction enabled: false
Boxcar width: 0
XAxis mode: Wavelengths
Number of Pixels in Spectrum: 3648
>>>>>Begin Spectral Data<<<<<
179.3399	-0.7093
179.5586	-0.7093
179.7771	-0.7093
179.9957	-0
180.2143	-0
180.4329	0.1787
180.6514	-1.2584
180.8699	0.9015
181.0885	-0
181.307	-0.0462
181.5255	-0
181.744	-0
181.9625	0.2229
182.181	0.1071
182.3994	-0.5174
182.6179	0.6381
182.8363	0.1079
183.0547	-0.417
183.2732	0.0358
183.4916	0.1772
183.71	0.2008
183.9284	0.1754
184.1467	0.4834
184.3651	0.0939
184.5835	0.2742
184.8018	0.2511
185.0201	0.2741
185.2385	0.2858
185.4568	0.1179
185.6751	0.4345
185.8934	0.2372
186.1117	-0.1662
186.3299	0.2833
186.5482	0.3282
186.7664	0.0383
186.9847	-0.1181
187.2029	0.0929
187.4211	0.0698
187.6393	0.1539
187.8575	0.3605
188.0757	0.2399
188.2939	-0.0449
188.512	0.097
188.7302	0.1164
188.9483	0.1315
189.1665	0.5302
189.3846	0.2759
189.6027	0.2135
189.8208	0.1349
190.0389	0.2611
190.257	0.1417
190.475	-0.0343
190.6931	0.0953
190.9111	0.2383
191.1292	0.3105
191.3472	0.0571
191.5652	0.2385
191.7832	0.1496
192.0012	0.2069
192.2192	0.0672
192.4371	0.1796
192.6551	0.2187
192.873	0.1028
193.091	0.1393
193.3089	0.1958
193.5268	0.1702
193.7447	0.2304
193.9626	0.1817
194.1805	0.2674
194.3984	0.2192
194.6162	0.1753
194.8341	0.3298
195.0519	0.2517
195.2697	0.2752
195.4875	0.304
195.7054	0.2709
195.9231	0.2388
196.1409	0.3132
196.3587	0.359
196.5765	0.3727
196.7942	0.2785
197.012	0.3421
197.2297	0.2552
197.4474	0.3653
197.6651	0.3114
197.8828	0.2989
198.1005	0.3949
198.3182	0.4265
198.5358	0.3597
198.7535	0.4124
198.9711	0.416
199.1888	0.3331
199.4064	0.4239
199.624	0.3932
199.8416	0.3652
200.0592	0.3443
200.2767	0.4021
200.4943	0.4244
200.7119	0.4339
200.9294	0.3827
201.1469	0.4031
201.3645	0.4815
201.582	0.3991
201.7995	0.4626
202.017	0.4139
202.2344	0.4286
202.4519	0.3657
202.6694	0.3554
202.8868	0.4156
203.1042	0.4399
203.3217	0.3871
203.5391	0.3772
203.7565	0.361
203.9739	0.3862
204.1913	0.359
204.4086	0.3786
204.626	0.3728
204.8433	0.3518
205.0607	0.3539
205.278	0.342
205.4953	0.334
205.7126	0.334
205.9299	0.3581
206.1472	0.3377
206.3644	0.3369
206.5817	0.3159
206.7989	0.3351
207.0162	0.3314
207.2334	0.3305
207.4506	0.2967
207.6678	0.3108
207.885	0.2866
208.1022	0.3229
208.3194	0.2774
208.5365	0.3099
208.7537	0.2738
208.9708	0.3249
209.1879	0.2944
209.405	0.2765
209.6222	0.273
209.8392	0.2892
210.0563	0.2754
210.2734	0.2618
210.4905	0.2721
210.7075	0.2786
210.9245	0.2594
211.1416	0.244
211.3586	0.2552
211.5756	0.2515
211.7926	0.2432
212.0096	0.2628
212.2265	0.2692
212.4435	0.2517
212.6604	0.2521
212.8774	0.2516
213.0943	0.2454
213.3112	0.2508
213.5281	0.2504
213.745	0.2391
213.9619	0.2372
214.1788	0.2498
214.3956	0.2311
214.6125	0.2422
214.8293	0.2367
215.0461	0.2455
215.2629	0.2594
215.4798	0.2606
215.6965	0.225
215.9133	0.243
216.1301	0.2404
216.3469	0.2418
216.5636	0.2357
216.7803	0.2312
216.9971	0.2573
217.2138	0.2464
217.4305	0.2469
217.6472	0.2353
217.8639	0.2538
218.0805	0.2637
218.2972	0.2336
218.5138	0.2439
218.7305	0.252
218.9471	0.2392
219.1637	0.2694
219.3803	0.2569
219.5969	0.2547
219.8135	0.2521
220.0301	0.269
220.2466	0.26
220.4632	0.249
220.6797	0.2535
220.8962	0.2621
221.1127	0.2688
221.3292	0.2606
221.5457	0.2585
221.7622	0.2676
221.9787	0.2739
222.1951	0.2585
222.4116	0.2717
222.628	0.2962
222.8444	0.2727
223.0608	0.285
223.2772	0.2924
223.4936	0.2869
223.71	0.281
223.9264	0.2788
224.1427	0.2679
224.3591	0.2785
224.5754	0.2902
224.7917	0.2892
225.008	0.2984
225.2243	0.304
225.4406	0.2976
225.6569	0.3123
225.8732	0.3146
226.0894	0.3082
226.3057	0.3061
226.5219	0.3194
226.7381	0.3144
226.9543	0.3081
227.1705	0.3136
227.3867	0.3245
227.6029	0.3204
227.8191	0.3376
228.0352	0.3457
228.2513	0.3474
228.4675	0.3379
228.6836	0.3447
228.8997	0.3388
229.1158	0.3419
229.3319	0.3608
229.548	0.3675
229.764	0.3655
229.9801	0.3739
230.1961	0.3676
230.4121	0.3727
230.6282	0.3904
230.8442	0.3861
231.0602	0.3839
231.2761	0.3908
231.4921	0.3924
231.7081	0.4018
231.924	0.4066
232.14	0.4099
232.3559	0.4101
232.5718	0.4181
232.7877	0.4096
233.0036	0.3974
233.2195	0.4241
233.4353	0.4222
233.6512	0.4229
233.867	0.42
234.0829	0.4203
234.2987	0.4241
234.5145	0.4344
234.7303	0.4341
234.9461	0.4404
235.1619	0.4316
235.3776	0.436
235.5934	0.4393
235.8091	0.4483
236.0249	0.4454
236.2406	0.4375
236.4563	0.4422
236.672	0.4418
236.8877	0.45
237.1034	0.4489
237.319	0.4592
237.5347	0.4556
237.7503	0.4519
237.966	0.4624
238.1816	0.4504
238.3972	0.4722
238.6128	0.4696
238.8284	0.4687
239.0439	0.4563
239.2595	0.4676
239.475	0.4621
239.6906	0.4682
239.9061	0.4633
240.1216	0.4605
240.3371	0.4614
240.5526	0.4647
240.7681	0.4639
240.9836	0.4674
241.199	0.4601
241.4145	0.4571
241.6299	0.4504
241.8453	0.4509
242.0607	0.4423
242.2761	0.4398
242.4915	0.4325
242.7069	0.4259
242.9223	0.4307
243.1376	0.4193
243.353	0.4095
243.5683	0.4021
243.7836	0.3996
243.9989	0.3779
244.2142	0.3854
244.4295	0.3819
244.6448	0.3639
244.86	0.3605
245.0753	0.3552
245.2905	0.3459
245.5057	0.3389
245.721	0.344
245.9362	0.3362
246.1514	0.3289
246.3665	0.3136
246.5817	0.3036
246.7969	0.3048
247.012	0.2945
247.2271	0.3078
247.4423	0.2922
247.6574	0.285
247.8725	0.2799
248.0876	0.2766
248.3026	0.2669
248.5177	0.2616
248.7328	0.263
248.9478	0.2622
249.1628	0.2561
249.3779	0.2433
249.5929	0.2466
249.8079	0.2408
250.0228	0.2309
250.2378	0.2411
250.4528	0.2288
250.6677	0.2246
250.8827	0.2173
251.0976	0.2232
251.3125	0.2182
251.5274	0.213
251.7423	0.2142
251.9572	0.2133
252.172	0.2093
252.3869	0.2093
252.6017	0.2054
252.8166	0.2042
253.0314	0.198
253.2462	0.2076
253.461	0.2012
253.6758	0.2005
253.8906	0.1993
254.1053	0.1994
254.3201	0.1964
254.5348	0.1919
254.7496	0.1883
254.9643	0.1965
255.179	0.1915
255.3937	0.1916
255.6083	0.2
255.823	0.1866
256.0377	0.1908
256.2523	0.1837
256.467	0.1944
256.6816	0.1843
256.8962	0.1907
257.1108	0.1886
257.3254	0.1875
257.54	0.1891
257.7545	0.1866
257.9691	0.1838
258.1836	0.1775
258.3981	0.1801
258.6127	0.1764
258.8272	0.1878
259.0417	0.1835
259.2561	0.1821
259.4706	0.1773
259.6851	0.1816
259.8995	0.1839
260.114	0.1758
260.3284	0.1803
260.5428	0.1808
260.7572	0.1795
260.9716	0.1857
261.186	0.1818
261.4003	0.1794
261.6147	0.1799
261.829	0.1847
262.0433	0.1858
262.2577	0.1826
262.472	0.1848
262.6863	0.1845
262.9005	0.1822
263.1148	0.1794
263.3291	0.1792
263.5433	0.1907
263.7576	0.1862
263.9718	0.1824
264.186	0.188
264.4002	0.1871
264.6144	0.197
264.8286	0.1902
265.0427	0.1954
265.2569	0.1923
265.471	0.1903
265.6851	0.1943
265.8993	0.1875
266.1134	0.1892
266.3275	0.1888
266.5415	0.191
266.7556	0.183
266.9697	0.1922
267.1837	0.1936
267.3978	0.1906
267.6118	0.1823
267.8258	0.1894
268.0398	0.1895
268.2538	0.1958
268.4677	0.1907
268.6817	0.188
268.8957	0.1828
269.1096	0.1826
269.3235	0.1823
269.5374	0.1907
269.7514	0.1786
269.9652	0.1876
270.1791	0.1803
270.393	0.1852
270.6068	0.1822
270.8207	0.1797
271.0345	0.1873
271.2483	0.1764
271.4622	0.1864
271.676	0.1813
271.8897	0.1864
272.1035	0.1884
272.3173	0.1803
272.531	0.1851
272.7448	0.1831
272.9585	0.18
273.1722	0.1875
273.3859	0.1864
273.5996	0.1906
273.8133	0.1817
274.0269	0.1856
274.2406	0.1889
274.4542	0.1864
274.6679	0.1854
274.8815	0.1938
275.0951	0.1925
275.3087	0.1918
275.5223	0.1892
275.7358	0.1983
275.9494	0.1943
276.1629	0.192
276.3765	0.1901
276.59	0.184
276.8035	0.1909
277.017	0.1936
277.2305	0.1931
277.444	0.1983
277.6574	0.1962
277.8709	0.201
278.0843	0.2008
278.2978	0.196
278.5112	0.1979
278.7246	0.194
278.938	0.1985
279.1513	0.1938
279.3647	0.1965
279.5781	0.2
279.7914	0.191
280.0047	0.197
280.2181	0.1903
280.4314	0.195
280.6447	0.1968
280.8579	0.1885
281.0712	0.1943
281.2845	0.1922
281.4977	0.1897
281.711	0.1909
281.9242	0.1946
282.1374	0.1884
282.3506	0.1868
282.5638	0.1937
282.7769	0.1865
282.9901	0.1868
283.2033	0.1891
283.4164	0.1873
283.6295	0.1916
283.8426	0.1911
284.0557	0.1912
284.2688	0.1889
284.4819	0.1839
284.695	0.1931
284.908	0.1892
285.1211	0.1877
285.3341	0.1821
285.5471	0.1873
285.7601	0.1888
285.9731	0.1915
286.1861	0.1958
286.3991	0.1944
286.612	0.1881
286.825	0.1901
287.0379	0.193
287.2508	0.196
287.4637	0.1937
287.6766	0.1923
287.8895	0.1887
288.1024	0.1921
288.3152	0.195
288.5281	0.1901
288.7409	0.1933
288.9538	0.195
289.1666	0.1952
289.3794	0.1907
289.5922	0.1847
289.8049	0.1958
290.0177	0.1907
290.2304	0.1901
290.4432	0.1939
290.6559	0.1939
290.8686	0.1926
291.0813	0.1906
291.294	0.1968
291.5067	0.1898
291.7194	0.1906
291.932	0.1908
292.1447	0.1943
292.3573	0.1927
292.5699	0.1905
292.7825	0.1916
292.9951	0.1904
293.2077	0.1902
293.4203	0.194
293.6328	0.1939
293.8454	0.1978
294.0579	0.1918
294.2704	0.203
294.4829	0.1942
294.6954	0.193
294.9079	0.1886
295.1204	0.1868
295.3328	0.194
295.5453	0.1936
295.7577	0.1936
295.9701	0.1923
296.1825	0.1957
296.3949	0.1926
296.6073	0.1905
296.8197	0.1934
297.0321	0.1897
297.2444	0.1867
297.4567	0.1904
297.6691	0.192
297.8814	0.1908
298.0937	0.1891
298.306	0.1914
298.5182	0.1993
298.7305	0.1892
298.9428	0.1959
299.155	0.1891
299.3672	0.1945
299.5794	0.1906
299.7916	0.1888
300.0038	0.1922
300.216	0.1907
300.4282	0.1896
300.6403	0.1931
300.8525	0.1966
301.0646	0.1973
301.2767	0.1921
301.4888	0.1968
301.7009	0.1967
301.913	0.1951
302.125	0.1898
302.3371	0.1946
302.5491	0.1962
302.7612	0.2005
302.9732	0.1924
303.1852	0.1944
303.3972	0.1989
303.6092	0.1954
303.8211	0.1926
304.0331	0.1846
304.245	0.1915
304.457	0.1916
304.6689	0.1941
304.8808	0.1889
305.0927	0.195
305.3046	0.1848
305.5164	0.1882
305.7283	0.1824
305.9401	0.1752
306.152	0.1868
306.3638	0.1855
306.5756	0.1846
306.7874	0.1804
306.9992	0.1743
307.2109	0.1782
307.4227	0.1781
307.6344	0.1821
307.8462	0.1693
308.0579	0.1746
308.2696	0.1754
308.4813	0.1715
308.693	0.1702
308.9046	0.1725
309.1163	0.1637
309.328	0.1593
309.5396	0.1624
309.7512	0.1606
309.9628	0.159
310.1744	0.1527
310.386	0.1548
310.5976	0.1554
310.8091	0.1565
311.0207	0.1505
311.2322	0.1498
311.4437	0.1502
311.6552	0.1511
311.8667	0.1531
312.0782	0.1498
312.2897	0.1507
312.5012	0.1471
312.7126	0.1468
312.924	0.1478
313.1355	0.15
313.3469	0.1436
313.5583	0.1441
313.7696	0.1387
313.981	0.15
314.1924	0.1419
314.4037	0.1406
314.6151	0.1433
314.8264	0.145
315.0377	0.142
315.249	0.1449
315.4603	0.1375
315.6716	0.1425
315.8828	0.1393
316.0941	0.1395
316.3053	0.1406
316.5165	0.1422
316.7277	0.1344
316.9389	0.1339
317.1501	0.1387
317.3613	0.135
317.5724	0.1378
317.7836	0.1299
317.9947	0.1344
318.2058	0.1357
318.417	0.1297
318.6281	0.1278
318.8391	0.1399
319.0502	0.1341
319.2613	0.1383
319.4723	0.1306
319.6834	0.1367
319.8944	0.1297
320.1054	0.1349
320.3164	0.1294
320.5274	0.1336
320.7383	0.1415
320.9493	0.1321
321.1602	0.1381
321.3712	0.1341
321.5821	0.1313
321.793	0.1422
322.0039	0.1375
322.2148	0.137
322.4257	0.1306
322.6365	0.1344
322.8474	0.1418
323.0582	0.1366
323.269	0.1362
323.4798	0.1368
323.6906	0.1347
323.9014	0.1321
324.1122	0.1329
324.3229	0.1409
324.5337	0.1367
324.7444	0.1386
324.9551	0.1376
325.1658	0.1388
325.3765	0.1418
325.5872	0.1351
325.7979	0.1396
326.0085	0.1415
326.2192	0.1354
326.4298	0.1356
326.6404	0.1446
326.851	0.1408
327.0616	0.1426
327.2722	0.1419
327.4828	0.1433
327.6933	0.1451
327.9039	0.1406
328.1144	0.146
328.3249	0.143
328.5354	0.1454
328.7459	0.145
328.9564	0.1379
329.1669	0.1512
329.3773	0.1482
329.5878	0.14
329.7982	0.1498
330.0086	0.1509
330.219	0.1394
330.4294	0.1495
330.6398	0.1478
330.8502	0.1513
331.0605	0.1469
331.2708	0.1505
331.4812	0.1462
331.6915	0.1524
331.9018	0.1488
332.1121	0.1552
332.3224	0.1467
332.5326	0.1439
332.7429	0.1562
332.9531	0.1478
333.1633	0.1387
333.3735	0.1462
333.5837	0.1484
333.7939	0.1436
334.0041	0.1479
334.2143	0.1505
334.4244	0.1532
334.6346	0.1483
334.8447	0.148
335.0548	0.1493
335.2649	0.1545
335.475	0.152
335.685	0.1506
335.8951	0.149
336.1051	0.1491
336.3152	0.1522
336.5252	0.1509
336.7352	0.1457
336.9452	0.1498
337.1552	0.1487
337.3652	0.1482
337.5751	0.152
337.7851	0.1505
337.995	0.1536
338.2049	0.1517
338.4148	0.1527
338.6247	0.1512
338.8346	0.1422
339.0445	0.1518
339.2543	0.1552
339.4642	0.1504
339.674	0.1503
339.8838	0.1532
340.0936	0.1463
340.3034	0.1471
340.5132	0.151
340.7229	0.1534
340.9327	0.1584
341.1424	0.157
341.3522	0.1509
341.5619	0.1554
341.7716	0.1578
341.9813	0.1613
342.1909	0.1604
342.4006	0.1632
342.6102	0.1542
342.8199	0.1644
343.0295	0.1584
343.2391	0.1616
343.4487	0.1648
343.6583	0.1752
343.8679	0.1626
344.0774	0.1596
344.287	0.1644
344.4965	0.1704
344.706	0.1737
344.9155	0.1585
345.125	0.1685
345.3345	0.1748
345.544	0.1699
345.7534	0.1681
345.9629	0.1751
346.1723	0.1688
346.3817	0.1724
346.5911	0.1791
346.8005	0.1765
347.0099	0.1751
347.2193	0.1802
347.4286	0.1808
347.638	0.1798
347.8473	0.1765
348.0566	0.1751
348.2659	0.1754
348.4752	0.1811
348.6845	0.1827
348.8937	0.1779
349.103	0.1826
349.3122	0.1798
349.5214	0.1765
349.7306	0.1941
349.9398	0.1842
350.149	0.1767
350.3582	0.1834
350.5674	0.1861
350.7765	0.1858
350.9856	0.1787
351.1948	0.1886
351.4039	0.1858
351.613	0.19
351.822	0.1883
352.0311	0.1861
352.2402	0.1874
352.4492	0.1885
352.6582	0.1894
352.8672	0.1896
353.0762	0.1921
353.2852	0.1902
353.4942	0.1851
353.7032	0.1799
353.9121	0.1912
354.1211	0.1891
354.33	0.1879
354.5389	0.1809
354.7478	0.178
354.9567	0.1893
355.1655	0.1931
355.3744	0.186
355.5833	0.1887
355.7921	0.2004
356.0009	0.1902
356.2097	0.1823
356.4185	0.1941
356.6273	0.1932
356.8361	0.1903
357.0448	0.1964
357.2536	0.195
357.4623	0.1969
357.671	0.1903
357.8797	0.2029
358.0884	0.1926
358.2971	0.1961
358.5057	0.2007
358.7144	0.1967
358.923	0.1959
359.1316	0.1987
359.3402	0.1976
359.5488	0.1973
359.7574	0.2054
359.966	0.2082
360.1746	0.2084
360.3831	0.2086
360.5916	0.2015
360.8002	0.2162
361.0087	0.2032
361.2172	0.2119
361.4256	0.2073
361.6341	0.2131
361.8426	0.2045
362.051	0.2127
362.2594	0.2098
362.4678	0.2173
362.6762	0.214
362.8846	0.2145
363.093	0.2154
363.3014	0.2179
363.5097	0.2138
363.718	0.2199
363.9264	0.2209
364.1347	0.2229
364.343	0.2173
364.5513	0.2197
364.7595	0.228
364.9678	0.2196
365.176	0.2258
365.3842	0.2247
365.5925	0.2194
365.8007	0.224
366.0089	0.2357
366.217	0.2328
366.4252	0.2291
366.6333	0.2327
366.8415	0.2271
367.0496	0.2242
367.2577	0.23
367.4658	0.2308
367.6739	0.2324
367.882	0.2335
368.09	0.2251
368.2981	0.2392
368.5061	0.2333
368.7141	0.241
368.9221	0.2433
369.1301	0.2393
369.3381	0.2406
369.5461	0.2362
369.754	0.2345
369.962	0.244
370.1699	0.2456
370.3778	0.2529
370.5857	0.2453
370.7936	0.2444
371.0015	0.2483
371.2093	0.2464
371.4172	0.2433
371.625	0.2521
371.8328	0.245
372.0406	0.2547
372.2484	0.2473
372.4562	0.251
372.664	0.2481
372.8717	0.2508
373.0795	0.253
373.2872	0.2602
373.4949	0.252
373.7026	0.255
373.9103	0.2548
374.118	0.2516
374.3256	0.2576
374.5333	0.2562
374.7409	0.2558
374.9485	0.2665
375.1561	0.2662
375.3637	0.2577
375.5713	0.2615
375.7789	0.2555
375.9864	0.2619
376.194	0.2651
376.4015	0.2643
376.609	0.2629
376.8165	0.2628
377.024	0.266
377.2315	0.265
377.4389	0.259
377.6464	0.2659
377.8538	0.2657
378.0612	0.2709
378.2686	0.2686
378.476	0.2747
378.6834	0.2739
378.8908	0.2748
379.0981	0.2678
379.3055	0.2778
379.5128	0.2745
379.7201	0.2695
379.9274	0.2761
380.1347	0.2717
380.342	0.276
380.5492	0.2745
380.7565	0.2802
380.9637	0.2789
381.1709	0.2784
381.3781	0.2876
381.5853	0.2747
381.7925	0.2763
381.9997	0.2886
382.2068	0.28
382.4139	0.2821
382.6211	0.282
382.8282	0.2817
383.0353	0.2878
383.2424	0.2862
383.4494	0.2784
383.6565	0.2788
383.8635	0.2839
384.0706	0.2919
384.2776	0.2849
384.4846	0.286
384.6916	0.2747
384.8986	0.2889
385.1055	0.297
385.3125	0.2977
385.5194	0.2982
385.7263	0.2837
385.9333	0.2954
386.1402	0.2838
386.347	0.2789
386.5539	0.2862
386.7608	0.2854
386.9676	0.2919
387.1744	0.2825
387.3813	0.2838
387.5881	0.2809
387.7948	0.2886
388.0016	0.2948
388.2084	0.2914
388.4151	0.29
388.6219	0.2784
388.8286	0.2876
389.0353	0.2843
389.242	0.2988
389.4487	0.2883
389.6553	0.2739
389.862	0.2777
390.0686	0.2865
390.2753	0.278
390.4819	0.2818
390.6885	0.2789
390.8951	0.2813
391.1016	0.2739
391.3082	0.2834
391.5147	0.2678
391.7213	0.273
391.9278	0.2737
392.1343	0.2728
392.3408	0.2721
392.5473	0.2669
392.7537	0.2664
392.9602	0.2637
393.1666	0.2726
393.373	0.2594
393.5794	0.2641
393.7858	0.2612
393.9922	0.2652
394.1986	0.2597
394.4049	0.2601
394.6113	0.2583
394.8176	0.2578
395.0239	0.2595
395.2302	0.2566
395.4365	0.2594
395.6428	0.2512
395.8491	0.2416
396.0553	0.2453
396.2615	0.2521
396.4678	0.2609
396.674	0.2539
396.8802	0.2441
397.0863	0.2391
397.2925	0.2528
397.4987	0.2482
397.7048	0.2578
397.9109	0.2382
398.117	0.2528
398.3231	0.2522
398.5292	0.2416
398.7353	0.2383
398.9413	0.2412
399.1474	0.2513
399.3534	0.2449
399.5594	0.2526
399.7654	0.2365
399.9714	0.2563
400.1774	0.2356
400.3833	0.248
400.5893	0.2497
400.7952	0.2473
401.0011	0.2516
401.207	0.238
401.4129	0.2388
401.6188	0.2503
401.8247	0.2524
402.0305	0.2414
402.2364	0.2478
402.4422	0.2455
402.648	0.2468
402.8538	0.2406
403.0596	0.2422
403.2654	0.2447
403.4711	0.239
403.6768	0.2342
403.8826	0.242
404.0883	0.2348
404.294	0.2475
404.4997	0.245
404.7054	0.2456
404.911	0.2319
405.1167	0.2487
405.3223	0.2454
405.5279	0.2493
405.7335	0.2419
405.9391	0.2351
406.1447	0.2523
406.3502	0.2346
406.5558	0.238
406.7613	0.2399
406.9668	0.2417
407.1724	0.2461
407.3778	0.2457
407.5833	0.2324
407.7888	0.2404
407.9942	0.2378
408.1997	0.248
408.4051	0.2417
408.6105	0.2423
408.8159	0.2296
409.0213	0.2471
409.2267	0.2403
409.432	0.2359
409.6374	0.2392
409.8427	0.2519
410.048	0.2443
410.2533	0.2358
410.4586	0.231
410.6639	0.252
410.8691	0.2308
411.0744	0.2449
411.2796	0.236
411.4848	0.2475
411.69	0.2351
411.8952	0.2361
412.1004	0.242
412.3056	0.2415
412.5107	0.2414
412.7158	0.2569
412.921	0.2362
413.1261	0.2408
413.3312	0.2376
413.5362	0.2485
413.7413	0.2322
413.9464	0.2272
414.1514	0.2332
414.3564	0.2343
414.5614	0.235
414.7664	0.2303
414.9714	0.2373
415.1764	0.2398
415.3813	0.244
415.5863	0.2429
415.7912	0.2316
415.9961	0.2323
416.201	0.2449
416.4059	0.2362
416.6108	0.2419
416.8156	0.2327
417.0205	0.2331
417.2253	0.2296
417.4301	0.2304
417.6349	0.2294
417.8397	0.2352
418.0445	0.2349
418.2492	0.2292
418.454	0.2374
418.6587	0.2358
418.8634	0.232
419.0681	0.2345
419.2728	0.2298
419.4775	0.2477
419.6822	0.2246
419.8868	0.2268
420.0915	0.2253
420.2961	0.2057
420.5007	0.2254
420.7053	0.2218
420.9099	0.2182
421.1144	0.2191
421.319	0.2276
421.5235	0.2175
421.728	0.231
421.9325	0.2241
422.137	0.2128
422.3415	0.2033
422.546	0.2012
422.7504	0.2195
422.9549	0.2234
423.1593	0.2051
423.3637	0.2096
423.5681	0.2182
423.7725	0.213
423.9769	0.215
424.1812	0.2169
424.3856	0.2108
424.5899	0.2094
424.7942	0.2096
424.9985	0.1942
425.2028	0.2118
425.4071	0.2023
425.6113	0.2117
425.8156	0.1972
426.0198	0.1965
426.224	0.2069
426.4282	0.2055
426.6324	0.1987
426.8366	0.2044
