Data from D4ACN5uM420nmA_Absorbance_14-37-09-267.txt Node
Date: Fri Feb 21 14:37:09 GMT 2025
User: LASERRRRR
Spectrometer: FLMT03099
Trigger mode: 0
Integration Time (sec): 1.500000E-2
Scans to average: 1
Electric dark correction enabled: true
Nonlinearity correction enabled: false
Boxcar width: 0
XAxis mode: Wavelengths
Number of Pixels in Spectrum: 3648
>>>>>Begin Spectral Data<<<<<
179.3399	-0.2962
179.5586	-0.2962
179.7771	-0.2962
179.9957	0.0541
180.2143	-0
180.4329	-0
180.6514	-0
180.8699	-0
181.0885	-0.0626
181.307	-0.1481
181.5255	0.704
181.744	-0
181.9625	0.7436
182.181	-0
182.3994	-0.8504
182.6179	-0
182.8363	-0
183.0547	-0
183.2732	0.0799
183.4916	0.2662
183.71	0.074
183.9284	0.1805
184.1467	0.1795
184.3651	0.8027
184.5835	0.1572
184.8018	0.0717
185.0201	0.2375
185.2385	0.1455
185.4568	0.1913
185.6751	0.2225
185.8934	0.23
186.1117	-0.2355
186.3299	0.1946
186.5482	0.2137
186.7664	0.1015
186.9847	0.017
187.2029	0.5487
187.4211	-0.0261
187.6393	0.1184
187.8575	0.4039
188.0757	0.7989
188.2939	-0.0092
188.512	0.172
188.7302	0.3242
188.9483	0.1305
189.1665	0.5699
189.3846	0.2514
189.6027	0.1956
189.8208	0.3447
190.0389	0.217
190.257	0.1194
190.475	0.014
190.6931	0.1747
190.9111	0.1892
191.1292	0.0338
191.3472	0.1263
191.5652	0.1935
191.7832	0.163
192.0012	0.4083
192.2192	0.1166
192.4371	0.1649
192.6551	0.1094
192.873	0.123
193.091	0.0741
193.3089	0.1404
193.5268	0.2505
193.7447	0.1284
193.9626	0.2064
194.1805	0.2599
194.3984	0.2068
194.6162	0.2353
194.8341	0.3496
195.0519	0.2418
195.2697	0.2586
195.4875	0.1819
195.7054	0.3183
195.9231	0.2482
196.1409	0.3529
196.3587	0.2744
196.5765	0.3093
196.7942	0.2958
197.012	0.3301
197.2297	0.2962
197.4474	0.3934
197.6651	0.2794
197.8828	0.3526
198.1005	0.4402
198.3182	0.3593
198.5358	0.3915
198.7535	0.4186
198.9711	0.3861
199.1888	0.3554
199.4064	0.3574
199.624	0.377
199.8416	0.3344
200.0592	0.3753
200.2767	0.3787
200.4943	0.4742
200.7119	0.3711
200.9294	0.3985
201.1469	0.4057
201.3645	0.4548
201.582	0.3616
201.7995	0.3746
202.017	0.3794
202.2344	0.4012
202.4519	0.3936
202.6694	0.404
202.8868	0.3984
203.1042	0.3948
203.3217	0.4231
203.5391	0.3745
203.7565	0.3583
203.9739	0.3888
204.1913	0.3595
204.4086	0.3526
204.626	0.3237
204.8433	0.3708
205.0607	0.36
205.278	0.3213
205.4953	0.3231
205.7126	0.3279
205.9299	0.3368
206.1472	0.3217
206.3644	0.3135
206.5817	0.3168
206.7989	0.3492
207.0162	0.3288
207.2334	0.3304
207.4506	0.2901
207.6678	0.3108
207.885	0.2962
208.1022	0.2956
208.3194	0.2898
208.5365	0.3052
208.7537	0.2804
208.9708	0.3013
209.1879	0.3027
209.405	0.2725
209.6222	0.2582
209.8392	0.3271
210.0563	0.2827
210.2734	0.2433
210.4905	0.2783
210.7075	0.2492
210.9245	0.2794
211.1416	0.2537
211.3586	0.2612
211.5756	0.2448
211.7926	0.2477
212.0096	0.2487
212.2265	0.2593
212.4435	0.2686
212.6604	0.2703
212.8774	0.227
213.0943	0.2288
213.3112	0.2362
213.5281	0.2483
213.745	0.2303
213.9619	0.2415
214.1788	0.2572
214.3956	0.2454
214.6125	0.24
214.8293	0.2353
215.0461	0.243
215.2629	0.256
215.4798	0.2346
215.6965	0.216
215.9133	0.2358
216.1301	0.2299
216.3469	0.2564
216.5636	0.2338
216.7803	0.2367
216.9971	0.2571
217.2138	0.2483
217.4305	0.2493
217.6472	0.2341
217.8639	0.251
218.0805	0.2389
218.2972	0.2401
218.5138	0.2476
218.7305	0.2475
218.9471	0.2324
219.1637	0.2628
219.3803	0.2586
219.5969	0.232
219.8135	0.2414
220.0301	0.2549
220.2466	0.2501
220.4632	0.2393
220.6797	0.2633
220.8962	0.2406
221.1127	0.2597
221.3292	0.2601
221.5457	0.274
221.7622	0.2627
221.9787	0.277
222.1951	0.2736
222.4116	0.2691
222.628	0.2725
222.8444	0.2767
223.0608	0.2669
223.2772	0.2669
223.4936	0.269
223.71	0.2733
223.9264	0.2811
224.1427	0.2833
224.3591	0.2851
224.5754	0.2848
224.7917	0.2822
225.008	0.2998
225.2243	0.2974
225.4406	0.2945
225.6569	0.2974
225.8732	0.2958
226.0894	0.3081
226.3057	0.3023
226.5219	0.3108
226.7381	0.3233
226.9543	0.3128
227.1705	0.306
227.3867	0.3147
227.6029	0.3173
227.8191	0.3318
228.0352	0.3361
228.2513	0.3386
228.4675	0.3365
228.6836	0.3469
228.8997	0.3432
229.1158	0.3449
229.3319	0.3627
229.548	0.3463
229.764	0.3592
229.9801	0.357
230.1961	0.3718
230.4121	0.3754
230.6282	0.375
230.8442	0.3857
231.0602	0.3746
231.2761	0.3812
231.4921	0.3836
231.7081	0.4003
231.924	0.3993
232.14	0.4051
232.3559	0.4072
232.5718	0.4053
232.7877	0.4139
233.0036	0.4045
233.2195	0.414
233.4353	0.4237
233.6512	0.4221
233.867	0.4277
234.0829	0.4285
234.2987	0.4269
234.5145	0.4355
234.7303	0.4442
234.9461	0.4373
235.1619	0.4373
235.3776	0.4353
235.5934	0.433
235.8091	0.4403
236.0249	0.446
236.2406	0.4445
236.4563	0.4493
236.672	0.4474
236.8877	0.4473
237.1034	0.445
237.319	0.446
237.5347	0.4508
237.7503	0.4471
237.966	0.4611
238.1816	0.456
238.3972	0.4568
238.6128	0.4687
238.8284	0.4527
239.0439	0.4678
239.2595	0.4742
239.475	0.4536
239.6906	0.4625
239.9061	0.4491
240.1216	0.4598
240.3371	0.4683
240.5526	0.4644
240.7681	0.4611
240.9836	0.4613
241.199	0.4571
241.4145	0.4594
241.6299	0.4501
241.8453	0.4415
242.0607	0.4473
242.2761	0.4491
242.4915	0.4306
242.7069	0.426
242.9223	0.4323
243.1376	0.4207
243.353	0.4156
243.5683	0.403
243.7836	0.3946
243.9989	0.3889
244.2142	0.3939
244.4295	0.3895
244.6448	0.381
244.86	0.3641
245.0753	0.358
245.2905	0.3596
245.5057	0.3515
245.721	0.346
245.9362	0.3432
246.1514	0.3295
246.3665	0.325
246.5817	0.3099
246.7969	0.3113
247.012	0.306
247.2271	0.3063
247.4423	0.295
247.6574	0.2996
247.8725	0.2791
248.0876	0.2864
248.3026	0.2748
248.5177	0.2652
248.7328	0.2667
248.9478	0.2539
249.1628	0.2621
249.3779	0.2449
249.5929	0.2387
249.8079	0.2445
250.0228	0.2364
250.2378	0.2412
250.4528	0.2314
250.6677	0.2225
250.8827	0.2188
251.0976	0.2186
251.3125	0.2257
251.5274	0.2212
251.7423	0.215
251.9572	0.2117
252.172	0.2056
252.3869	0.2079
252.6017	0.2107
252.8166	0.2017
253.0314	0.2064
253.2462	0.2002
253.461	0.2018
253.6758	0.201
253.8906	0.1957
254.1053	0.2007
254.3201	0.1963
254.5348	0.1954
254.7496	0.1838
254.9643	0.1906
255.179	0.1872
255.3937	0.1883
255.6083	0.197
255.823	0.1856
256.0377	0.1821
256.2523	0.1888
256.467	0.1862
256.6816	0.1928
256.8962	0.1839
257.1108	0.1895
257.3254	0.1882
257.54	0.186
257.7545	0.1894
257.9691	0.1865
258.1836	0.1811
258.3981	0.1883
258.6127	0.1808
258.8272	0.1925
259.0417	0.1767
259.2561	0.1806
259.4706	0.1841
259.6851	0.1789
259.8995	0.1748
260.114	0.1843
260.3284	0.1793
260.5428	0.1801
260.7572	0.1761
260.9716	0.1901
261.186	0.1801
261.4003	0.1783
261.6147	0.1783
261.829	0.1868
262.0433	0.1885
262.2577	0.1841
262.472	0.1808
262.6863	0.1865
262.9005	0.1818
263.1148	0.1851
263.3291	0.1871
263.5433	0.193
263.7576	0.1914
263.9718	0.189
264.186	0.1905
264.4002	0.1915
264.6144	0.2002
264.8286	0.1922
265.0427	0.1954
265.2569	0.1999
265.471	0.1947
265.6851	0.1932
265.8993	0.1885
266.1134	0.1981
266.3275	0.1998
266.5415	0.196
266.7556	0.2026
266.9697	0.1992
267.1837	0.1955
267.3978	0.1916
267.6118	0.1966
267.8258	0.1989
268.0398	0.1927
268.2538	0.1957
268.4677	0.1887
268.6817	0.1975
268.8957	0.1939
269.1096	0.1893
269.3235	0.1893
269.5374	0.199
269.7514	0.1923
269.9652	0.189
270.1791	0.1905
270.393	0.191
270.6068	0.1909
270.8207	0.1934
271.0345	0.1937
271.2483	0.1891
271.4622	0.1898
271.676	0.1921
271.8897	0.1902
272.1035	0.1965
272.3173	0.1956
272.531	0.1896
272.7448	0.189
272.9585	0.1914
273.1722	0.1914
273.3859	0.1992
273.5996	0.1982
273.8133	0.1958
274.0269	0.1953
274.2406	0.1899
274.4542	0.1935
274.6679	0.1976
274.8815	0.2031
275.0951	0.2053
275.3087	0.2044
275.5223	0.1994
275.7358	0.2103
275.9494	0.2022
276.1629	0.2145
276.3765	0.2021
276.59	0.2056
276.8035	0.2091
277.017	0.212
277.2305	0.2135
277.444	0.2089
277.6574	0.2146
277.8709	0.2183
278.0843	0.2103
278.2978	0.21
278.5112	0.2106
278.7246	0.2057
278.938	0.2121
279.1513	0.2101
279.3647	0.2055
279.5781	0.2103
279.7914	0.2089
280.0047	0.2055
280.2181	0.2039
280.4314	0.1982
280.6447	0.2117
280.8579	0.1986
281.0712	0.2021
281.2845	0.1962
281.4977	0.1991
281.711	0.1933
281.9242	0.2016
282.1374	0.1986
282.3506	0.1996
282.5638	0.1994
282.7769	0.1844
282.9901	0.1999
283.2033	0.198
283.4164	0.19
283.6295	0.1938
283.8426	0.1898
284.0557	0.1935
284.2688	0.1936
284.4819	0.1863
284.695	0.1988
284.908	0.1891
285.1211	0.1914
285.3341	0.185
285.5471	0.1875
285.7601	0.1921
285.9731	0.191
286.1861	0.1892
286.3991	0.1961
286.612	0.1928
286.825	0.1921
287.0379	0.19
287.2508	0.1922
287.4637	0.1912
287.6766	0.1858
287.8895	0.1861
288.1024	0.1876
288.3152	0.1923
288.5281	0.1904
288.7409	0.1902
288.9538	0.1911
289.1666	0.1887
289.3794	0.1854
289.5922	0.1898
289.8049	0.193
290.0177	0.1869
290.2304	0.1893
290.4432	0.1916
290.6559	0.1817
290.8686	0.1891
291.0813	0.1844
291.294	0.1896
291.5067	0.1885
291.7194	0.1921
291.932	0.1826
292.1447	0.1868
292.3573	0.1864
292.5699	0.1917
292.7825	0.1816
292.9951	0.1836
293.2077	0.1842
293.4203	0.1837
293.6328	0.1817
293.8454	0.1837
294.0579	0.1844
294.2704	0.1907
294.4829	0.1847
294.6954	0.1838
294.9079	0.1835
295.1204	0.185
295.3328	0.1917
295.5453	0.1838
295.7577	0.1831
295.9701	0.1866
296.1825	0.1878
296.3949	0.1798
296.6073	0.1814
296.8197	0.1858
297.0321	0.1891
297.2444	0.1829
297.4567	0.1881
297.6691	0.1827
297.8814	0.1868
298.0937	0.1814
298.306	0.1826
298.5182	0.1902
298.7305	0.1885
298.9428	0.1833
299.155	0.1776
299.3672	0.1877
299.5794	0.187
299.7916	0.1866
300.0038	0.184
300.216	0.1846
300.4282	0.1927
300.6403	0.1911
300.8525	0.1853
301.0646	0.1856
301.2767	0.1862
301.4888	0.1849
301.7009	0.1963
301.913	0.1895
302.125	0.1851
302.3371	0.184
302.5491	0.1918
302.7612	0.1913
302.9732	0.1902
303.1852	0.1902
303.3972	0.1895
303.6092	0.1891
303.8211	0.1906
304.0331	0.186
304.245	0.1848
304.457	0.1811
304.6689	0.1864
304.8808	0.1843
305.0927	0.186
305.3046	0.1827
305.5164	0.1782
305.7283	0.1856
305.9401	0.1725
306.152	0.1852
306.3638	0.1813
306.5756	0.1818
306.7874	0.1727
306.9992	0.1745
307.2109	0.1762
307.4227	0.1682
307.6344	0.1759
307.8462	0.1697
308.0579	0.1763
308.2696	0.1709
308.4813	0.1759
308.693	0.1674
308.9046	0.1711
309.1163	0.1621
309.328	0.1611
309.5396	0.1638
309.7512	0.1601
309.9628	0.1586
310.1744	0.1572
310.386	0.1506
310.5976	0.1564
310.8091	0.1568
311.0207	0.1562
311.2322	0.1498
311.4437	0.1577
311.6552	0.148
311.8667	0.1571
312.0782	0.1528
312.2897	0.1518
312.5012	0.1485
312.7126	0.1551
312.924	0.1498
313.1355	0.1483
313.3469	0.1493
313.5583	0.1476
313.7696	0.1472
313.981	0.154
314.1924	0.1458
314.4037	0.1453
314.6151	0.1448
314.8264	0.151
315.0377	0.1456
315.249	0.1468
315.4603	0.1416
315.6716	0.1459
315.8828	0.1399
316.0941	0.1511
316.3053	0.1474
316.5165	0.1469
316.7277	0.1401
316.9389	0.1475
317.1501	0.1432
317.3613	0.1409
317.5724	0.14
317.7836	0.1384
317.9947	0.1463
318.2058	0.1392
318.417	0.144
318.6281	0.136
318.8391	0.1464
319.0502	0.145
319.2613	0.1412
319.4723	0.1417
319.6834	0.1442
319.8944	0.1403
320.1054	0.1418
320.3164	0.1357
320.5274	0.1383
320.7383	0.1427
320.9493	0.1377
321.1602	0.1363
321.3712	0.1402
321.5821	0.1372
321.793	0.1463
322.0039	0.1434
322.2148	0.1424
322.4257	0.1364
322.6365	0.1383
322.8474	0.145
323.0582	0.1462
323.269	0.143
323.4798	0.1403
323.6906	0.1417
323.9014	0.1395
324.1122	0.1339
324.3229	0.1481
324.5337	0.1422
324.7444	0.1469
324.9551	0.1424
325.1658	0.1456
325.3765	0.1466
325.5872	0.1489
325.7979	0.1447
326.0085	0.1465
326.2192	0.1455
326.4298	0.15
326.6404	0.1491
326.851	0.1497
327.0616	0.1463
327.2722	0.1491
327.4828	0.1492
327.6933	0.1593
327.9039	0.1462
328.1144	0.1549
328.3249	0.1498
328.5354	0.1581
328.7459	0.1588
328.9564	0.1516
329.1669	0.1619
329.3773	0.1573
329.5878	0.1579
329.7982	0.1578
330.0086	0.1597
330.219	0.1537
330.4294	0.1502
330.6398	0.1606
330.8502	0.1635
331.0605	0.1536
331.2708	0.1535
331.4812	0.1579
331.6915	0.1564
331.9018	0.159
332.1121	0.1624
332.3224	0.1646
332.5326	0.1543
332.7429	0.1581
332.9531	0.1587
333.1633	0.1551
333.3735	0.1574
333.5837	0.1592
333.7939	0.1621
334.0041	0.1611
334.2143	0.1538
334.4244	0.1587
334.6346	0.1586
334.8447	0.159
335.0548	0.157
335.2649	0.1657
335.475	0.1593
335.685	0.1522
335.8951	0.1534
336.1051	0.1577
336.3152	0.1581
336.5252	0.1515
336.7352	0.1554
336.9452	0.1545
337.1552	0.1518
337.3652	0.1539
337.5751	0.1536
337.7851	0.1516
337.995	0.1579
338.2049	0.1549
338.4148	0.1634
338.6247	0.1603
338.8346	0.1542
339.0445	0.1574
339.2543	0.1558
339.4642	0.1571
339.674	0.153
339.8838	0.1573
340.0936	0.1573
340.3034	0.1577
340.5132	0.1521
340.7229	0.1598
340.9327	0.1633
341.1424	0.1594
341.3522	0.162
341.5619	0.1654
341.7716	0.1612
341.9813	0.1692
342.1909	0.1665
342.4006	0.1673
342.6102	0.1679
342.8199	0.1677
343.0295	0.1698
343.2391	0.166
343.4487	0.1664
343.6583	0.1727
343.8679	0.1674
344.0774	0.1688
344.287	0.1601
344.4965	0.1685
344.706	0.1746
344.9155	0.1743
345.125	0.1718
345.3345	0.1762
345.544	0.1782
345.7534	0.179
345.9629	0.1783
346.1723	0.1824
346.3817	0.1766
346.5911	0.1831
346.8005	0.1801
347.0099	0.1887
347.2193	0.1864
347.4286	0.1978
347.638	0.1893
347.8473	0.1863
348.0566	0.1923
348.2659	0.1848
348.4752	0.19
348.6845	0.1878
348.8937	0.191
349.103	0.1863
349.3122	0.1933
349.5214	0.1923
349.7306	0.1988
349.9398	0.1916
350.149	0.1861
350.3582	0.1895
350.5674	0.1873
350.7765	0.199
350.9856	0.1893
351.1948	0.1921
351.4039	0.1911
351.613	0.191
351.822	0.1902
352.0311	0.1874
352.2402	0.187
352.4492	0.1853
352.6582	0.1947
352.8672	0.1913
353.0762	0.1928
353.2852	0.1925
353.4942	0.1907
353.7032	0.1904
353.9121	0.1921
354.1211	0.1894
354.33	0.195
354.5389	0.1773
354.7478	0.1836
354.9567	0.1969
355.1655	0.1901
355.3744	0.1901
355.5833	0.1833
355.7921	0.1959
356.0009	0.1935
356.2097	0.1811
356.4185	0.1887
356.6273	0.1918
356.8361	0.189
357.0448	0.191
357.2536	0.1893
357.4623	0.1905
357.671	0.1924
357.8797	0.1916
358.0884	0.1831
358.2971	0.1934
358.5057	0.1937
358.7144	0.193
358.923	0.1986
359.1316	0.1933
359.3402	0.193
359.5488	0.1931
359.7574	0.1934
359.966	0.1918
360.1746	0.1852
360.3831	0.1941
360.5916	0.1977
360.8002	0.2109
361.0087	0.1942
361.2172	0.2013
361.4256	0.2036
361.6341	0.1976
361.8426	0.2051
362.051	0.2058
362.2594	0.1948
362.4678	0.2052
362.6762	0.2103
362.8846	0.2048
363.093	0.2048
363.3014	0.2071
363.5097	0.2037
363.718	0.2038
363.9264	0.2063
364.1347	0.2061
364.343	0.2102
364.5513	0.2004
364.7595	0.2205
364.9678	0.2095
365.176	0.2013
365.3842	0.21
365.5925	0.2051
365.8007	0.2124
366.0089	0.2128
366.217	0.2121
366.4252	0.2066
366.6333	0.2163
366.8415	0.2166
367.0496	0.2158
367.2577	0.215
367.4658	0.216
367.6739	0.211
367.882	0.2155
368.09	0.2137
368.2981	0.2264
368.5061	0.2207
368.7141	0.2216
368.9221	0.2209
369.1301	0.2241
369.3381	0.229
369.5461	0.2273
369.754	0.2142
369.962	0.2187
370.1699	0.2293
370.3778	0.2375
370.5857	0.2287
370.7936	0.2177
371.0015	0.2251
371.2093	0.2246
371.4172	0.2268
371.625	0.2283
371.8328	0.2236
372.0406	0.2406
372.2484	0.229
372.4562	0.2347
372.664	0.2334
372.8717	0.2328
373.0795	0.2395
373.2872	0.2396
373.4949	0.2489
373.7026	0.2347
373.9103	0.227
374.118	0.2342
374.3256	0.2358
374.5333	0.2336
374.7409	0.2301
374.9485	0.2388
375.1561	0.2401
375.3637	0.2349
375.5713	0.2425
375.7789	0.2361
375.9864	0.2361
376.194	0.2481
376.4015	0.2383
376.609	0.2446
376.8165	0.2459
377.024	0.2535
377.2315	0.2478
377.4389	0.2406
377.6464	0.2513
377.8538	0.2511
378.0612	0.2479
378.2686	0.2423
378.476	0.2568
378.6834	0.2516
378.8908	0.249
379.0981	0.2479
379.3055	0.2523
379.5128	0.2464
379.7201	0.2535
379.9274	0.2549
380.1347	0.2504
380.342	0.2516
380.5492	0.2473
380.7565	0.252
380.9637	0.2454
381.1709	0.2434
381.3781	0.2608
381.5853	0.2509
381.7925	0.2558
381.9997	0.2585
382.2068	0.2575
382.4139	0.2525
382.6211	0.2597
382.8282	0.2623
383.0353	0.2621
383.2424	0.2506
383.4494	0.2551
383.6565	0.2519
383.8635	0.2593
384.0706	0.2667
384.2776	0.2649
384.4846	0.2666
384.6916	0.2637
384.8986	0.2605
385.1055	0.2696
385.3125	0.263
385.5194	0.2647
385.7263	0.256
385.9333	0.2593
386.1402	0.2655
386.347	0.2668
386.5539	0.2571
386.7608	0.2509
386.9676	0.2628
387.1744	0.2588
387.3813	0.2578
387.5881	0.2541
387.7948	0.2625
388.0016	0.2723
388.2084	0.2569
388.4151	0.258
388.6219	0.2484
388.8286	0.2571
389.0353	0.2659
389.242	0.2611
389.4487	0.2483
389.6553	0.2441
389.862	0.246
390.0686	0.2587
390.2753	0.2582
390.4819	0.2524
390.6885	0.2524
390.8951	0.2539
391.1016	0.2439
391.3082	0.2517
391.5147	0.2494
391.7213	0.2491
391.9278	0.243
392.1343	0.2463
392.3408	0.2435
392.5473	0.2475
392.7537	0.2486
392.9602	0.2412
393.1666	0.2491
393.373	0.2407
393.5794	0.2336
393.7858	0.2404
393.9922	0.2384
394.1986	0.2375
394.4049	0.2303
394.6113	0.2391
394.8176	0.2352
395.0239	0.2356
395.2302	0.2307
395.4365	0.2349
395.6428	0.2313
395.8491	0.2317
396.0553	0.2261
396.2615	0.235
396.4678	0.236
396.674	0.2237
396.8802	0.2345
397.0863	0.2203
397.2925	0.2266
397.4987	0.2196
397.7048	0.2311
397.9109	0.2205
398.117	0.2241
398.3231	0.2244
398.5292	0.2113
398.7353	0.2181
398.9413	0.2163
399.1474	0.2178
399.3534	0.2287
399.5594	0.2236
399.7654	0.2122
399.9714	0.2265
400.1774	0.2137
400.3833	0.2191
400.5893	0.2222
400.7952	0.2274
401.0011	0.2079
401.207	0.2217
401.4129	0.2108
401.6188	0.2205
401.8247	0.224
402.0305	0.2179
402.2364	0.2214
402.4422	0.2289
402.648	0.2092
402.8538	0.2162
403.0596	0.2241
403.2654	0.2191
403.4711	0.2158
403.6768	0.2054
403.8826	0.227
404.0883	0.2216
404.294	0.2178
404.4997	0.2151
404.7054	0.2235
404.911	0.2214
405.1167	0.2221
405.3223	0.2182
405.5279	0.2288
405.7335	0.2255
405.9391	0.2147
406.1447	0.2202
406.3502	0.2136
406.5558	0.2178
406.7613	0.2192
406.9668	0.2063
407.1724	0.2164
407.3778	0.2163
407.5833	0.2074
407.7888	0.2159
407.9942	0.2223
408.1997	0.2191
408.4051	0.2203
408.6105	0.2247
408.8159	0.2123
409.0213	0.2231
409.2267	0.2231
409.432	0.2125
409.6374	0.2207
409.8427	0.221
410.048	0.2133
410.2533	0.2185
410.4586	0.2152
410.6639	0.2231
410.8691	0.2129
411.0744	0.2175
411.2796	0.2136
411.4848	0.2204
411.69	0.2033
411.8952	0.2117
412.1004	0.2179
412.3056	0.2028
412.5107	0.2232
412.7158	0.2256
412.921	0.2111
413.1261	0.2098
413.3312	0.2217
413.5362	0.2217
413.7413	0.2166
413.9464	0.2127
414.1514	0.2133
414.3564	0.211
414.5614	0.213
414.7664	0.2105
414.9714	0.2137
415.1764	0.2116
415.3813	0.1965
415.5863	0.2153
415.7912	0.2035
415.9961	0.2128
416.201	0.2178
416.4059	0.2095
416.6108	0.2074
416.8156	0.2149
417.0205	0.2086
417.2253	0.2005
417.4301	0.2107
417.6349	0.2087
417.8397	0.2101
418.0445	0.2074
418.2492	0.2056
418.454	0.218
418.6587	0.2139
418.8634	0.2102
419.0681	0.2104
419.2728	0.1999
419.4775	0.2155
419.6822	0.2031
419.8868	0.2002
420.0915	0.1985
420.2961	0.1904
420.5007	0.2043
420.7053	0.1998
420.9099	0.2058
421.1144	0.2036
421.319	0.1896
421.5235	0.1963
421.728	0.2039
421.9325	0.1917
422.137	0.196
422.3415	0.1881
422.546	0.1879
422.7504	0.1904
422.9549	0.1975
423.1593	0.1892
423.3637	0.1902
423.5681	0.1878
423.7725	0.1845
423.9769	0.1909
424.1812	0.1745
424.3856	0.19
424.5899	0.1916
424.7942	0.1814
424.9985	0.1792
425.2028	0.1941
425.4071	0.1917
425.6113	0.1903
425.8156	0.1827
426.0198	0.1857
426.224	0.1845
426.4282	0.172
426.6324	0.1845
426.8366	0.1741
427.0407	0.1748
