Data from D4ACN5uM420nmA_Absorbance_14-37-09-792.txt Node
Date: Fri Feb 21 14:37:09 GMT 2025
User: LASERRRRR
Spectrometer: FLMT03099
Trigger mode: 0
Integration Time (sec): 1.500000E-2
Scans to average: 1
Electric dark correction enabled: true
Nonlinearity correction enabled: false
Boxcar width: 0
XAxis mode: Wavelengths
Number of Pixels in Spectrum: 3648
>>>>>Begin Spectral Data<<<<<
179.3399	-0.3834
179.5586	-0.3834
179.7771	-0.3834
179.9957	-0.1513
180.2143	-0
180.4329	-0.2997
180.6514	-0
180.8699	1.8309
181.0885	0.8247
181.307	0.6394
181.5255	0.2673
181.744	-0
181.9625	0.641
182.181	-0.495
182.3994	-0
182.6179	-0
182.8363	-0
183.0547	0.2516
183.2732	0.161
183.4916	0.327
183.71	0.3972
183.9284	0.1971
184.1467	0.3824
184.3651	0.0141
184.5835	0.2986
184.8018	0.3786
185.0201	0.2631
185.2385	0.1356
185.4568	0.1375
185.6751	0.0683
185.8934	0.4346
186.1117	0.0438
186.3299	0.4972
186.5482	0.1518
186.7664	0.0053
186.9847	-0.0346
187.2029	0.4054
187.4211	0.0762
187.6393	0.1254
187.8575	0.2861
188.0757	0.4614
188.2939	0.0048
188.512	0.3437
188.7302	0.635
188.9483	0.3279
189.1665	0.3987
189.3846	0.3516
189.6027	0.1209
189.8208	0.5887
190.0389	0.1763
190.257	0.2976
190.475	0.1005
190.6931	0.1781
190.9111	0.3686
191.1292	0.1474
191.3472	0.0298
191.5652	0.2242
191.7832	0.0554
192.0012	0.0951
192.2192	0.1819
192.4371	0.1089
192.6551	0.1949
192.873	0.0928
193.091	0.2711
193.3089	0.1372
193.5268	0.2581
193.7447	0.1597
193.9626	0.2151
194.1805	0.2341
194.3984	0.1611
194.6162	0.2671
194.8341	0.3172
195.0519	0.2154
195.2697	0.2868
195.4875	0.2379
195.7054	0.325
195.9231	0.2031
196.1409	0.3504
196.3587	0.3034
196.5765	0.2878
196.7942	0.3051
197.012	0.303
197.2297	0.2716
197.4474	0.3309
197.6651	0.3016
197.8828	0.3414
198.1005	0.4069
198.3182	0.4258
198.5358	0.4707
198.7535	0.4326
198.9711	0.3648
199.1888	0.3703
199.4064	0.4081
199.624	0.3834
199.8416	0.3719
200.0592	0.4257
200.2767	0.4359
200.4943	0.4064
200.7119	0.4179
200.9294	0.4031
201.1469	0.4045
201.3645	0.4247
201.582	0.4081
201.7995	0.4427
202.017	0.4071
202.2344	0.3767
202.4519	0.3772
202.6694	0.3897
202.8868	0.3668
203.1042	0.4245
203.3217	0.3818
203.5391	0.4089
203.7565	0.3713
203.9739	0.4099
204.1913	0.3542
204.4086	0.3704
204.626	0.3712
204.8433	0.3099
205.0607	0.3661
205.278	0.3584
205.4953	0.3535
205.7126	0.3358
205.9299	0.3129
206.1472	0.3438
206.3644	0.3372
206.5817	0.3231
206.7989	0.3441
207.0162	0.3058
207.2334	0.3272
207.4506	0.3115
207.6678	0.297
207.885	0.3064
208.1022	0.297
208.3194	0.3062
208.5365	0.3205
208.7537	0.289
208.9708	0.282
209.1879	0.2995
209.405	0.2785
209.6222	0.2829
209.8392	0.2807
210.0563	0.2823
210.2734	0.2741
210.4905	0.2464
210.7075	0.2538
210.9245	0.266
211.1416	0.262
211.3586	0.2467
211.5756	0.2523
211.7926	0.2697
212.0096	0.244
212.2265	0.255
212.4435	0.2592
212.6604	0.2624
212.8774	0.2433
213.0943	0.2614
213.3112	0.2588
213.5281	0.2291
213.745	0.2423
213.9619	0.2424
214.1788	0.2654
214.3956	0.2378
214.6125	0.2536
214.8293	0.2451
215.0461	0.2435
215.2629	0.2559
215.4798	0.2408
215.6965	0.2161
215.9133	0.239
216.1301	0.2313
216.3469	0.2344
216.5636	0.2321
216.7803	0.2461
216.9971	0.2395
217.2138	0.2277
217.4305	0.2373
217.6472	0.2376
217.8639	0.2545
218.0805	0.2508
218.2972	0.2329
218.5138	0.2454
218.7305	0.2468
218.9471	0.2378
219.1637	0.2524
219.3803	0.2396
219.5969	0.2374
219.8135	0.2565
220.0301	0.2612
220.2466	0.2389
220.4632	0.2474
220.6797	0.2507
220.8962	0.2506
221.1127	0.2595
221.3292	0.2562
221.5457	0.2685
221.7622	0.2659
221.9787	0.2713
222.1951	0.2623
222.4116	0.2716
222.628	0.2794
222.8444	0.2637
223.0608	0.2651
223.2772	0.2796
223.4936	0.2792
223.71	0.2797
223.9264	0.2873
224.1427	0.2856
224.3591	0.2884
224.5754	0.2902
224.7917	0.2992
225.008	0.2929
225.2243	0.2979
225.4406	0.2865
225.6569	0.2876
225.8732	0.3021
226.0894	0.2955
226.3057	0.3022
226.5219	0.3175
226.7381	0.3084
226.9543	0.3122
227.1705	0.3186
227.3867	0.3139
227.6029	0.3233
227.8191	0.3341
228.0352	0.3279
228.2513	0.3439
228.4675	0.3482
228.6836	0.349
228.8997	0.3458
229.1158	0.3568
229.3319	0.3438
229.548	0.3523
229.764	0.3666
229.9801	0.3689
230.1961	0.3675
230.4121	0.3695
230.6282	0.3929
230.8442	0.382
231.0602	0.3908
231.2761	0.4022
231.4921	0.3866
231.7081	0.3969
231.924	0.4039
232.14	0.4058
232.3559	0.4181
232.5718	0.4083
232.7877	0.4204
233.0036	0.4041
233.2195	0.4202
233.4353	0.4143
233.6512	0.4263
233.867	0.4139
234.0829	0.43
234.2987	0.4339
234.5145	0.4389
234.7303	0.4458
234.9461	0.4368
235.1619	0.4583
235.3776	0.4397
235.5934	0.4321
235.8091	0.449
236.0249	0.447
236.2406	0.4506
236.4563	0.4561
236.672	0.4452
236.8877	0.4491
237.1034	0.4636
237.319	0.4497
237.5347	0.4476
237.7503	0.4523
237.966	0.465
238.1816	0.4617
238.3972	0.4642
238.6128	0.4667
238.8284	0.468
239.0439	0.4632
239.2595	0.4625
239.475	0.4545
239.6906	0.4532
239.9061	0.4535
240.1216	0.4631
240.3371	0.4622
240.5526	0.4627
240.7681	0.4639
240.9836	0.4625
241.199	0.4634
241.4145	0.4606
241.6299	0.4532
241.8453	0.4483
242.0607	0.4522
242.2761	0.4533
242.4915	0.4356
242.7069	0.4362
242.9223	0.4343
243.1376	0.4264
243.353	0.4271
243.5683	0.4103
243.7836	0.4059
243.9989	0.3976
244.2142	0.3839
244.4295	0.3954
244.6448	0.387
244.86	0.3756
245.0753	0.3627
245.2905	0.3559
245.5057	0.353
245.721	0.3463
245.9362	0.3486
246.1514	0.3339
246.3665	0.3309
246.5817	0.3132
246.7969	0.3056
247.012	0.3042
247.2271	0.3034
247.4423	0.3022
247.6574	0.2981
247.8725	0.288
248.0876	0.2816
248.3026	0.2774
248.5177	0.2687
248.7328	0.2636
248.9478	0.263
249.1628	0.2577
249.3779	0.2474
249.5929	0.2436
249.8079	0.2454
250.0228	0.237
250.2378	0.2348
250.4528	0.2319
250.6677	0.2309
250.8827	0.2229
251.0976	0.2235
251.3125	0.2283
251.5274	0.2181
251.7423	0.2157
251.9572	0.2176
252.172	0.214
252.3869	0.212
252.6017	0.2044
252.8166	0.206
253.0314	0.2036
253.2462	0.2024
253.461	0.2007
253.6758	0.201
253.8906	0.1972
254.1053	0.1938
254.3201	0.2013
254.5348	0.1884
254.7496	0.1892
254.9643	0.1931
255.179	0.1905
255.3937	0.1886
255.6083	0.1932
255.823	0.1878
256.0377	0.1881
256.2523	0.1858
256.467	0.1883
256.6816	0.1899
256.8962	0.195
257.1108	0.1862
257.3254	0.1907
257.54	0.1794
257.7545	0.188
257.9691	0.1814
258.1836	0.1792
258.3981	0.1878
258.6127	0.1782
258.8272	0.1849
259.0417	0.1828
259.2561	0.1799
259.4706	0.1779
259.6851	0.184
259.8995	0.1789
260.114	0.1825
260.3284	0.1826
260.5428	0.1846
260.7572	0.1821
260.9716	0.1873
261.186	0.1819
261.4003	0.181
261.6147	0.1847
261.829	0.1883
262.0433	0.1891
262.2577	0.1881
262.472	0.1807
262.6863	0.1915
262.9005	0.1857
263.1148	0.1831
263.3291	0.1922
263.5433	0.1936
263.7576	0.1874
263.9718	0.1895
264.186	0.1951
264.4002	0.1977
264.6144	0.2027
264.8286	0.1959
265.0427	0.2009
265.2569	0.2028
265.471	0.1998
265.6851	0.1959
265.8993	0.2007
266.1134	0.1935
266.3275	0.1992
266.5415	0.2023
266.7556	0.2064
266.9697	0.1963
267.1837	0.205
267.3978	0.1961
267.6118	0.2009
267.8258	0.2075
268.0398	0.2089
268.2538	0.2051
268.4677	0.1984
268.6817	0.201
268.8957	0.1969
269.1096	0.192
269.3235	0.1887
269.5374	0.1946
269.7514	0.2008
269.9652	0.1976
270.1791	0.1927
270.393	0.1966
270.6068	0.1978
270.8207	0.1982
271.0345	0.194
271.2483	0.1866
271.4622	0.1972
271.676	0.1964
271.8897	0.1967
272.1035	0.2027
272.3173	0.1954
272.531	0.1933
272.7448	0.1969
272.9585	0.2015
273.1722	0.1962
273.3859	0.1966
273.5996	0.1989
273.8133	0.2041
274.0269	0.1999
274.2406	0.2058
274.4542	0.2011
274.6679	0.2078
274.8815	0.2108
275.0951	0.2188
275.3087	0.2091
275.5223	0.2047
275.7358	0.2138
275.9494	0.2104
276.1629	0.2152
276.3765	0.2091
276.59	0.207
276.8035	0.2139
277.017	0.2211
277.2305	0.219
277.444	0.223
277.6574	0.2249
277.8709	0.221
278.0843	0.2208
278.2978	0.2211
278.5112	0.2205
278.7246	0.2126
278.938	0.2149
279.1513	0.2182
279.3647	0.2211
279.5781	0.2173
279.7914	0.2112
280.0047	0.2118
280.2181	0.2082
280.4314	0.2074
280.6447	0.2167
280.8579	0.1989
281.0712	0.2115
281.2845	0.2121
281.4977	0.2044
281.711	0.2014
281.9242	0.2031
282.1374	0.1981
282.3506	0.2026
282.5638	0.1958
282.7769	0.1924
282.9901	0.2009
283.2033	0.2002
283.4164	0.197
283.6295	0.1919
283.8426	0.1942
284.0557	0.1947
284.2688	0.1994
284.4819	0.191
284.695	0.1911
284.908	0.1938
285.1211	0.1928
285.3341	0.1867
285.5471	0.1948
285.7601	0.193
285.9731	0.1998
286.1861	0.1964
286.3991	0.1907
286.612	0.1869
286.825	0.1923
287.0379	0.1927
287.2508	0.1903
287.4637	0.1904
287.6766	0.189
287.8895	0.1906
288.1024	0.1942
288.3152	0.1939
288.5281	0.1855
288.7409	0.1936
288.9538	0.1875
289.1666	0.1912
289.3794	0.1847
289.5922	0.183
289.8049	0.186
290.0177	0.1825
290.2304	0.1827
290.4432	0.1934
290.6559	0.1875
290.8686	0.1838
291.0813	0.1895
291.294	0.1883
291.5067	0.1831
291.7194	0.1839
291.932	0.1854
292.1447	0.1892
292.3573	0.1903
292.5699	0.1908
292.7825	0.1772
292.9951	0.182
293.2077	0.1841
293.4203	0.1846
293.6328	0.183
293.8454	0.1855
294.0579	0.1857
294.2704	0.1896
294.4829	0.1869
294.6954	0.1843
294.9079	0.1806
295.1204	0.1815
295.3328	0.1915
295.5453	0.1818
295.7577	0.1834
295.9701	0.1845
296.1825	0.1821
296.3949	0.1823
296.6073	0.1831
296.8197	0.1853
297.0321	0.1853
297.2444	0.1755
297.4567	0.181
297.6691	0.1873
297.8814	0.188
298.0937	0.1813
298.306	0.1834
298.5182	0.1863
298.7305	0.182
298.9428	0.1855
299.155	0.1777
299.3672	0.1829
299.5794	0.1831
299.7916	0.1845
300.0038	0.1828
300.216	0.1788
300.4282	0.1857
300.6403	0.1938
300.8525	0.1858
301.0646	0.1833
301.2767	0.1861
301.4888	0.1844
301.7009	0.1902
301.913	0.1836
302.125	0.1849
302.3371	0.1877
302.5491	0.1909
302.7612	0.1888
302.9732	0.1934
303.1852	0.1917
303.3972	0.1885
303.6092	0.188
303.8211	0.1903
304.0331	0.1818
304.245	0.1921
304.457	0.1863
304.6689	0.1857
304.8808	0.1809
305.0927	0.1855
305.3046	0.1854
305.5164	0.1815
305.7283	0.179
305.9401	0.1747
306.152	0.1812
306.3638	0.1861
306.5756	0.1798
306.7874	0.1713
306.9992	0.1772
307.2109	0.1737
307.4227	0.1716
307.6344	0.1762
307.8462	0.1686
308.0579	0.1776
308.2696	0.1707
308.4813	0.1677
308.693	0.1698
308.9046	0.1711
309.1163	0.1611
309.328	0.1619
309.5396	0.1591
309.7512	0.1638
309.9628	0.1577
310.1744	0.1594
310.386	0.158
310.5976	0.1556
310.8091	0.1615
311.0207	0.1601
311.2322	0.1526
311.4437	0.1553
311.6552	0.158
311.8667	0.1591
312.0782	0.1532
312.2897	0.1544
312.5012	0.1485
312.7126	0.1522
312.924	0.1523
313.1355	0.1479
313.3469	0.151
313.5583	0.1487
313.7696	0.1447
313.981	0.1559
314.1924	0.1531
314.4037	0.1491
314.6151	0.1477
314.8264	0.1508
315.0377	0.1514
315.249	0.1485
315.4603	0.1484
315.6716	0.1494
315.8828	0.1505
316.0941	0.1501
316.3053	0.1462
316.5165	0.1481
316.7277	0.1489
316.9389	0.1442
317.1501	0.1508
317.3613	0.1435
317.5724	0.1434
317.7836	0.1425
317.9947	0.1382
318.2058	0.1389
318.417	0.1411
318.6281	0.1475
318.8391	0.1451
319.0502	0.1419
319.2613	0.1453
319.4723	0.1432
319.6834	0.1445
319.8944	0.1406
320.1054	0.1473
320.3164	0.1355
320.5274	0.1403
320.7383	0.1481
320.9493	0.1453
321.1602	0.141
321.3712	0.1431
321.5821	0.1408
321.793	0.1517
322.0039	0.144
322.2148	0.1476
322.4257	0.1398
322.6365	0.1426
322.8474	0.1472
323.0582	0.1469
323.269	0.1538
323.4798	0.1474
323.6906	0.148
323.9014	0.1359
324.1122	0.1449
324.3229	0.1502
324.5337	0.1478
324.7444	0.1481
324.9551	0.1492
325.1658	0.145
325.3765	0.1523
325.5872	0.1512
325.7979	0.15
326.0085	0.1465
326.2192	0.1466
326.4298	0.1535
326.6404	0.151
326.851	0.153
327.0616	0.1502
327.2722	0.1517
327.4828	0.1531
327.6933	0.1559
327.9039	0.1567
328.1144	0.1574
328.3249	0.1591
328.5354	0.1594
328.7459	0.1599
328.9564	0.1601
329.1669	0.1652
329.3773	0.1646
329.5878	0.1615
329.7982	0.1664
330.0086	0.1635
330.219	0.1615
330.4294	0.1655
330.6398	0.1685
330.8502	0.169
331.0605	0.1558
331.2708	0.1605
331.4812	0.162
331.6915	0.1631
331.9018	0.1651
332.1121	0.1693
332.3224	0.1657
332.5326	0.1638
332.7429	0.1676
332.9531	0.1649
333.1633	0.1645
333.3735	0.165
333.5837	0.1661
333.7939	0.1664
334.0041	0.1683
334.2143	0.1619
334.4244	0.1654
334.6346	0.1624
334.8447	0.1677
335.0548	0.1621
335.2649	0.1656
335.475	0.1684
335.685	0.1665
335.8951	0.16
336.1051	0.166
336.3152	0.1615
336.5252	0.1587
336.7352	0.1592
336.9452	0.1595
337.1552	0.1569
337.3652	0.157
337.5751	0.159
337.7851	0.1556
337.995	0.159
338.2049	0.1597
338.4148	0.1604
338.6247	0.1633
338.8346	0.1612
339.0445	0.1573
339.2543	0.158
339.4642	0.1594
339.674	0.1578
339.8838	0.1646
340.0936	0.1581
340.3034	0.161
340.5132	0.1599
340.7229	0.1597
340.9327	0.1662
341.1424	0.1657
341.3522	0.1611
341.5619	0.163
341.7716	0.1602
341.9813	0.1677
342.1909	0.1682
342.4006	0.1657
342.6102	0.1671
342.8199	0.162
343.0295	0.1618
343.2391	0.1671
343.4487	0.177
343.6583	0.1742
343.8679	0.1673
344.0774	0.1695
344.287	0.176
344.4965	0.1774
344.706	0.181
344.9155	0.1731
345.125	0.1783
345.3345	0.179
345.544	0.181
345.7534	0.1874
345.9629	0.1828
346.1723	0.1876
346.3817	0.183
346.5911	0.1881
346.8005	0.1946
347.0099	0.1856
347.2193	0.1901
347.4286	0.1939
347.638	0.1898
347.8473	0.1914
348.0566	0.1955
348.2659	0.1899
348.4752	0.1999
348.6845	0.1898
348.8937	0.1994
349.103	0.1957
349.3122	0.1952
349.5214	0.1972
349.7306	0.2056
349.9398	0.1983
350.149	0.1922
350.3582	0.1989
350.5674	0.1967
350.7765	0.2025
350.9856	0.1923
351.1948	0.1999
351.4039	0.2009
351.613	0.1921
351.822	0.1954
352.0311	0.1978
352.2402	0.1976
352.4492	0.1955
352.6582	0.1999
352.8672	0.2044
353.0762	0.2007
353.2852	0.1957
353.4942	0.1967
353.7032	0.1868
353.9121	0.1909
354.1211	0.1907
354.33	0.19
354.5389	0.19
354.7478	0.1821
354.9567	0.1848
355.1655	0.1839
355.3744	0.192
355.5833	0.1899
355.7921	0.1989
356.0009	0.189
356.2097	0.1872
356.4185	0.19
356.6273	0.1846
356.8361	0.1912
357.0448	0.1843
357.2536	0.1901
357.4623	0.1848
357.671	0.1894
357.8797	0.1941
358.0884	0.1843
358.2971	0.1815
358.5057	0.1867
358.7144	0.1846
358.923	0.1935
359.1316	0.1958
359.3402	0.1914
359.5488	0.1936
359.7574	0.1984
359.966	0.1872
360.1746	0.1852
360.3831	0.2003
360.5916	0.1968
360.8002	0.1986
361.0087	0.1919
361.2172	0.2013
361.4256	0.1917
361.6341	0.1994
361.8426	0.1992
362.051	0.1987
362.2594	0.1911
362.4678	0.1957
362.6762	0.2045
362.8846	0.2
363.093	0.2036
363.3014	0.2037
363.5097	0.2088
363.718	0.2068
363.9264	0.2017
364.1347	0.2029
364.343	0.2131
364.5513	0.2048
364.7595	0.2125
364.9678	0.2
365.176	0.2056
365.3842	0.2064
365.5925	0.2084
365.8007	0.2045
366.0089	0.2151
366.217	0.2183
366.4252	0.2103
366.6333	0.2082
366.8415	0.2149
367.0496	0.2095
367.2577	0.2143
367.4658	0.206
367.6739	0.2072
367.882	0.2167
368.09	0.2108
368.2981	0.2198
368.5061	0.2225
368.7141	0.2172
368.9221	0.2205
369.1301	0.2141
369.3381	0.2266
369.5461	0.2197
369.754	0.2221
369.962	0.2241
370.1699	0.224
370.3778	0.225
370.5857	0.2222
370.7936	0.2236
371.0015	0.2175
371.2093	0.2195
371.4172	0.2225
371.625	0.2249
371.8328	0.2161
372.0406	0.2333
372.2484	0.2279
372.4562	0.2276
372.664	0.2279
372.8717	0.2301
373.0795	0.2333
373.2872	0.2253
373.4949	0.2355
373.7026	0.2237
373.9103	0.2232
374.118	0.2335
374.3256	0.2303
374.5333	0.2259
374.7409	0.2278
374.9485	0.2269
375.1561	0.2356
375.3637	0.2281
375.5713	0.2281
375.7789	0.2302
375.9864	0.2348
376.194	0.2475
376.4015	0.2324
376.609	0.239
376.8165	0.2407
377.024	0.2345
377.2315	0.2375
377.4389	0.2363
377.6464	0.2449
377.8538	0.2424
378.0612	0.2335
378.2686	0.237
378.476	0.2511
378.6834	0.2397
378.8908	0.2542
379.0981	0.2381
379.3055	0.2418
379.5128	0.25
379.7201	0.2483
379.9274	0.2472
380.1347	0.2354
380.342	0.2502
380.5492	0.2424
380.7565	0.2459
380.9637	0.2466
381.1709	0.2458
381.3781	0.2591
381.5853	0.2499
381.7925	0.2452
381.9997	0.2471
382.2068	0.2485
382.4139	0.2428
382.6211	0.2488
382.8282	0.2557
383.0353	0.2575
383.2424	0.2474
383.4494	0.2491
383.6565	0.2508
383.8635	0.2448
384.0706	0.2554
384.2776	0.2548
384.4846	0.2556
384.6916	0.2519
384.8986	0.2511
385.1055	0.2649
385.3125	0.2579
385.5194	0.252
385.7263	0.2559
385.9333	0.2542
386.1402	0.2611
386.347	0.2549
386.5539	0.2595
386.7608	0.2563
386.9676	0.2554
387.1744	0.2531
387.3813	0.245
387.5881	0.2503
387.7948	0.2553
388.0016	0.2614
388.2084	0.2455
388.4151	0.2575
388.6219	0.2504
388.8286	0.2496
389.0353	0.2494
389.242	0.2491
389.4487	0.2532
389.6553	0.2456
389.862	0.237
390.0686	0.249
390.2753	0.2489
390.4819	0.2504
390.6885	0.2478
390.8951	0.2448
391.1016	0.2638
391.3082	0.2484
391.5147	0.2361
391.7213	0.2444
391.9278	0.2354
392.1343	0.2469
392.3408	0.2333
392.5473	0.2304
392.7537	0.2348
392.9602	0.2336
393.1666	0.2363
393.373	0.2303
393.5794	0.2259
393.7858	0.2408
393.9922	0.2239
394.1986	0.2311
394.4049	0.2365
394.6113	0.2264
394.8176	0.2248
395.0239	0.2182
395.2302	0.222
395.4365	0.2271
395.6428	0.2251
395.8491	0.2314
396.0553	0.2206
396.2615	0.2249
396.4678	0.22
396.674	0.2081
396.8802	0.2238
397.0863	0.2182
397.2925	0.2244
397.4987	0.2115
397.7048	0.2176
397.9109	0.2103
398.117	0.2081
398.3231	0.2106
398.5292	0.2066
398.7353	0.2109
398.9413	0.2174
399.1474	0.2187
399.3534	0.2099
399.5594	0.2238
399.7654	0.2131
399.9714	0.2158
400.1774	0.2081
400.3833	0.2154
400.5893	0.2157
400.7952	0.2163
401.0011	0.2147
401.207	0.2085
401.4129	0.2113
401.6188	0.2075
401.8247	0.2191
402.0305	0.2116
402.2364	0.2133
402.4422	0.2099
402.648	0.217
402.8538	0.2091
403.0596	0.2071
403.2654	0.209
403.4711	0.2076
403.6768	0.2102
403.8826	0.2107
404.0883	0.2095
404.294	0.2233
404.4997	0.2092
404.7054	0.2147
404.911	0.21
405.1167	0.2128
405.3223	0.2141
405.5279	0.2056
405.7335	0.2154
405.9391	0.2045
406.1447	0.2177
406.3502	0.2029
406.5558	0.2219
406.7613	0.215
406.9668	0.198
407.1724	0.208
407.3778	0.2111
407.5833	0.204
407.7888	0.2112
407.9942	0.2152
408.1997	0.2116
408.4051	0.2149
408.6105	0.2093
408.8159	0.2023
409.0213	0.2084
409.2267	0.2144
409.432	0.2101
409.6374	0.2077
409.8427	0.221
410.048	0.2202
410.2533	0.205
410.4586	0.2022
410.6639	0.2062
410.8691	0.2011
411.0744	0.2096
411.2796	0.2114
411.4848	0.213
411.69	0.1977
411.8952	0.2047
412.1004	0.217
412.3056	0.2047
412.5107	0.2025
412.7158	0.2098
412.921	0.2137
413.1261	0.2108
413.3312	0.2026
413.5362	0.2219
413.7413	0.2101
413.9464	0.2063
414.1514	0.2105
414.3564	0.2115
414.5614	0.2063
414.7664	0.2005
414.9714	0.1971
415.1764	0.2081
415.3813	0.1952
415.5863	0.2012
415.7912	0.1998
415.9961	0.2047
416.201	0.2076
416.4059	0.2093
416.6108	0.2011
416.8156	0.2058
417.0205	0.2023
417.2253	0.2049
417.4301	0.2005
417.6349	0.2019
417.8397	0.1957
418.0445	0.2065
418.2492	0.2056
418.454	0.2005
418.6587	0.2042
418.8634	0.2005
419.0681	0.1987
419.2728	0.2023
419.4775	0.2028
419.6822	0.1876
419.8868	0.1958
420.0915	0.1886
420.2961	0.1803
420.5007	0.1967
420.7053	0.1971
420.9099	0.1945
421.1144	0.1854
421.319	0.1871
421.5235	0.1895
421.728	0.1928
421.9325	0.1897
422.137	0.1857
422.3415	0.1873
422.546	0.1846
422.7504	0.1812
422.9549	0.1983
423.1593	0.1798
423.3637	0.1873
423.5681	0.1872
423.7725	0.1773
423.9769	0.1884
424.1812	0.1753
424.3856	0.179
424.5899	0.1796
424.7942	0.1794
424.9985	0.1772
425.2028	0.1751
425.4071	0.174
425.6113	0.1807
425.8156	0.1714
426.0198	0.1777
426.224	0.1807
426.4282	0.1698
426.6324	0.1724
426.8366	0.1636
