Data from D4ACN5uM420nmA_Absorbance_14-37-09-852.txt Node
Date: Fri Feb 21 14:37:09 GMT 2025
User: LASERRRRR
Spectrometer: FLMT03099
Trigger mode: 0
Integration Time (sec): 1.500000E-2
Scans to average: 1
Electric dark correction enabled: true
Nonlinearity correction enabled: false
Boxcar width: 0
XAxis mode: Wavelengths
Number of Pixels in Spectrum: 3648
>>>>>Begin Spectral Data<<<<<
179.3399	-0.5686
179.5586	-0.5686
179.7771	-0.5686
179.9957	-0.3213
180.2143	-0
180.4329	0.2097
180.6514	-0.6325
180.8699	-0
181.0885	0.148
181.307	0.3503
181.5255	0.3801
181.744	-0
181.9625	-0
182.181	-0
182.3994	-0.2327
182.6179	0.2018
182.8363	0.4265
183.0547	0.1051
183.2732	0.1038
183.4916	0.3789
183.71	0.2089
183.9284	0.2987
184.1467	0.3092
184.3651	0.1199
184.5835	0.244
184.8018	0.1594
185.0201	-0.05
185.2385	0.3611
185.4568	0.256
185.6751	0.2017
185.8934	0.0681
186.1117	-0.0514
186.3299	0.2934
186.5482	0.2839
186.7664	0.1952
186.9847	-0.0973
187.2029	0.178
187.4211	0.3212
187.6393	0.1438
187.8575	0.2952
188.0757	0.696
188.2939	-0.0207
188.512	0.3932
188.7302	0.1575
188.9483	0.2223
189.1665	0.2739
189.3846	0.3463
189.6027	0.081
189.8208	0.28
190.0389	0.1263
190.257	0.1025
190.475	0.1268
190.6931	0.1073
190.9111	0.0418
191.1292	0.0713
191.3472	0.1421
191.5652	0.2428
191.7832	0.1922
192.0012	0.1305
192.2192	0.2373
192.4371	0.1675
192.6551	0.1769
192.873	0.1595
193.091	0.1724
193.3089	0.1668
193.5268	0.2146
193.7447	0.2538
193.9626	0.2279
194.1805	0.1504
194.3984	0.287
194.6162	0.3829
194.8341	0.2609
195.0519	0.267
195.2697	0.2706
195.4875	0.2678
195.7054	0.2786
195.9231	0.2368
196.1409	0.3332
196.3587	0.2653
196.5765	0.3388
196.7942	0.3719
197.012	0.2926
197.2297	0.2549
197.4474	0.3773
197.6651	0.3137
197.8828	0.3083
198.1005	0.3727
198.3182	0.3796
198.5358	0.4372
198.7535	0.363
198.9711	0.3473
199.1888	0.3033
199.4064	0.3837
199.624	0.386
199.8416	0.3659
200.0592	0.3993
200.2767	0.3936
200.4943	0.3947
200.7119	0.3944
200.9294	0.3994
201.1469	0.4376
201.3645	0.4107
201.582	0.3774
201.7995	0.45
202.017	0.3624
202.2344	0.4371
202.4519	0.4094
202.6694	0.3856
202.8868	0.3805
203.1042	0.427
203.3217	0.4154
203.5391	0.3712
203.7565	0.3608
203.9739	0.4
204.1913	0.364
204.4086	0.355
204.626	0.3597
204.8433	0.381
205.0607	0.3526
205.278	0.3887
205.4953	0.3276
205.7126	0.3474
205.9299	0.315
206.1472	0.3298
206.3644	0.2997
206.5817	0.3198
206.7989	0.3112
207.0162	0.312
207.2334	0.3405
207.4506	0.2999
207.6678	0.2831
207.885	0.2742
208.1022	0.2858
208.3194	0.2906
208.5365	0.2914
208.7537	0.2835
208.9708	0.2926
209.1879	0.2839
209.405	0.2782
209.6222	0.2693
209.8392	0.297
210.0563	0.2841
210.2734	0.2533
210.4905	0.2578
210.7075	0.2796
210.9245	0.2712
211.1416	0.2469
211.3586	0.2471
211.5756	0.2335
211.7926	0.2832
212.0096	0.2495
212.2265	0.2299
212.4435	0.2443
212.6604	0.2508
212.8774	0.2337
213.0943	0.2408
213.3112	0.2419
213.5281	0.2345
213.745	0.2248
213.9619	0.2195
214.1788	0.2517
214.3956	0.2405
214.6125	0.2259
214.8293	0.2499
215.0461	0.2377
215.2629	0.2428
215.4798	0.2321
215.6965	0.2208
215.9133	0.2335
216.1301	0.235
216.3469	0.2402
216.5636	0.2311
216.7803	0.2384
216.9971	0.2305
217.2138	0.2393
217.4305	0.2347
217.6472	0.2282
217.8639	0.2293
218.0805	0.2408
218.2972	0.2301
218.5138	0.2418
218.7305	0.2484
218.9471	0.2292
219.1637	0.2561
219.3803	0.2486
219.5969	0.2387
219.8135	0.2475
220.0301	0.2421
220.2466	0.2434
220.4632	0.2394
220.6797	0.2666
220.8962	0.2503
221.1127	0.2577
221.3292	0.2625
221.5457	0.2678
221.7622	0.2632
221.9787	0.272
222.1951	0.2709
222.4116	0.2674
222.628	0.2761
222.8444	0.2879
223.0608	0.2662
223.2772	0.267
223.4936	0.2662
223.71	0.2769
223.9264	0.2975
224.1427	0.2949
224.3591	0.294
224.5754	0.2829
224.7917	0.2894
225.008	0.2881
225.2243	0.2902
225.4406	0.2832
225.6569	0.3011
225.8732	0.316
226.0894	0.2993
226.3057	0.3136
226.5219	0.3096
226.7381	0.3285
226.9543	0.3044
227.1705	0.3096
227.3867	0.3194
227.6029	0.3139
227.8191	0.3184
228.0352	0.3303
228.2513	0.3407
228.4675	0.3428
228.6836	0.3416
228.8997	0.3432
229.1158	0.3549
229.3319	0.3641
229.548	0.3619
229.764	0.3594
229.9801	0.3777
230.1961	0.3706
230.4121	0.3615
230.6282	0.3847
230.8442	0.3856
231.0602	0.3827
231.2761	0.3854
231.4921	0.3933
231.7081	0.3989
231.924	0.4158
232.14	0.4074
232.3559	0.4145
232.5718	0.4137
232.7877	0.4134
233.0036	0.4133
233.2195	0.4155
233.4353	0.4176
233.6512	0.4271
233.867	0.4333
234.0829	0.4234
234.2987	0.4281
234.5145	0.4391
234.7303	0.4371
234.9461	0.4371
235.1619	0.4529
235.3776	0.4393
235.5934	0.436
235.8091	0.4493
236.0249	0.4541
236.2406	0.4412
236.4563	0.4519
236.672	0.4502
236.8877	0.4528
237.1034	0.4455
237.319	0.4526
237.5347	0.4514
237.7503	0.4452
237.966	0.4682
238.1816	0.4547
238.3972	0.4647
238.6128	0.4717
238.8284	0.4658
239.0439	0.4579
239.2595	0.4631
239.475	0.4595
239.6906	0.452
239.9061	0.4692
240.1216	0.4672
240.3371	0.4581
240.5526	0.4642
240.7681	0.4643
240.9836	0.4665
241.199	0.4563
241.4145	0.4588
241.6299	0.4507
241.8453	0.4474
242.0607	0.4505
242.2761	0.4497
242.4915	0.4469
242.7069	0.4359
242.9223	0.4311
243.1376	0.4271
243.353	0.4218
243.5683	0.4135
243.7836	0.4062
243.9989	0.3959
244.2142	0.3866
244.4295	0.3864
244.6448	0.3826
244.86	0.3716
245.0753	0.3579
245.2905	0.3567
245.5057	0.3549
245.721	0.3545
245.9362	0.3393
246.1514	0.3378
246.3665	0.3182
246.5817	0.3073
246.7969	0.3147
247.012	0.3074
247.2271	0.3022
247.4423	0.2982
247.6574	0.2934
247.8725	0.286
248.0876	0.2777
248.3026	0.2814
248.5177	0.266
248.7328	0.2591
248.9478	0.2557
249.1628	0.2578
249.3779	0.2441
249.5929	0.2479
249.8079	0.2447
250.0228	0.2411
250.2378	0.2376
250.4528	0.2425
250.6677	0.2244
250.8827	0.2242
251.0976	0.2234
251.3125	0.2221
251.5274	0.2114
251.7423	0.2101
251.9572	0.2163
252.172	0.2108
252.3869	0.2108
252.6017	0.2131
252.8166	0.207
253.0314	0.203
253.2462	0.1999
253.461	0.2011
253.6758	0.1933
253.8906	0.1918
254.1053	0.1972
254.3201	0.1979
254.5348	0.1869
254.7496	0.1913
254.9643	0.1934
255.179	0.1858
255.3937	0.1925
255.6083	0.1938
255.823	0.1886
256.0377	0.1833
256.2523	0.1892
256.467	0.1881
256.6816	0.1897
256.8962	0.195
257.1108	0.1851
257.3254	0.1888
257.54	0.1855
257.7545	0.1848
257.9691	0.189
258.1836	0.1811
258.3981	0.1837
258.6127	0.1813
258.8272	0.1836
259.0417	0.1792
259.2561	0.1823
259.4706	0.1785
259.6851	0.186
259.8995	0.1808
260.114	0.1852
260.3284	0.1828
260.5428	0.1864
260.7572	0.1812
260.9716	0.1899
261.186	0.1759
261.4003	0.1843
261.6147	0.182
261.829	0.1844
262.0433	0.1846
262.2577	0.1836
262.472	0.1881
262.6863	0.188
262.9005	0.1839
263.1148	0.1887
263.3291	0.1863
263.5433	0.1949
263.7576	0.1915
263.9718	0.1891
264.186	0.1933
264.4002	0.1929
264.6144	0.2013
264.8286	0.1986
265.0427	0.2022
265.2569	0.2017
265.471	0.1961
265.6851	0.202
265.8993	0.1946
266.1134	0.2002
266.3275	0.1982
266.5415	0.2004
266.7556	0.2064
266.9697	0.1989
267.1837	0.2027
267.3978	0.2016
267.6118	0.1968
267.8258	0.1979
268.0398	0.2049
268.2538	0.2035
268.4677	0.1983
268.6817	0.1979
268.8957	0.192
269.1096	0.1912
269.3235	0.1943
269.5374	0.2001
269.7514	0.194
269.9652	0.1953
270.1791	0.1951
270.393	0.1954
270.6068	0.1929
270.8207	0.1972
271.0345	0.1941
271.2483	0.1913
271.4622	0.1931
271.676	0.1961
271.8897	0.1979
272.1035	0.1989
272.3173	0.1956
272.531	0.1989
272.7448	0.1918
272.9585	0.1963
273.1722	0.1968
273.3859	0.2007
273.5996	0.1998
273.8133	0.2023
274.0269	0.2003
274.2406	0.205
274.4542	0.2
274.6679	0.2052
274.8815	0.2076
275.0951	0.2136
275.3087	0.2085
275.5223	0.2105
275.7358	0.2137
275.9494	0.2065
276.1629	0.2115
276.3765	0.218
276.59	0.2087
276.8035	0.2143
277.017	0.2206
277.2305	0.2197
277.444	0.2226
277.6574	0.2242
277.8709	0.2267
278.0843	0.2213
278.2978	0.2203
278.5112	0.2196
278.7246	0.2136
278.938	0.2204
279.1513	0.2193
279.3647	0.2112
279.5781	0.2185
279.7914	0.21
280.0047	0.2096
280.2181	0.2078
280.4314	0.2053
280.6447	0.212
280.8579	0.2006
281.0712	0.206
281.2845	0.2061
281.4977	0.2079
281.711	0.2067
281.9242	0.2042
282.1374	0.1991
282.3506	0.2001
282.5638	0.2004
282.7769	0.1922
282.9901	0.1975
283.2033	0.1942
283.4164	0.1961
283.6295	0.1947
283.8426	0.1933
284.0557	0.1956
284.2688	0.2001
284.4819	0.1852
284.695	0.1963
284.908	0.1919
285.1211	0.195
285.3341	0.1833
285.5471	0.1936
285.7601	0.1947
285.9731	0.1935
286.1861	0.1883
286.3991	0.1954
286.612	0.1866
286.825	0.1935
287.0379	0.1893
287.2508	0.1948
287.4637	0.1921
287.6766	0.1847
287.8895	0.1888
288.1024	0.1903
288.3152	0.1936
288.5281	0.1876
288.7409	0.1912
288.9538	0.1925
289.1666	0.1865
289.3794	0.1875
289.5922	0.1877
289.8049	0.1852
290.0177	0.1916
290.2304	0.1839
290.4432	0.1906
290.6559	0.1889
290.8686	0.184
291.0813	0.1851
291.294	0.1863
291.5067	0.1816
291.7194	0.179
291.932	0.1825
292.1447	0.1841
292.3573	0.1872
292.5699	0.188
292.7825	0.1799
292.9951	0.183
293.2077	0.1799
293.4203	0.1821
293.6328	0.183
293.8454	0.1863
294.0579	0.1842
294.2704	0.1872
294.4829	0.183
294.6954	0.1861
294.9079	0.1826
295.1204	0.1797
295.3328	0.1863
295.5453	0.1854
295.7577	0.1812
295.9701	0.1834
296.1825	0.1841
296.3949	0.1865
296.6073	0.1771
296.8197	0.1837
297.0321	0.1844
297.2444	0.1802
297.4567	0.1834
297.6691	0.186
297.8814	0.1826
298.0937	0.1816
298.306	0.181
298.5182	0.188
298.7305	0.1846
298.9428	0.1919
299.155	0.184
299.3672	0.1796
299.5794	0.1853
299.7916	0.1878
300.0038	0.1869
300.216	0.179
300.4282	0.181
300.6403	0.1913
300.8525	0.1817
301.0646	0.1824
301.2767	0.189
301.4888	0.1875
301.7009	0.1842
301.913	0.1863
302.125	0.1832
302.3371	0.1838
302.5491	0.1904
302.7612	0.1894
302.9732	0.1861
303.1852	0.1852
303.3972	0.1865
303.6092	0.1863
303.8211	0.1845
304.0331	0.1819
304.245	0.1836
304.457	0.1819
304.6689	0.1809
304.8808	0.1818
305.0927	0.183
305.3046	0.1784
305.5164	0.1813
305.7283	0.1804
305.9401	0.1745
306.152	0.1769
306.3638	0.1808
306.5756	0.1766
306.7874	0.1774
306.9992	0.1789
307.2109	0.172
307.4227	0.1694
307.6344	0.1779
307.8462	0.1756
308.0579	0.1751
308.2696	0.1764
308.4813	0.1689
308.693	0.1674
308.9046	0.1637
309.1163	0.1632
309.328	0.1651
309.5396	0.1618
309.7512	0.1644
309.9628	0.1623
310.1744	0.1566
310.386	0.1516
310.5976	0.1539
310.8091	0.16
311.0207	0.1573
311.2322	0.1516
311.4437	0.1537
311.6552	0.1562
311.8667	0.1554
312.0782	0.1551
312.2897	0.1552
312.5012	0.1559
312.7126	0.1539
312.924	0.1535
313.1355	0.1498
313.3469	0.1466
313.5583	0.1527
313.7696	0.1484
313.981	0.1527
314.1924	0.1424
314.4037	0.1478
314.6151	0.1479
314.8264	0.1519
315.0377	0.1528
315.249	0.1544
315.4603	0.1457
315.6716	0.149
315.8828	0.1402
316.0941	0.1487
316.3053	0.1421
316.5165	0.1465
316.7277	0.145
316.9389	0.1456
317.1501	0.1468
317.3613	0.1451
317.5724	0.1438
317.7836	0.1417
317.9947	0.1392
318.2058	0.1427
318.417	0.1463
318.6281	0.1459
318.8391	0.1481
319.0502	0.1434
319.2613	0.1431
319.4723	0.1425
319.6834	0.1475
319.8944	0.1395
320.1054	0.1429
320.3164	0.139
320.5274	0.1407
320.7383	0.1454
320.9493	0.1509
321.1602	0.1372
321.3712	0.1407
321.5821	0.145
321.793	0.1531
322.0039	0.1453
322.2148	0.1414
322.4257	0.1399
322.6365	0.1436
322.8474	0.149
323.0582	0.146
323.269	0.1451
323.4798	0.1453
323.6906	0.1452
323.9014	0.1415
324.1122	0.145
324.3229	0.1544
324.5337	0.1481
324.7444	0.1484
324.9551	0.1525
325.1658	0.1473
325.3765	0.154
325.5872	0.1487
325.7979	0.1562
326.0085	0.143
326.2192	0.1445
326.4298	0.1535
326.6404	0.1588
326.851	0.1477
327.0616	0.1546
327.2722	0.1514
327.4828	0.1474
327.6933	0.1609
327.9039	0.1572
328.1144	0.163
328.3249	0.1659
328.5354	0.1632
328.7459	0.1593
328.9564	0.1579
329.1669	0.1619
329.3773	0.1586
329.5878	0.1607
329.7982	0.1626
330.0086	0.1559
330.219	0.1601
330.4294	0.1637
330.6398	0.1654
330.8502	0.171
331.0605	0.1642
331.2708	0.156
331.4812	0.1658
331.6915	0.1674
331.9018	0.1676
332.1121	0.167
332.3224	0.1641
332.5326	0.1649
332.7429	0.1577
332.9531	0.1696
333.1633	0.1625
333.3735	0.1596
333.5837	0.161
333.7939	0.1682
334.0041	0.1668
334.2143	0.1606
334.4244	0.1699
334.6346	0.1648
334.8447	0.1588
335.0548	0.1688
335.2649	0.1646
335.475	0.1613
335.685	0.1655
335.8951	0.1588
336.1051	0.1667
336.3152	0.1657
336.5252	0.1584
336.7352	0.1541
336.9452	0.1633
337.1552	0.1646
337.3652	0.1553
337.5751	0.1658
337.7851	0.1584
337.995	0.1606
338.2049	0.1585
338.4148	0.1654
338.6247	0.1625
338.8346	0.159
339.0445	0.1593
339.2543	0.1589
339.4642	0.1582
339.674	0.1536
339.8838	0.16
340.0936	0.1658
340.3034	0.1519
340.5132	0.1594
340.7229	0.1742
340.9327	0.1727
341.1424	0.1669
341.3522	0.1628
341.5619	0.1668
341.7716	0.1669
341.9813	0.1703
342.1909	0.168
342.4006	0.1642
342.6102	0.1688
342.8199	0.1718
343.0295	0.1614
343.2391	0.1702
343.4487	0.1738
343.6583	0.1813
343.8679	0.1662
344.0774	0.1696
344.287	0.176
344.4965	0.1774
344.706	0.1836
344.9155	0.1791
345.125	0.1788
345.3345	0.1845
345.544	0.1768
345.7534	0.1806
345.9629	0.1832
346.1723	0.187
346.3817	0.1829
346.5911	0.181
346.8005	0.1866
347.0099	0.185
347.2193	0.1947
347.4286	0.1954
347.638	0.195
347.8473	0.1953
348.0566	0.1906
348.2659	0.1897
348.4752	0.1937
348.6845	0.1951
348.8937	0.1863
349.103	0.193
349.3122	0.1906
349.5214	0.191
349.7306	0.2025
349.9398	0.202
350.149	0.1907
350.3582	0.1962
350.5674	0.1971
350.7765	0.1983
350.9856	0.1919
351.1948	0.1968
351.4039	0.2044
351.613	0.1942
351.822	0.1926
352.0311	0.1922
352.2402	0.1955
352.4492	0.198
352.6582	0.1982
352.8672	0.1917
353.0762	0.1964
353.2852	0.1916
353.4942	0.1897
353.7032	0.1894
353.9121	0.1924
354.1211	0.1876
354.33	0.1887
354.5389	0.1857
354.7478	0.185
354.9567	0.191
355.1655	0.1885
355.3744	0.1831
355.5833	0.1877
355.7921	0.194
356.0009	0.1872
356.2097	0.185
356.4185	0.1888
356.6273	0.1913
356.8361	0.193
357.0448	0.1896
357.2536	0.1866
357.4623	0.1862
357.671	0.1894
357.8797	0.1894
358.0884	0.1838
358.2971	0.1879
358.5057	0.1956
358.7144	0.1927
358.923	0.1946
359.1316	0.1943
359.3402	0.1931
359.5488	0.1851
359.7574	0.1945
359.966	0.1892
360.1746	0.1892
360.3831	0.1938
360.5916	0.1874
360.8002	0.1968
361.0087	0.1894
361.2172	0.1874
361.4256	0.192
361.6341	0.1973
361.8426	0.1973
362.051	0.2051
362.2594	0.1917
362.4678	0.2002
362.6762	0.2011
362.8846	0.1973
363.093	0.1993
363.3014	0.1983
363.5097	0.1977
363.718	0.2084
363.9264	0.2022
364.1347	0.2002
364.343	0.2023
364.5513	0.1986
364.7595	0.2088
364.9678	0.2047
365.176	0.2057
365.3842	0.211
365.5925	0.2017
365.8007	0.2049
366.0089	0.2147
366.217	0.2091
366.4252	0.1997
366.6333	0.2129
366.8415	0.2122
367.0496	0.2062
367.2577	0.2103
367.4658	0.2046
367.6739	0.2052
367.882	0.2093
368.09	0.2081
368.2981	0.2172
368.5061	0.2147
368.7141	0.2039
368.9221	0.2183
369.1301	0.2208
369.3381	0.2209
369.5461	0.2213
369.754	0.2206
369.962	0.2177
370.1699	0.2149
370.3778	0.2263
370.5857	0.2184
370.7936	0.219
371.0015	0.2161
371.2093	0.2215
371.4172	0.2138
371.625	0.223
371.8328	0.2222
372.0406	0.2186
372.2484	0.2197
372.4562	0.2272
372.664	0.2201
372.8717	0.2341
373.0795	0.2325
373.2872	0.2301
373.4949	0.2287
373.7026	0.2231
373.9103	0.219
374.118	0.2264
374.3256	0.2325
374.5333	0.2249
374.7409	0.224
374.9485	0.2298
375.1561	0.223
375.3637	0.2299
375.5713	0.2356
375.7789	0.2299
375.9864	0.2315
376.194	0.2342
376.4015	0.2358
376.609	0.2229
376.8165	0.231
377.024	0.2427
377.2315	0.2304
377.4389	0.2296
377.6464	0.2352
377.8538	0.2402
378.0612	0.2358
378.2686	0.2404
378.476	0.2393
378.6834	0.2421
378.8908	0.2378
379.0981	0.2459
379.3055	0.2419
379.5128	0.2354
379.7201	0.2437
379.9274	0.2468
380.1347	0.2365
380.342	0.2524
380.5492	0.2397
380.7565	0.2474
380.9637	0.247
381.1709	0.2344
381.3781	0.2489
381.5853	0.2426
381.7925	0.2365
381.9997	0.2394
382.2068	0.2485
382.4139	0.2429
382.6211	0.24
382.8282	0.2551
383.0353	0.2506
383.2424	0.2448
383.4494	0.2471
383.6565	0.2409
383.8635	0.2445
384.0706	0.2534
384.2776	0.2476
384.4846	0.2476
384.6916	0.2522
384.8986	0.2559
385.1055	0.2594
385.3125	0.2539
385.5194	0.2525
385.7263	0.2526
385.9333	0.2509
386.1402	0.252
386.347	0.2546
386.5539	0.2492
386.7608	0.2487
386.9676	0.255
387.1744	0.2461
387.3813	0.2538
387.5881	0.2392
387.7948	0.2535
388.0016	0.252
388.2084	0.2409
388.4151	0.2502
388.6219	0.2402
388.8286	0.2473
389.0353	0.2543
389.242	0.2489
389.4487	0.2449
389.6553	0.2453
389.862	0.2369
390.0686	0.248
390.2753	0.246
390.4819	0.2474
390.6885	0.2421
390.8951	0.2388
391.1016	0.2426
391.3082	0.2386
391.5147	0.2307
391.7213	0.2309
391.9278	0.2318
392.1343	0.2335
392.3408	0.2347
392.5473	0.237
392.7537	0.2352
392.9602	0.2284
393.1666	0.2296
393.373	0.2253
393.5794	0.236
393.7858	0.2292
393.9922	0.2288
394.1986	0.2267
394.4049	0.2274
394.6113	0.2249
394.8176	0.225
395.0239	0.2263
395.2302	0.2248
395.4365	0.2238
395.6428	0.2202
395.8491	0.2279
396.0553	0.2194
396.2615	0.2241
396.4678	0.2241
396.674	0.2212
396.8802	0.2145
397.0863	0.209
397.2925	0.2191
397.4987	0.2121
397.7048	0.2189
397.9109	0.2082
398.117	0.2101
398.3231	0.2068
398.5292	0.2131
398.7353	0.2074
398.9413	0.2111
399.1474	0.2173
399.3534	0.2129
399.5594	0.224
399.7654	0.2124
399.9714	0.2096
400.1774	0.2046
400.3833	0.2126
400.5893	0.2157
400.7952	0.2168
401.0011	0.214
401.207	0.2207
401.4129	0.2053
401.6188	0.2071
401.8247	0.2133
402.0305	0.209
402.2364	0.2141
402.4422	0.2112
402.648	0.205
402.8538	0.2068
403.0596	0.1978
403.2654	0.2092
403.4711	0.2055
403.6768	0.2052
403.8826	0.2073
404.0883	0.2097
404.294	0.2091
404.4997	0.2151
404.7054	0.2133
404.911	0.2065
405.1167	0.2112
405.3223	0.2053
405.5279	0.2033
405.7335	0.2044
405.9391	0.198
406.1447	0.2124
406.3502	0.1995
406.5558	0.1992
406.7613	0.2114
406.9668	0.2004
407.1724	0.205
407.3778	0.2051
407.5833	0.1988
407.7888	0.2104
407.9942	0.1983
408.1997	0.2134
408.4051	0.2028
408.6105	0.2202
408.8159	0.2055
409.0213	0.2038
409.2267	0.2109
409.432	0.2098
409.6374	0.214
409.8427	0.2084
410.048	0.2099
410.2533	0.2062
410.4586	0.2011
410.6639	0.2111
410.8691	0.1983
411.0744	0.2058
411.2796	0.2071
411.4848	0.2141
411.69	0.2031
411.8952	0.2071
412.1004	0.2086
412.3056	0.2013
412.5107	0.2032
412.7158	0.217
412.921	0.2016
413.1261	0.2136
413.3312	0.2089
413.5362	0.2048
413.7413	0.2079
413.9464	0.2074
414.1514	0.2061
414.3564	0.1932
414.5614	0.1949
414.7664	0.2007
414.9714	0.2012
415.1764	0.2102
415.3813	0.2058
415.5863	0.2048
415.7912	0.1976
415.9961	0.1991
416.201	0.2129
416.4059	0.2063
416.6108	0.2042
416.8156	0.2032
417.0205	0.2099
417.2253	0.2015
417.4301	0.2024
417.6349	0.2051
417.8397	0.1936
418.0445	0.2002
418.2492	0.183
418.454	0.1891
418.6587	0.2003
418.8634	0.1944
419.0681	0.1999
419.2728	0.1997
419.4775	0.206
419.6822	0.1942
419.8868	0.1959
420.0915	0.1946
420.2961	0.1753
420.5007	0.1975
420.7053	0.1986
420.9099	0.1975
421.1144	0.1864
421.319	0.1817
421.5235	0.1842
421.728	0.1952
421.9325	0.1935
422.137	0.1808
422.3415	0.1743
422.546	0.1841
422.7504	0.1934
422.9549	0.1973
423.1593	0.1846
423.3637	0.1843
423.5681	0.1854
423.7725	0.1803
423.9769	0.1853
424.1812	0.1723
424.3856	0.1724
424.5899	0.1808
424.7942	0.1793
424.9985	0.1767
425.2028	0.1837
425.4071	0.1817
425.6113	0.1798
425.8156	0.1774
426.0198	0.1812
426.224	0.1813
426.4282	0.1624
426.6324	0.1661
426.8366	0.1733
