Data from D4ACN5uM420nmA_Absorbance_14-37-09-717.txt Node
Date: Fri Feb 21 14:37:09 GMT 2025
User: LASERRRRR
Spectrometer: FLMT03099
Trigger mode: 0
Integration Time (sec): 1.500000E-2
Scans to average: 1
Electric dark correction enabled: true
Nonlinearity correction enabled: false
Boxcar width: 0
XAxis mode: Wavelengths
Number of Pixels in Spectrum: 3648
>>>>>Begin Spectral Data<<<<<
179.3399	-0.4008
179.5586	-0.4008
179.7771	-0.4008
179.9957	-0.0596
180.2143	-1.0843
180.4329	-0
180.6514	-0
180.8699	-0
181.0885	-0
181.307	0.3804
181.5255	0.3599
181.744	-0
181.9625	0.0368
182.181	-0
182.3994	-0.1818
182.6179	0.381
182.8363	-0
183.0547	0.7969
183.2732	0.3187
183.4916	0.1856
183.71	0.1906
183.9284	-0.062
184.1467	0.4457
184.3651	-0.0617
184.5835	0.2361
184.8018	0.0172
185.0201	0.014
185.2385	0.3406
185.4568	0.274
185.6751	0.16
185.8934	0.1078
186.1117	-0.139
186.3299	0.1175
186.5482	0.2942
186.7664	0.2294
186.9847	-0.0462
187.2029	0.3028
187.4211	0.0018
187.6393	0.0559
187.8575	0.221
188.0757	0.7144
188.2939	0.0826
188.512	0.0889
188.7302	0.1526
188.9483	0.3118
189.1665	0.4723
189.3846	0.4879
189.6027	0.208
189.8208	0.28
190.0389	0.2166
190.257	0.0984
190.475	0.0218
190.6931	0.0612
190.9111	-0.1023
191.1292	0.1158
191.3472	0.0433
191.5652	0.2036
191.7832	0.1884
192.0012	0.0957
192.2192	0.2221
192.4371	0.0246
192.6551	0.2011
192.873	0.2081
193.091	0.1724
193.3089	0.0591
193.5268	0.1817
193.7447	0.1365
193.9626	0.2775
194.1805	0.2026
194.3984	0.1288
194.6162	0.1803
194.8341	0.2757
195.0519	0.2176
195.2697	0.2129
195.4875	0.2209
195.7054	0.2304
195.9231	0.1991
196.1409	0.2966
196.3587	0.3135
196.5765	0.2774
196.7942	0.2892
197.012	0.3257
197.2297	0.2769
197.4474	0.4378
197.6651	0.2943
197.8828	0.3699
198.1005	0.416
198.3182	0.3718
198.5358	0.3231
198.7535	0.3376
198.9711	0.3572
199.1888	0.3199
199.4064	0.3881
199.624	0.3747
199.8416	0.3469
200.0592	0.3801
200.2767	0.367
200.4943	0.4358
200.7119	0.4041
200.9294	0.3909
201.1469	0.391
201.3645	0.4173
201.582	0.4006
201.7995	0.4055
202.017	0.4033
202.2344	0.4019
202.4519	0.3827
202.6694	0.3806
202.8868	0.3913
203.1042	0.4178
203.3217	0.389
203.5391	0.3784
203.7565	0.3755
203.9739	0.3612
204.1913	0.35
204.4086	0.334
204.626	0.335
204.8433	0.3449
205.0607	0.3361
205.278	0.3501
205.4953	0.3381
205.7126	0.3427
205.9299	0.29
206.1472	0.3067
206.3644	0.3513
206.5817	0.3052
206.7989	0.3158
207.0162	0.3069
207.2334	0.3124
207.4506	0.2793
207.6678	0.3234
207.885	0.2723
208.1022	0.2956
208.3194	0.2761
208.5365	0.2934
208.7537	0.2819
208.9708	0.2918
209.1879	0.2615
209.405	0.2761
209.6222	0.2613
209.8392	0.2601
210.0563	0.251
210.2734	0.2692
210.4905	0.2874
210.7075	0.262
210.9245	0.2619
211.1416	0.2575
211.3586	0.2533
211.5756	0.228
211.7926	0.2692
212.0096	0.2387
212.2265	0.2463
212.4435	0.2407
212.6604	0.2652
212.8774	0.2484
213.0943	0.2361
213.3112	0.2589
213.5281	0.256
213.745	0.2387
213.9619	0.2394
214.1788	0.2554
214.3956	0.2549
214.6125	0.2344
214.8293	0.2279
215.0461	0.2361
215.2629	0.2594
215.4798	0.2459
215.6965	0.2389
215.9133	0.2236
216.1301	0.2186
216.3469	0.2247
216.5636	0.2243
216.7803	0.2273
216.9971	0.2405
217.2138	0.2459
217.4305	0.2323
217.6472	0.239
217.8639	0.2315
218.0805	0.2508
218.2972	0.2419
218.5138	0.2279
218.7305	0.2423
218.9471	0.2322
219.1637	0.2715
219.3803	0.2552
219.5969	0.2394
219.8135	0.255
220.0301	0.2512
220.2466	0.2628
220.4632	0.2413
220.6797	0.242
220.8962	0.254
221.1127	0.2539
221.3292	0.2554
221.5457	0.2678
221.7622	0.2613
221.9787	0.2698
222.1951	0.2687
222.4116	0.2587
222.628	0.2806
222.8444	0.27
223.0608	0.2818
223.2772	0.2804
223.4936	0.2716
223.71	0.2693
223.9264	0.283
224.1427	0.2856
224.3591	0.2801
224.5754	0.2811
224.7917	0.2824
225.008	0.2928
225.2243	0.2957
225.4406	0.2815
225.6569	0.304
225.8732	0.2983
226.0894	0.3087
226.3057	0.306
226.5219	0.3119
226.7381	0.3237
226.9543	0.3084
227.1705	0.3109
227.3867	0.3176
227.6029	0.3195
227.8191	0.326
228.0352	0.3399
228.2513	0.3424
228.4675	0.3371
228.6836	0.3446
228.8997	0.343
229.1158	0.3501
229.3319	0.3535
229.548	0.3562
229.764	0.3532
229.9801	0.3786
230.1961	0.3746
230.4121	0.3739
230.6282	0.3778
230.8442	0.3863
231.0602	0.3907
231.2761	0.3772
231.4921	0.3783
231.7081	0.3942
231.924	0.4135
232.14	0.4094
232.3559	0.4036
232.5718	0.4146
232.7877	0.4116
233.0036	0.4116
233.2195	0.415
233.4353	0.4208
233.6512	0.426
233.867	0.4338
234.0829	0.4338
234.2987	0.4329
234.5145	0.4358
234.7303	0.4322
234.9461	0.4325
235.1619	0.4314
235.3776	0.4402
235.5934	0.4294
235.8091	0.4487
236.0249	0.4512
236.2406	0.4445
236.4563	0.4447
236.672	0.4441
236.8877	0.4448
237.1034	0.4462
237.319	0.4481
237.5347	0.4466
237.7503	0.4432
237.966	0.4587
238.1816	0.4531
238.3972	0.4564
238.6128	0.4596
238.8284	0.4629
239.0439	0.4582
239.2595	0.4632
239.475	0.4561
239.6906	0.4555
239.9061	0.4644
240.1216	0.4526
240.3371	0.4617
240.5526	0.4641
240.7681	0.4708
240.9836	0.4742
241.199	0.4604
241.4145	0.4539
241.6299	0.4534
241.8453	0.4506
242.0607	0.4384
242.2761	0.4401
242.4915	0.4334
242.7069	0.4269
242.9223	0.4385
243.1376	0.4232
243.353	0.4186
243.5683	0.4173
243.7836	0.4013
243.9989	0.3995
244.2142	0.3853
244.4295	0.3864
244.6448	0.3857
244.86	0.3721
245.0753	0.3608
245.2905	0.3544
245.5057	0.3517
245.721	0.3496
245.9362	0.3326
246.1514	0.3441
246.3665	0.3259
246.5817	0.3109
246.7969	0.3129
247.012	0.308
247.2271	0.3042
247.4423	0.297
247.6574	0.2989
247.8725	0.2859
248.0876	0.2813
248.3026	0.2747
248.5177	0.2652
248.7328	0.2547
248.9478	0.2648
249.1628	0.2493
249.3779	0.2511
249.5929	0.2458
249.8079	0.2383
250.0228	0.2382
250.2378	0.2403
250.4528	0.2367
250.6677	0.2303
250.8827	0.2235
251.0976	0.226
251.3125	0.221
251.5274	0.2188
251.7423	0.2119
251.9572	0.2145
252.172	0.2111
252.3869	0.2146
252.6017	0.2099
252.8166	0.2019
253.0314	0.2042
253.2462	0.1986
253.461	0.2003
253.6758	0.197
253.8906	0.1973
254.1053	0.2023
254.3201	0.1909
254.5348	0.1897
254.7496	0.1887
254.9643	0.1913
255.179	0.1885
255.3937	0.1882
255.6083	0.1956
255.823	0.1899
256.0377	0.1872
256.2523	0.19
256.467	0.1932
256.6816	0.1885
256.8962	0.1862
257.1108	0.1813
257.3254	0.1868
257.54	0.1786
257.7545	0.1895
257.9691	0.1858
258.1836	0.1831
258.3981	0.1858
258.6127	0.1768
258.8272	0.1917
259.0417	0.1763
259.2561	0.1768
259.4706	0.1811
259.6851	0.1898
259.8995	0.1769
260.114	0.1881
260.3284	0.1838
260.5428	0.1842
260.7572	0.178
260.9716	0.1915
261.186	0.1875
261.4003	0.1799
261.6147	0.1843
261.829	0.182
262.0433	0.1836
262.2577	0.1816
262.472	0.1813
262.6863	0.1901
262.9005	0.1823
263.1148	0.1864
263.3291	0.1865
263.5433	0.1889
263.7576	0.1948
263.9718	0.1853
264.186	0.1871
264.4002	0.1895
264.6144	0.1962
264.8286	0.2004
265.0427	0.1941
265.2569	0.1987
265.471	0.2008
265.6851	0.1985
265.8993	0.1933
266.1134	0.1965
266.3275	0.1979
266.5415	0.1989
266.7556	0.201
266.9697	0.1989
267.1837	0.1999
267.3978	0.2012
267.6118	0.1963
267.8258	0.2059
268.0398	0.2013
268.2538	0.2047
268.4677	0.1928
268.6817	0.1971
268.8957	0.1906
269.1096	0.1921
269.3235	0.1942
269.5374	0.2017
269.7514	0.1932
269.9652	0.1991
270.1791	0.1926
270.393	0.1985
270.6068	0.1972
270.8207	0.1912
271.0345	0.1942
271.2483	0.1931
271.4622	0.1965
271.676	0.1884
271.8897	0.1854
272.1035	0.1986
272.3173	0.1877
272.531	0.1926
272.7448	0.1937
272.9585	0.1955
273.1722	0.1944
273.3859	0.199
273.5996	0.1982
273.8133	0.203
274.0269	0.1977
274.2406	0.2008
274.4542	0.1994
274.6679	0.2044
274.8815	0.208
275.0951	0.2125
275.3087	0.215
275.5223	0.2085
275.7358	0.215
275.9494	0.2138
276.1629	0.2137
276.3765	0.2151
276.59	0.2102
276.8035	0.2144
277.017	0.219
277.2305	0.2177
277.444	0.2164
277.6574	0.2153
277.8709	0.2173
278.0843	0.2215
278.2978	0.2186
278.5112	0.2168
278.7246	0.2218
278.938	0.2146
279.1513	0.2163
279.3647	0.2149
279.5781	0.2087
279.7914	0.2071
280.0047	0.2088
280.2181	0.2043
280.4314	0.2161
280.6447	0.2138
280.8579	0.2073
281.0712	0.2024
281.2845	0.2021
281.4977	0.2042
281.711	0.1958
281.9242	0.1995
282.1374	0.1993
282.3506	0.1976
282.5638	0.1959
282.7769	0.2016
282.9901	0.1966
283.2033	0.1953
283.4164	0.1967
283.6295	0.1958
283.8426	0.1893
284.0557	0.1935
284.2688	0.2011
284.4819	0.1881
284.695	0.1961
284.908	0.186
285.1211	0.1946
285.3341	0.1848
285.5471	0.1923
285.7601	0.1911
285.9731	0.1947
286.1861	0.188
286.3991	0.1982
286.612	0.1889
286.825	0.1921
287.0379	0.1858
287.2508	0.188
287.4637	0.1906
287.6766	0.1863
287.8895	0.1895
288.1024	0.1918
288.3152	0.189
288.5281	0.1886
288.7409	0.1858
288.9538	0.1839
289.1666	0.1855
289.3794	0.1852
289.5922	0.181
289.8049	0.1841
290.0177	0.1888
290.2304	0.1863
290.4432	0.1885
290.6559	0.1899
290.8686	0.1879
291.0813	0.1824
291.294	0.1811
291.5067	0.182
291.7194	0.1848
291.932	0.1833
292.1447	0.1894
292.3573	0.1867
292.5699	0.1882
292.7825	0.1831
292.9951	0.1839
293.2077	0.1802
293.4203	0.1825
293.6328	0.1855
293.8454	0.1807
294.0579	0.1831
294.2704	0.1887
294.4829	0.184
294.6954	0.1838
294.9079	0.1811
295.1204	0.1779
295.3328	0.1839
295.5453	0.1884
295.7577	0.1882
295.9701	0.1839
296.1825	0.1844
296.3949	0.1802
296.6073	0.1818
296.8197	0.1841
297.0321	0.1833
297.2444	0.1807
297.4567	0.1855
297.6691	0.1816
297.8814	0.1833
298.0937	0.1844
298.306	0.1854
298.5182	0.1866
298.7305	0.1849
298.9428	0.1819
299.155	0.1812
299.3672	0.1872
299.5794	0.1838
299.7916	0.1859
300.0038	0.1881
300.216	0.1804
300.4282	0.1817
300.6403	0.1889
300.8525	0.1856
301.0646	0.1871
301.2767	0.1865
301.4888	0.1813
301.7009	0.1875
301.913	0.192
302.125	0.185
302.3371	0.1904
302.5491	0.1909
302.7612	0.1907
302.9732	0.1914
303.1852	0.1868
303.3972	0.1904
303.6092	0.1888
303.8211	0.186
304.0331	0.1836
304.245	0.1859
304.457	0.1838
304.6689	0.178
304.8808	0.181
305.0927	0.1878
305.3046	0.1839
305.5164	0.1814
305.7283	0.1791
305.9401	0.1758
306.152	0.1807
306.3638	0.1773
306.5756	0.1773
306.7874	0.1761
306.9992	0.1772
307.2109	0.17
307.4227	0.1686
307.6344	0.1704
307.8462	0.1698
308.0579	0.1768
308.2696	0.1727
308.4813	0.1645
308.693	0.1659
308.9046	0.1715
309.1163	0.1631
309.328	0.1641
309.5396	0.1605
309.7512	0.1615
309.9628	0.1595
310.1744	0.1521
310.386	0.156
310.5976	0.1589
310.8091	0.1595
311.0207	0.1543
311.2322	0.1567
311.4437	0.1525
311.6552	0.1564
311.8667	0.1534
312.0782	0.1544
312.2897	0.1536
312.5012	0.1529
312.7126	0.1461
312.924	0.1477
313.1355	0.1556
313.3469	0.1492
313.5583	0.146
313.7696	0.1495
313.981	0.1528
314.1924	0.1451
314.4037	0.1506
314.6151	0.1443
314.8264	0.1527
315.0377	0.1475
315.249	0.1482
315.4603	0.1408
315.6716	0.1486
315.8828	0.1475
316.0941	0.1491
316.3053	0.1411
316.5165	0.1482
316.7277	0.145
316.9389	0.145
317.1501	0.1457
317.3613	0.1453
317.5724	0.139
317.7836	0.1396
317.9947	0.1459
318.2058	0.1409
318.417	0.1416
318.6281	0.1425
318.8391	0.1421
319.0502	0.1443
319.2613	0.1505
319.4723	0.1424
319.6834	0.1448
319.8944	0.1389
320.1054	0.1436
320.3164	0.136
320.5274	0.1435
320.7383	0.1491
320.9493	0.1405
321.1602	0.1414
321.3712	0.1422
321.5821	0.1402
321.793	0.1454
322.0039	0.1442
322.2148	0.1432
322.4257	0.1388
322.6365	0.1443
322.8474	0.1489
323.0582	0.1437
323.269	0.1486
323.4798	0.1406
323.6906	0.144
323.9014	0.1415
324.1122	0.1426
324.3229	0.1452
324.5337	0.1476
324.7444	0.1504
324.9551	0.1464
325.1658	0.1474
325.3765	0.1462
325.5872	0.1474
325.7979	0.1499
326.0085	0.1454
326.2192	0.149
326.4298	0.1521
326.6404	0.1546
326.851	0.1467
327.0616	0.1504
327.2722	0.1518
327.4828	0.1524
327.6933	0.1624
327.9039	0.1517
328.1144	0.1571
328.3249	0.1572
328.5354	0.1548
328.7459	0.1552
328.9564	0.1615
329.1669	0.1578
329.3773	0.1585
329.5878	0.1564
329.7982	0.1592
330.0086	0.1648
330.219	0.1573
330.4294	0.157
330.6398	0.161
330.8502	0.1611
331.0605	0.1601
331.2708	0.1594
331.4812	0.1632
331.6915	0.1604
331.9018	0.1609
332.1121	0.1651
332.3224	0.1607
332.5326	0.1586
332.7429	0.1569
332.9531	0.1666
333.1633	0.1585
333.3735	0.1583
333.5837	0.1638
333.7939	0.1553
334.0041	0.1636
334.2143	0.1607
334.4244	0.1731
334.6346	0.1576
334.8447	0.1575
335.0548	0.1685
335.2649	0.1657
335.475	0.1596
335.685	0.162
335.8951	0.1526
336.1051	0.1611
336.3152	0.1622
336.5252	0.1585
336.7352	0.1609
336.9452	0.158
337.1552	0.1564
337.3652	0.1596
337.5751	0.1539
337.7851	0.1533
337.995	0.1565
338.2049	0.1566
338.4148	0.1564
338.6247	0.1623
338.8346	0.1525
339.0445	0.1591
339.2543	0.1571
339.4642	0.1576
339.674	0.1584
339.8838	0.1595
340.0936	0.154
340.3034	0.1541
340.5132	0.1528
340.7229	0.162
340.9327	0.1676
341.1424	0.1627
341.3522	0.1561
341.5619	0.1673
341.7716	0.1666
341.9813	0.1634
342.1909	0.1718
342.4006	0.1634
342.6102	0.1658
342.8199	0.1671
343.0295	0.1679
343.2391	0.1678
343.4487	0.178
343.6583	0.178
343.8679	0.1692
344.0774	0.1721
344.287	0.1763
344.4965	0.1746
344.706	0.1781
344.9155	0.1717
345.125	0.1782
345.3345	0.1844
345.544	0.1805
345.7534	0.1792
345.9629	0.1764
346.1723	0.1853
346.3817	0.1842
346.5911	0.189
346.8005	0.1887
347.0099	0.1856
347.2193	0.1898
347.4286	0.1958
347.638	0.1918
347.8473	0.198
348.0566	0.1861
348.2659	0.195
348.4752	0.1914
348.6845	0.19
348.8937	0.1843
349.103	0.1876
349.3122	0.1912
349.5214	0.1924
349.7306	0.1996
349.9398	0.1952
350.149	0.1873
350.3582	0.1978
350.5674	0.2002
350.7765	0.1997
350.9856	0.1949
351.1948	0.1953
351.4039	0.1938
351.613	0.1952
351.822	0.1951
352.0311	0.1944
352.2402	0.1982
352.4492	0.1958
352.6582	0.1937
352.8672	0.196
353.0762	0.1922
353.2852	0.1903
353.4942	0.191
353.7032	0.1872
353.9121	0.1869
354.1211	0.1925
354.33	0.1959
354.5389	0.19
354.7478	0.1857
354.9567	0.1832
355.1655	0.187
355.3744	0.1891
355.5833	0.1859
355.7921	0.1951
356.0009	0.1859
356.2097	0.1838
356.4185	0.1822
356.6273	0.1871
356.8361	0.183
357.0448	0.1842
357.2536	0.186
357.4623	0.1854
357.671	0.1944
357.8797	0.1929
358.0884	0.1858
358.2971	0.1885
358.5057	0.1912
358.7144	0.191
358.923	0.1929
359.1316	0.1973
359.3402	0.1883
359.5488	0.1853
359.7574	0.1969
359.966	0.1916
360.1746	0.1861
360.3831	0.1984
360.5916	0.193
360.8002	0.1987
361.0087	0.1896
361.2172	0.1982
361.4256	0.1923
361.6341	0.2028
361.8426	0.1968
362.051	0.1992
362.2594	0.1959
362.4678	0.1901
362.6762	0.1975
362.8846	0.203
363.093	0.1936
363.3014	0.209
363.5097	0.2019
363.718	0.2061
363.9264	0.2022
364.1347	0.1966
364.343	0.2071
364.5513	0.2035
364.7595	0.2145
364.9678	0.2007
365.176	0.208
365.3842	0.2082
365.5925	0.2042
365.8007	0.2075
366.0089	0.2122
366.217	0.2079
366.4252	0.212
366.6333	0.2053
366.8415	0.2101
367.0496	0.2069
367.2577	0.2179
367.4658	0.2016
367.6739	0.2072
367.882	0.2122
368.09	0.207
368.2981	0.2141
368.5061	0.2154
368.7141	0.2175
368.9221	0.2265
369.1301	0.2165
369.3381	0.2188
369.5461	0.2157
369.754	0.2111
369.962	0.2116
370.1699	0.2212
370.3778	0.2311
370.5857	0.2144
370.7936	0.2187
371.0015	0.2261
371.2093	0.212
371.4172	0.2188
371.625	0.2271
371.8328	0.2209
372.0406	0.2306
372.2484	0.2264
372.4562	0.2228
372.664	0.2209
372.8717	0.2201
373.0795	0.2298
373.2872	0.2301
373.4949	0.2324
373.7026	0.2256
373.9103	0.225
374.118	0.2298
374.3256	0.2315
374.5333	0.2297
374.7409	0.2224
374.9485	0.2252
375.1561	0.2371
375.3637	0.2322
375.5713	0.2382
375.7789	0.2306
375.9864	0.2284
376.194	0.2404
376.4015	0.234
376.609	0.2381
376.8165	0.2415
377.024	0.2391
377.2315	0.238
377.4389	0.2289
377.6464	0.237
377.8538	0.2337
378.0612	0.2406
378.2686	0.242
378.476	0.2467
378.6834	0.241
378.8908	0.2404
379.0981	0.2425
379.3055	0.232
379.5128	0.2391
379.7201	0.2482
379.9274	0.2546
380.1347	0.242
380.342	0.2486
380.5492	0.2384
380.7565	0.2386
380.9637	0.2446
381.1709	0.2438
381.3781	0.2533
381.5853	0.2456
381.7925	0.2422
381.9997	0.2511
382.2068	0.2455
382.4139	0.2433
382.6211	0.2421
382.8282	0.2537
383.0353	0.2538
383.2424	0.2484
383.4494	0.2403
383.6565	0.2577
383.8635	0.2504
384.0706	0.2615
384.2776	0.2549
384.4846	0.2553
384.6916	0.2491
384.8986	0.2535
385.1055	0.2531
385.3125	0.2615
385.5194	0.2577
385.7263	0.2517
385.9333	0.2579
386.1402	0.2525
386.347	0.2458
386.5539	0.2502
386.7608	0.2506
386.9676	0.2527
387.1744	0.2498
387.3813	0.2491
387.5881	0.2507
387.7948	0.2552
388.0016	0.2681
388.2084	0.2578
388.4151	0.2517
388.6219	0.2397
388.8286	0.2501
389.0353	0.2443
389.242	0.2575
389.4487	0.2495
389.6553	0.2378
389.862	0.2398
390.0686	0.2469
390.2753	0.2457
390.4819	0.2409
390.6885	0.2472
390.8951	0.236
391.1016	0.248
391.3082	0.2451
391.5147	0.2329
391.7213	0.2356
391.9278	0.2393
392.1343	0.2408
392.3408	0.2371
392.5473	0.2363
392.7537	0.2324
392.9602	0.2358
393.1666	0.2369
393.373	0.2334
393.5794	0.232
393.7858	0.2341
393.9922	0.2271
394.1986	0.2334
394.4049	0.2341
394.6113	0.2286
394.8176	0.2327
395.0239	0.2179
395.2302	0.2227
395.4365	0.2218
395.6428	0.2212
395.8491	0.2271
396.0553	0.2288
396.2615	0.2197
396.4678	0.2233
396.674	0.2145
396.8802	0.216
397.0863	0.2113
397.2925	0.2164
397.4987	0.2179
397.7048	0.2187
397.9109	0.2154
398.117	0.2061
398.3231	0.2175
398.5292	0.2096
398.7353	0.2165
398.9413	0.2177
399.1474	0.2143
399.3534	0.2152
399.5594	0.2129
399.7654	0.2107
399.9714	0.2086
400.1774	0.2142
400.3833	0.2112
400.5893	0.2126
400.7952	0.2151
401.0011	0.2133
401.207	0.2155
401.4129	0.2087
401.6188	0.2143
401.8247	0.2155
402.0305	0.2005
402.2364	0.211
402.4422	0.2134
402.648	0.2096
402.8538	0.2091
403.0596	0.206
403.2654	0.2112
403.4711	0.1953
403.6768	0.2139
403.8826	0.2118
404.0883	0.2135
404.294	0.2043
404.4997	0.2112
404.7054	0.2204
404.911	0.2074
405.1167	0.2142
405.3223	0.2048
405.5279	0.2149
405.7335	0.2061
405.9391	0.2081
406.1447	0.2148
406.3502	0.1977
406.5558	0.1998
406.7613	0.2047
406.9668	0.2044
407.1724	0.2054
407.3778	0.2074
407.5833	0.2016
407.7888	0.2099
407.9942	0.2129
408.1997	0.2123
408.4051	0.2139
408.6105	0.2162
408.8159	0.204
409.0213	0.2049
409.2267	0.2043
409.432	0.2109
409.6374	0.2016
409.8427	0.2128
410.048	0.2139
410.2533	0.2064
410.4586	0.1945
410.6639	0.2044
410.8691	0.2051
411.0744	0.2087
411.2796	0.2089
411.4848	0.2137
411.69	0.1987
411.8952	0.2112
412.1004	0.2063
412.3056	0.208
412.5107	0.2111
412.7158	0.217
412.921	0.2064
413.1261	0.2012
413.3312	0.2109
413.5362	0.2101
413.7413	0.1973
413.9464	0.2034
414.1514	0.2026
414.3564	0.205
414.5614	0.2007
414.7664	0.1974
414.9714	0.2024
415.1764	0.2199
415.3813	0.1956
415.5863	0.2085
415.7912	0.2082
415.9961	0.2048
416.201	0.2074
416.4059	0.2048
416.6108	0.2172
416.8156	0.2
417.0205	0.1962
417.2253	0.2003
417.4301	0.2069
417.6349	0.198
417.8397	0.2078
418.0445	0.1957
418.2492	0.1901
418.454	0.1927
418.6587	0.2029
418.8634	0.2041
419.0681	0.2093
419.2728	0.2007
419.4775	0.2121
419.6822	0.1911
419.8868	0.1956
420.0915	0.1975
420.2961	0.193
420.5007	0.203
420.7053	0.1893
420.9099	0.1992
421.1144	0.1953
421.319	0.1944
421.5235	0.1818
421.728	0.194
421.9325	0.1889
422.137	0.1797
422.3415	0.1844
422.546	0.1792
422.7504	0.1861
422.9549	0.1876
423.1593	0.1845
423.3637	0.1819
423.5681	0.1861
423.7725	0.1827
423.9769	0.1873
424.1812	0.1776
424.3856	0.1786
424.5899	0.1786
424.7942	0.177
424.9985	0.1812
425.2028	0.1866
425.4071	0.1787
425.6113	0.179
425.8156	0.1753
426.0198	0.175
426.224	0.1724
426.4282	0.1677
426.6324	0.1722
426.8366	0.1762
