Data from D4ACN5uM420nmA_Absorbance_14-37-09-207.txt Node
Date: Fri Feb 21 14:37:09 GMT 2025
User: LASERRRRR
Spectrometer: FLMT03099
Trigger mode: 0
Integration Time (sec): 1.500000E-2
Scans to average: 1
Electric dark correction enabled: true
Nonlinearity correction enabled: false
Boxcar width: 0
XAxis mode: Wavelengths
Number of Pixels in Spectrum: 3648
>>>>>Begin Spectral Data<<<<<
179.3399	-0.3105
179.5586	-0.3105
179.7771	-0.3105
179.9957	-0.1725
180.2143	-0
180.4329	-0
180.6514	-0.7782
180.8699	-0
181.0885	-0
181.307	-0
181.5255	0.5737
181.744	-0
181.9625	0.2593
182.181	0.0786
182.3994	-0
182.6179	-0
182.8363	-0
183.0547	-0.1995
183.2732	0.0163
183.4916	0.1554
183.71	0.2211
183.9284	0.0799
184.1467	0.1039
184.3651	-0.1987
184.5835	0.1523
184.8018	0.267
185.0201	0.2209
185.2385	0.2998
185.4568	0.0271
185.6751	0.1239
185.8934	0.2209
186.1117	-0.1879
186.3299	0.0931
186.5482	0.2203
186.7664	0.0308
186.9847	0.1616
187.2029	0.2668
187.4211	-0.0105
187.6393	0.0473
187.8575	0.2309
188.0757	0.3334
188.2939	-0.0402
188.512	0.3557
188.7302	0.0287
188.9483	-0.004
189.1665	0.4123
189.3846	0.0405
189.6027	0.0195
189.8208	0.1603
190.0389	0.1102
190.257	0.0233
190.475	-0.0402
190.6931	0.1055
190.9111	0.0046
191.1292	0.1239
191.3472	0.0121
191.5652	0.0731
191.7832	0.1906
192.0012	0.1477
192.2192	0.1614
192.4371	0.0964
192.6551	0.2139
192.873	0.1149
193.091	0.1088
193.3089	0.1559
193.5268	0.2268
193.7447	0.1615
193.9626	0.1166
194.1805	0.2207
194.3984	0.1087
194.6162	0.1814
194.8341	0.2648
195.0519	0.2259
195.2697	0.2656
195.4875	0.3152
195.7054	0.2269
195.9231	0.2346
196.1409	0.242
196.3587	0.2662
196.5765	0.2781
196.7942	0.2869
197.012	0.3251
197.2297	0.2701
197.4474	0.3237
197.6651	0.2937
197.8828	0.3049
198.1005	0.3802
198.3182	0.3829
198.5358	0.345
198.7535	0.3246
198.9711	0.3964
199.1888	0.3059
199.4064	0.3789
199.624	0.3316
199.8416	0.3855
200.0592	0.3897
200.2767	0.3912
200.4943	0.4144
200.7119	0.3407
200.9294	0.3747
201.1469	0.3738
201.3645	0.4303
201.582	0.3918
201.7995	0.421
202.017	0.376
202.2344	0.4064
202.4519	0.3924
202.6694	0.3947
202.8868	0.4302
203.1042	0.4314
203.3217	0.3706
203.5391	0.3808
203.7565	0.3645
203.9739	0.3851
204.1913	0.3224
204.4086	0.3417
204.626	0.357
204.8433	0.3825
205.0607	0.3435
205.278	0.3095
205.4953	0.3347
205.7126	0.3536
205.9299	0.3089
206.1472	0.3055
206.3644	0.3366
206.5817	0.328
206.7989	0.3101
207.0162	0.3053
207.2334	0.3237
207.4506	0.2899
207.6678	0.2953
207.885	0.317
208.1022	0.305
208.3194	0.2877
208.5365	0.2929
208.7537	0.2901
208.9708	0.3109
209.1879	0.2805
209.405	0.2734
209.6222	0.2559
209.8392	0.2943
210.0563	0.2808
210.2734	0.2434
210.4905	0.2719
210.7075	0.2573
210.9245	0.2717
211.1416	0.2622
211.3586	0.2696
211.5756	0.2423
211.7926	0.2538
212.0096	0.2578
212.2265	0.2314
212.4435	0.2487
212.6604	0.2242
212.8774	0.2158
213.0943	0.2399
213.3112	0.2384
213.5281	0.2479
213.745	0.2254
213.9619	0.2537
214.1788	0.2611
214.3956	0.2336
214.6125	0.2262
214.8293	0.2441
215.0461	0.2261
215.2629	0.2466
215.4798	0.2401
215.6965	0.2231
215.9133	0.2352
216.1301	0.2195
216.3469	0.2376
216.5636	0.2289
216.7803	0.2294
216.9971	0.2328
217.2138	0.253
217.4305	0.229
217.6472	0.2234
217.8639	0.2197
218.0805	0.235
218.2972	0.2413
218.5138	0.2463
218.7305	0.2442
218.9471	0.2236
219.1637	0.2464
219.3803	0.2385
219.5969	0.244
219.8135	0.2486
220.0301	0.25
220.2466	0.2387
220.4632	0.2488
220.6797	0.2536
220.8962	0.2587
221.1127	0.2548
221.3292	0.2562
221.5457	0.2578
221.7622	0.2581
221.9787	0.282
222.1951	0.2761
222.4116	0.2666
222.628	0.2777
222.8444	0.2765
223.0608	0.2741
223.2772	0.2713
223.4936	0.282
223.71	0.2902
223.9264	0.2794
224.1427	0.2864
224.3591	0.2783
224.5754	0.2901
224.7917	0.299
225.008	0.2804
225.2243	0.2979
225.4406	0.2898
225.6569	0.309
225.8732	0.3003
226.0894	0.3028
226.3057	0.2932
226.5219	0.2987
226.7381	0.3156
226.9543	0.3124
227.1705	0.3105
227.3867	0.3137
227.6029	0.3163
227.8191	0.325
228.0352	0.3404
228.2513	0.3447
228.4675	0.3443
228.6836	0.3407
228.8997	0.3442
229.1158	0.3575
229.3319	0.3666
229.548	0.3535
229.764	0.3521
229.9801	0.3694
230.1961	0.3677
230.4121	0.3635
230.6282	0.3875
230.8442	0.3785
231.0602	0.3783
231.2761	0.3877
231.4921	0.3843
231.7081	0.3908
231.924	0.3998
232.14	0.4034
232.3559	0.4021
232.5718	0.4139
232.7877	0.4132
233.0036	0.4122
233.2195	0.4155
233.4353	0.4227
233.6512	0.4041
233.867	0.422
234.0829	0.4268
234.2987	0.4211
234.5145	0.4478
234.7303	0.4414
234.9461	0.442
235.1619	0.4445
235.3776	0.4378
235.5934	0.4256
235.8091	0.4424
236.0249	0.4493
236.2406	0.4387
236.4563	0.4473
236.672	0.4357
236.8877	0.4403
237.1034	0.4557
237.319	0.4527
237.5347	0.4478
237.7503	0.4569
237.966	0.4684
238.1816	0.4516
238.3972	0.4619
238.6128	0.467
238.8284	0.4595
239.0439	0.4442
239.2595	0.4643
239.475	0.4687
239.6906	0.4571
239.9061	0.4573
240.1216	0.4668
240.3371	0.4629
240.5526	0.452
240.7681	0.4661
240.9836	0.4561
241.199	0.4544
241.4145	0.4533
241.6299	0.4503
241.8453	0.444
242.0607	0.4503
242.2761	0.4406
242.4915	0.4379
242.7069	0.4186
242.9223	0.4346
243.1376	0.4178
243.353	0.4176
243.5683	0.4147
243.7836	0.3974
243.9989	0.3871
244.2142	0.3838
244.4295	0.3802
244.6448	0.375
244.86	0.3653
245.0753	0.3551
245.2905	0.3566
245.5057	0.3477
245.721	0.3427
245.9362	0.3454
246.1514	0.325
246.3665	0.3252
246.5817	0.3151
246.7969	0.316
247.012	0.3005
247.2271	0.3025
247.4423	0.2912
247.6574	0.2921
247.8725	0.2806
248.0876	0.281
248.3026	0.2736
248.5177	0.2617
248.7328	0.2563
248.9478	0.2574
249.1628	0.2551
249.3779	0.2531
249.5929	0.2453
249.8079	0.2431
250.0228	0.233
250.2378	0.233
250.4528	0.2355
250.6677	0.2292
250.8827	0.2197
251.0976	0.2174
251.3125	0.2201
251.5274	0.2156
251.7423	0.2113
251.9572	0.2118
252.172	0.2076
252.3869	0.2095
252.6017	0.2037
252.8166	0.2051
253.0314	0.2071
253.2462	0.1986
253.461	0.1945
253.6758	0.2016
253.8906	0.1956
254.1053	0.1974
254.3201	0.1986
254.5348	0.1862
254.7496	0.1858
254.9643	0.1925
255.179	0.1918
255.3937	0.1923
255.6083	0.1941
255.823	0.1857
256.0377	0.1879
256.2523	0.1884
256.467	0.1893
256.6816	0.1911
256.8962	0.189
257.1108	0.1942
257.3254	0.1799
257.54	0.1815
257.7545	0.1888
257.9691	0.1797
258.1836	0.1813
258.3981	0.1803
258.6127	0.1776
258.8272	0.1855
259.0417	0.1799
259.2561	0.1834
259.4706	0.1846
259.6851	0.1817
259.8995	0.1822
260.114	0.1805
260.3284	0.1752
260.5428	0.1784
260.7572	0.1783
260.9716	0.1858
261.186	0.1798
261.4003	0.1829
261.6147	0.1836
261.829	0.1784
262.0433	0.1835
262.2577	0.1818
262.472	0.1898
262.6863	0.188
262.9005	0.18
263.1148	0.1841
263.3291	0.1862
263.5433	0.1929
263.7576	0.1844
263.9718	0.1825
264.186	0.1928
264.4002	0.1933
264.6144	0.1956
264.8286	0.1928
265.0427	0.1944
265.2569	0.1991
265.471	0.2006
265.6851	0.2013
265.8993	0.1931
266.1134	0.1959
266.3275	0.194
266.5415	0.1955
266.7556	0.2057
266.9697	0.1981
267.1837	0.1957
267.3978	0.1984
267.6118	0.1893
267.8258	0.2026
268.0398	0.2014
268.2538	0.1968
268.4677	0.1935
268.6817	0.1979
268.8957	0.1914
269.1096	0.1861
269.3235	0.1924
269.5374	0.1934
269.7514	0.195
269.9652	0.1917
270.1791	0.1913
270.393	0.1975
270.6068	0.1952
270.8207	0.1898
271.0345	0.1903
271.2483	0.1854
271.4622	0.1925
271.676	0.1896
271.8897	0.1971
272.1035	0.1957
272.3173	0.1873
272.531	0.1918
272.7448	0.1938
272.9585	0.1886
273.1722	0.1906
273.3859	0.1932
273.5996	0.1913
273.8133	0.1999
274.0269	0.1909
274.2406	0.1962
274.4542	0.1973
274.6679	0.2008
274.8815	0.2056
275.0951	0.205
275.3087	0.2045
275.5223	0.2012
275.7358	0.2069
275.9494	0.2067
276.1629	0.2093
276.3765	0.2073
276.59	0.2053
276.8035	0.2095
277.017	0.211
277.2305	0.2085
277.444	0.2111
277.6574	0.2106
277.8709	0.2166
278.0843	0.2087
278.2978	0.2132
278.5112	0.2102
278.7246	0.2094
278.938	0.2111
279.1513	0.2097
279.3647	0.2091
279.5781	0.2045
279.7914	0.2056
280.0047	0.2063
280.2181	0.2075
280.4314	0.2059
280.6447	0.21
280.8579	0.202
281.0712	0.2041
281.2845	0.1994
281.4977	0.1996
281.711	0.1977
281.9242	0.1988
282.1374	0.1993
282.3506	0.1988
282.5638	0.1978
282.7769	0.1918
282.9901	0.2017
283.2033	0.1939
283.4164	0.1945
283.6295	0.1901
283.8426	0.1914
284.0557	0.193
284.2688	0.1916
284.4819	0.1899
284.695	0.1917
284.908	0.189
285.1211	0.1912
285.3341	0.1897
285.5471	0.1904
285.7601	0.1884
285.9731	0.1865
286.1861	0.1895
286.3991	0.2
286.612	0.1913
286.825	0.1907
287.0379	0.1873
287.2508	0.189
287.4637	0.1909
287.6766	0.1909
287.8895	0.188
288.1024	0.1933
288.3152	0.1906
288.5281	0.1882
288.7409	0.1917
288.9538	0.1883
289.1666	0.1866
289.3794	0.1855
289.5922	0.1887
289.8049	0.1905
290.0177	0.1891
290.2304	0.1854
290.4432	0.1934
290.6559	0.1889
290.8686	0.19
291.0813	0.181
291.294	0.19
291.5067	0.1901
291.7194	0.186
291.932	0.1859
292.1447	0.1823
292.3573	0.1863
292.5699	0.1898
292.7825	0.1814
292.9951	0.1862
293.2077	0.1849
293.4203	0.1864
293.6328	0.1854
293.8454	0.1924
294.0579	0.1843
294.2704	0.1887
294.4829	0.1852
294.6954	0.188
294.9079	0.1806
295.1204	0.1838
295.3328	0.1903
295.5453	0.1879
295.7577	0.1866
295.9701	0.1892
296.1825	0.1881
296.3949	0.1812
296.6073	0.1869
296.8197	0.184
297.0321	0.1858
297.2444	0.1868
297.4567	0.1865
297.6691	0.1843
297.8814	0.1887
298.0937	0.1861
298.306	0.1849
298.5182	0.1948
298.7305	0.19
298.9428	0.1871
299.155	0.1804
299.3672	0.186
299.5794	0.1844
299.7916	0.1837
300.0038	0.1823
300.216	0.1861
300.4282	0.1864
300.6403	0.1911
300.8525	0.1857
301.0646	0.1838
301.2767	0.1854
301.4888	0.1877
301.7009	0.19
301.913	0.1858
302.125	0.1907
302.3371	0.1848
302.5491	0.1898
302.7612	0.1991
302.9732	0.1939
303.1852	0.1869
303.3972	0.1896
303.6092	0.1893
303.8211	0.1864
304.0331	0.1881
304.245	0.1878
304.457	0.1839
304.6689	0.1859
304.8808	0.1868
305.0927	0.191
305.3046	0.1848
305.5164	0.1826
305.7283	0.1851
305.9401	0.1703
306.152	0.176
306.3638	0.1789
306.5756	0.1766
306.7874	0.1758
306.9992	0.1753
307.2109	0.1747
307.4227	0.1752
307.6344	0.1777
307.8462	0.1759
308.0579	0.1757
308.2696	0.1663
308.4813	0.174
308.693	0.1649
308.9046	0.1715
309.1163	0.1612
309.328	0.1659
309.5396	0.1626
309.7512	0.1578
309.9628	0.1584
310.1744	0.1518
310.386	0.1531
310.5976	0.1573
310.8091	0.1592
311.0207	0.1579
311.2322	0.1578
311.4437	0.1528
311.6552	0.1508
311.8667	0.1564
312.0782	0.1478
312.2897	0.1499
312.5012	0.1497
312.7126	0.1434
312.924	0.1483
313.1355	0.1472
313.3469	0.1505
313.5583	0.1421
313.7696	0.1416
313.981	0.1504
314.1924	0.1445
314.4037	0.144
314.6151	0.1438
314.8264	0.1467
315.0377	0.1501
315.249	0.1479
315.4603	0.1418
315.6716	0.144
315.8828	0.141
316.0941	0.1458
316.3053	0.1439
316.5165	0.1461
316.7277	0.1387
316.9389	0.1446
317.1501	0.1409
317.3613	0.1425
317.5724	0.1371
317.7836	0.1389
317.9947	0.1413
318.2058	0.1402
318.417	0.1401
318.6281	0.1423
318.8391	0.1461
319.0502	0.1418
319.2613	0.14
319.4723	0.1395
319.6834	0.1424
319.8944	0.1372
320.1054	0.1405
320.3164	0.1336
320.5274	0.1413
320.7383	0.147
320.9493	0.1409
321.1602	0.1348
321.3712	0.1358
321.5821	0.1348
321.793	0.1509
322.0039	0.1401
322.2148	0.1425
322.4257	0.1383
322.6365	0.1388
322.8474	0.1426
323.0582	0.1412
323.269	0.1419
323.4798	0.1435
323.6906	0.142
323.9014	0.1384
324.1122	0.1349
324.3229	0.146
324.5337	0.1399
324.7444	0.1438
324.9551	0.1394
325.1658	0.1424
325.3765	0.1438
325.5872	0.1446
325.7979	0.1419
326.0085	0.1438
326.2192	0.1377
326.4298	0.1511
326.6404	0.1456
326.851	0.145
327.0616	0.1509
327.2722	0.1537
327.4828	0.1515
327.6933	0.1537
327.9039	0.1464
328.1144	0.1476
328.3249	0.1542
328.5354	0.1592
328.7459	0.1511
328.9564	0.1547
329.1669	0.1564
329.3773	0.1581
329.5878	0.1544
329.7982	0.1562
330.0086	0.1535
330.219	0.1504
330.4294	0.1636
330.6398	0.1591
330.8502	0.1654
331.0605	0.1596
331.2708	0.1576
331.4812	0.1573
331.6915	0.1603
331.9018	0.1581
332.1121	0.164
332.3224	0.162
332.5326	0.1431
332.7429	0.1577
332.9531	0.1657
333.1633	0.1536
333.3735	0.1528
333.5837	0.1618
333.7939	0.1548
334.0041	0.1601
334.2143	0.1613
334.4244	0.1706
334.6346	0.1583
334.8447	0.1538
335.0548	0.1598
335.2649	0.1634
335.475	0.1545
335.685	0.1498
335.8951	0.1554
336.1051	0.1589
336.3152	0.1612
336.5252	0.1514
336.7352	0.1601
336.9452	0.1507
337.1552	0.1606
337.3652	0.1525
337.5751	0.1559
337.7851	0.1525
337.995	0.1539
338.2049	0.1536
338.4148	0.1558
338.6247	0.1531
338.8346	0.1578
339.0445	0.1556
339.2543	0.157
339.4642	0.1537
339.674	0.1507
339.8838	0.1604
340.0936	0.1551
340.3034	0.1509
340.5132	0.1474
340.7229	0.159
340.9327	0.166
341.1424	0.1642
341.3522	0.1583
341.5619	0.1654
341.7716	0.1589
341.9813	0.1679
342.1909	0.1649
342.4006	0.1609
342.6102	0.1575
342.8199	0.1704
343.0295	0.1681
343.2391	0.1666
343.4487	0.1674
343.6583	0.176
343.8679	0.1666
344.0774	0.1684
344.287	0.1679
344.4965	0.1736
344.706	0.1749
344.9155	0.1699
345.125	0.1702
345.3345	0.1778
345.544	0.1776
345.7534	0.1798
345.9629	0.1761
346.1723	0.1776
346.3817	0.1715
346.5911	0.1814
346.8005	0.187
347.0099	0.1824
347.2193	0.1908
347.4286	0.184
347.638	0.1834
347.8473	0.1817
348.0566	0.1805
348.2659	0.1837
348.4752	0.1899
348.6845	0.1856
348.8937	0.1841
349.103	0.1896
349.3122	0.1903
349.5214	0.1936
349.7306	0.1999
349.9398	0.1873
350.149	0.1869
350.3582	0.1901
350.5674	0.193
350.7765	0.1928
350.9856	0.1865
351.1948	0.1902
351.4039	0.1946
351.613	0.1882
351.822	0.1914
352.0311	0.1921
352.2402	0.192
352.4492	0.1932
352.6582	0.1901
352.8672	0.1858
353.0762	0.1884
353.2852	0.1898
353.4942	0.1944
353.7032	0.1931
353.9121	0.1914
354.1211	0.1867
354.33	0.1927
354.5389	0.1883
354.7478	0.1902
354.9567	0.1923
355.1655	0.1847
355.3744	0.1845
355.5833	0.1909
355.7921	0.1882
356.0009	0.1859
356.2097	0.1881
356.4185	0.1896
356.6273	0.1808
356.8361	0.1857
357.0448	0.1903
357.2536	0.1934
357.4623	0.1856
357.671	0.1919
357.8797	0.1902
358.0884	0.1915
358.2971	0.1885
358.5057	0.1936
358.7144	0.1926
358.923	0.191
359.1316	0.1921
359.3402	0.1929
359.5488	0.1885
359.7574	0.1954
359.966	0.1957
360.1746	0.1912
360.3831	0.1956
360.5916	0.2015
360.8002	0.2014
361.0087	0.1937
361.2172	0.2015
361.4256	0.2047
361.6341	0.205
361.8426	0.2007
362.051	0.1983
362.2594	0.1972
362.4678	0.1969
362.6762	0.203
362.8846	0.2001
363.093	0.2073
363.3014	0.204
363.5097	0.2023
363.718	0.2092
363.9264	0.2039
364.1347	0.2074
364.343	0.2069
364.5513	0.2041
364.7595	0.2133
364.9678	0.2003
365.176	0.211
365.3842	0.2086
365.5925	0.2034
365.8007	0.2211
366.0089	0.2149
366.217	0.2168
366.4252	0.2148
366.6333	0.2145
366.8415	0.2194
367.0496	0.2117
367.2577	0.2243
367.4658	0.2091
367.6739	0.2166
367.882	0.221
368.09	0.2187
368.2981	0.2182
368.5061	0.2162
368.7141	0.2132
368.9221	0.2273
369.1301	0.2292
369.3381	0.227
369.5461	0.2162
369.754	0.2182
369.962	0.2277
370.1699	0.2289
370.3778	0.2317
370.5857	0.2252
370.7936	0.2321
371.0015	0.2278
371.2093	0.2318
371.4172	0.2298
371.625	0.231
371.8328	0.2275
372.0406	0.2303
372.2484	0.2241
372.4562	0.2291
372.664	0.2317
372.8717	0.2383
373.0795	0.2418
373.2872	0.2422
373.4949	0.2408
373.7026	0.2354
373.9103	0.2221
374.118	0.2328
374.3256	0.2383
374.5333	0.2353
374.7409	0.2359
374.9485	0.2397
375.1561	0.2442
375.3637	0.2391
375.5713	0.2409
375.7789	0.2302
375.9864	0.2439
376.194	0.2535
376.4015	0.2401
376.609	0.2422
376.8165	0.2413
377.024	0.2488
377.2315	0.2424
377.4389	0.2335
377.6464	0.2506
377.8538	0.2506
378.0612	0.2522
378.2686	0.2461
378.476	0.2523
378.6834	0.2434
378.8908	0.2574
379.0981	0.2533
379.3055	0.2504
379.5128	0.2545
379.7201	0.2519
379.9274	0.2536
380.1347	0.2516
380.342	0.2554
380.5492	0.2513
380.7565	0.2501
380.9637	0.2498
381.1709	0.244
381.3781	0.2568
381.5853	0.2531
381.7925	0.2538
381.9997	0.2712
382.2068	0.2611
382.4139	0.2504
382.6211	0.2527
382.8282	0.2664
383.0353	0.2614
383.2424	0.2577
383.4494	0.2479
383.6565	0.2598
383.8635	0.2566
384.0706	0.2645
384.2776	0.2555
384.4846	0.2614
384.6916	0.2652
384.8986	0.2669
385.1055	0.2682
385.3125	0.2674
385.5194	0.2633
385.7263	0.2651
385.9333	0.264
386.1402	0.2638
386.347	0.2659
386.5539	0.2623
386.7608	0.2513
386.9676	0.264
387.1744	0.2605
387.3813	0.2612
387.5881	0.2564
387.7948	0.2652
388.0016	0.273
388.2084	0.2612
388.4151	0.2657
388.6219	0.2529
388.8286	0.2556
389.0353	0.2566
389.242	0.2546
389.4487	0.2622
389.6553	0.2427
389.862	0.26
390.0686	0.2614
390.2753	0.2622
390.4819	0.2595
390.6885	0.2583
390.8951	0.2535
391.1016	0.2509
391.3082	0.2523
391.5147	0.2421
391.7213	0.2464
391.9278	0.2416
392.1343	0.252
392.3408	0.2464
392.5473	0.2428
392.7537	0.2489
392.9602	0.2416
393.1666	0.2458
393.373	0.244
393.5794	0.235
393.7858	0.2488
393.9922	0.2393
394.1986	0.2378
394.4049	0.2425
394.6113	0.2294
394.8176	0.234
395.0239	0.231
395.2302	0.2367
395.4365	0.2314
395.6428	0.2246
395.8491	0.233
396.0553	0.2256
396.2615	0.2278
396.4678	0.2332
396.674	0.2275
396.8802	0.2225
397.0863	0.2168
397.2925	0.2306
397.4987	0.2265
397.7048	0.2264
397.9109	0.2169
398.117	0.2182
398.3231	0.224
398.5292	0.2208
398.7353	0.2308
398.9413	0.2225
399.1474	0.2231
399.3534	0.2249
399.5594	0.2333
399.7654	0.2153
399.9714	0.223
400.1774	0.2192
400.3833	0.226
400.5893	0.2253
400.7952	0.2315
401.0011	0.2149
401.207	0.2181
401.4129	0.2219
401.6188	0.2218
401.8247	0.227
402.0305	0.2291
402.2364	0.2243
402.4422	0.2239
402.648	0.2202
402.8538	0.219
403.0596	0.2218
403.2654	0.2284
403.4711	0.2056
403.6768	0.2145
403.8826	0.2258
404.0883	0.2247
404.294	0.2232
404.4997	0.2236
404.7054	0.2219
404.911	0.2216
405.1167	0.212
405.3223	0.2127
405.5279	0.2159
405.7335	0.2208
405.9391	0.2135
406.1447	0.2215
406.3502	0.2152
406.5558	0.2219
406.7613	0.2177
406.9668	0.2061
407.1724	0.2188
407.3778	0.2201
407.5833	0.2083
407.7888	0.217
407.9942	0.2176
408.1997	0.2161
408.4051	0.2224
408.6105	0.2214
408.8159	0.2067
409.0213	0.2239
409.2267	0.2172
409.432	0.2171
409.6374	0.2183
409.8427	0.2214
410.048	0.2209
410.2533	0.216
410.4586	0.2116
410.6639	0.2189
410.8691	0.2027
411.0744	0.2124
411.2796	0.213
411.4848	0.2217
411.69	0.2138
411.8952	0.222
412.1004	0.2125
412.3056	0.2095
412.5107	0.2165
412.7158	0.2257
412.921	0.2165
413.1261	0.2107
413.3312	0.2079
413.5362	0.226
413.7413	0.2132
413.9464	0.2093
414.1514	0.2082
414.3564	0.2062
414.5614	0.2171
414.7664	0.2122
414.9714	0.2063
415.1764	0.2139
415.3813	0.2114
415.5863	0.215
415.7912	0.2076
415.9961	0.2151
416.201	0.2146
416.4059	0.2099
416.6108	0.2085
416.8156	0.211
417.0205	0.2067
417.2253	0.2137
417.4301	0.2155
417.6349	0.207
417.8397	0.208
418.0445	0.2068
418.2492	0.2
418.454	0.2082
418.6587	0.2029
418.8634	0.2124
419.0681	0.2067
419.2728	0.2129
419.4775	0.2234
419.6822	0.2086
419.8868	0.2048
420.0915	0.203
420.2961	0.1949
420.5007	0.1983
420.7053	0.1999
420.9099	0.2053
421.1144	0.198
421.319	0.2014
421.5235	0.1915
421.728	0.2038
421.9325	0.197
422.137	0.1956
422.3415	0.1997
422.546	0.1917
422.7504	0.1901
422.9549	0.1984
423.1593	0.1906
423.3637	0.1974
423.5681	0.1924
423.7725	0.1902
423.9769	0.1932
424.1812	0.1806
424.3856	0.1841
424.5899	0.1862
424.7942	0.1925
424.9985	0.1921
425.2028	0.1962
425.4071	0.1847
425.6113	0.1853
425.8156	0.1773
426.0198	0.1802
426.224	0.1808
426.4282	0.1723
426.6324	0.1831
426.8366	0.1744
