Data from D4ACN5uM420nmA_Absorbance_14-37-08-456.txt Node
Date: Fri Feb 21 14:37:08 GMT 2025
User: LASERRRRR
Spectrometer: FLMT03099
Trigger mode: 0
Integration Time (sec): 1.500000E-2
Scans to average: 1
Electric dark correction enabled: true
Nonlinearity correction enabled: false
Boxcar width: 0
XAxis mode: Wavelengths
Number of Pixels in Spectrum: 3648
>>>>>Begin Spectral Data<<<<<
179.3399	-0.3989
179.5586	-0.3989
179.7771	-0.3989
179.9957	-0.1273
180.2143	-0
180.4329	0.438
180.6514	-0
180.8699	-0
181.0885	0.3476
181.307	0.3479
181.5255	0.2568
181.744	-0.1584
181.9625	-0.0198
182.181	-0.5992
182.3994	-0.4525
182.6179	-0
182.8363	13.9877
183.0547	-0
183.2732	0.1299
183.4916	0.3572
183.71	0.1525
183.9284	0.1453
184.1467	0.235
184.3651	-0.0018
184.5835	0.2325
184.8018	0.0806
185.0201	0.0846
185.2385	0.2907
185.4568	0.0688
185.6751	0.295
185.8934	0.2424
186.1117	-0.0247
186.3299	0.4227
186.5482	0.2225
186.7664	0.0859
186.9847	0.1387
187.2029	0.1246
187.4211	0.0909
187.6393	0.2781
187.8575	0.3342
188.0757	0.5863
188.2939	0.0101
188.512	0.3796
188.7302	0.1629
188.9483	0.414
189.1665	1.0258
189.3846	0.1877
189.6027	0.3163
189.8208	0.665
190.0389	0.1455
190.257	0.2749
190.475	0.0738
190.6931	0.0345
190.9111	0.2671
191.1292	0.2138
191.3472	0.1359
191.5652	0.3567
191.7832	0.1739
192.0012	0.1338
192.2192	0.0993
192.4371	0.1791
192.6551	0.1958
192.873	0.1597
193.091	0.045
193.3089	0.2432
193.5268	0.3117
193.7447	0.1388
193.9626	0.1769
194.1805	0.2415
194.3984	0.2088
194.6162	0.2957
194.8341	0.3045
195.0519	0.2672
195.2697	0.294
195.4875	0.2796
195.7054	0.269
195.9231	0.2889
196.1409	0.3529
196.3587	0.3055
196.5765	0.2938
196.7942	0.272
197.012	0.3404
197.2297	0.2975
197.4474	0.3886
197.6651	0.2893
197.8828	0.3983
198.1005	0.4707
198.3182	0.3983
198.5358	0.3716
198.7535	0.3924
198.9711	0.3313
199.1888	0.3319
199.4064	0.4039
199.624	0.3872
199.8416	0.3903
200.0592	0.3724
200.2767	0.4124
200.4943	0.4017
200.7119	0.3916
200.9294	0.4053
201.1469	0.4057
201.3645	0.4367
201.582	0.4093
201.7995	0.437
202.017	0.3786
202.2344	0.4371
202.4519	0.4503
202.6694	0.4353
202.8868	0.3626
203.1042	0.4334
203.3217	0.3955
203.5391	0.3791
203.7565	0.3442
203.9739	0.3712
204.1913	0.3513
204.4086	0.3873
204.626	0.3603
204.8433	0.381
205.0607	0.3549
205.278	0.3448
205.4953	0.3537
205.7126	0.3324
205.9299	0.3155
206.1472	0.3418
206.3644	0.3283
206.5817	0.3283
206.7989	0.3177
207.0162	0.3318
207.2334	0.3477
207.4506	0.2909
207.6678	0.3252
207.885	0.3003
208.1022	0.3027
208.3194	0.2996
208.5365	0.3001
208.7537	0.3139
208.9708	0.3009
209.1879	0.271
209.405	0.3103
209.6222	0.2585
209.8392	0.3094
210.0563	0.2888
210.2734	0.2534
210.4905	0.3006
210.7075	0.2909
210.9245	0.2581
211.1416	0.2676
211.3586	0.2642
211.5756	0.2406
211.7926	0.2624
212.0096	0.2565
212.2265	0.2613
212.4435	0.2764
212.6604	0.2463
212.8774	0.2332
213.0943	0.239
213.3112	0.2454
213.5281	0.2538
213.745	0.2408
213.9619	0.2479
214.1788	0.263
214.3956	0.2321
214.6125	0.2491
214.8293	0.2461
215.0461	0.2311
215.2629	0.252
215.4798	0.2561
215.6965	0.2432
215.9133	0.2196
216.1301	0.237
216.3469	0.253
216.5636	0.2309
216.7803	0.2328
216.9971	0.2345
217.2138	0.2512
217.4305	0.2293
217.6472	0.2386
217.8639	0.2594
218.0805	0.249
218.2972	0.2478
218.5138	0.2501
218.7305	0.2439
218.9471	0.2455
219.1637	0.2671
219.3803	0.2514
219.5969	0.2503
219.8135	0.2516
220.0301	0.2463
220.2466	0.2561
220.4632	0.25
220.6797	0.2558
220.8962	0.2629
221.1127	0.2549
221.3292	0.2549
221.5457	0.273
221.7622	0.2581
221.9787	0.2687
222.1951	0.2634
222.4116	0.2718
222.628	0.2778
222.8444	0.2723
223.0608	0.2682
223.2772	0.2899
223.4936	0.2719
223.71	0.2854
223.9264	0.2778
224.1427	0.2856
224.3591	0.2837
224.5754	0.289
224.7917	0.2955
225.008	0.2867
225.2243	0.3026
225.4406	0.2925
225.6569	0.3083
225.8732	0.3006
226.0894	0.3105
226.3057	0.3001
226.5219	0.3132
226.7381	0.3159
226.9543	0.3091
227.1705	0.314
227.3867	0.3275
227.6029	0.3209
227.8191	0.3335
228.0352	0.3373
228.2513	0.345
228.4675	0.3362
228.6836	0.3413
228.8997	0.3438
229.1158	0.3577
229.3319	0.3641
229.548	0.3502
229.764	0.3674
229.9801	0.3725
230.1961	0.3726
230.4121	0.3756
230.6282	0.3757
230.8442	0.3937
231.0602	0.3771
231.2761	0.386
231.4921	0.3984
231.7081	0.395
231.924	0.4025
232.14	0.4088
232.3559	0.4137
232.5718	0.416
232.7877	0.4205
233.0036	0.4098
233.2195	0.4227
233.4353	0.4224
233.6512	0.4209
233.867	0.4197
234.0829	0.4324
234.2987	0.4335
234.5145	0.44
234.7303	0.4339
234.9461	0.4373
235.1619	0.4463
235.3776	0.4331
235.5934	0.4343
235.8091	0.4401
236.0249	0.446
236.2406	0.4452
236.4563	0.4562
236.672	0.4376
236.8877	0.4517
237.1034	0.4509
237.319	0.4483
237.5347	0.447
237.7503	0.4545
237.966	0.4643
238.1816	0.4576
238.3972	0.4607
238.6128	0.4666
238.8284	0.4658
239.0439	0.4638
239.2595	0.4628
239.475	0.4684
239.6906	0.4596
239.9061	0.4595
240.1216	0.4599
240.3371	0.4671
240.5526	0.4666
240.7681	0.4622
240.9836	0.4542
241.199	0.4618
241.4145	0.4589
241.6299	0.4561
241.8453	0.4518
242.0607	0.4385
242.2761	0.4477
242.4915	0.4375
242.7069	0.4298
242.9223	0.4296
243.1376	0.4219
243.353	0.4101
243.5683	0.413
243.7836	0.396
243.9989	0.3948
244.2142	0.395
244.4295	0.3803
244.6448	0.3809
244.86	0.37
245.0753	0.3467
245.2905	0.3503
245.5057	0.3403
245.721	0.3406
245.9362	0.3395
246.1514	0.327
246.3665	0.3222
246.5817	0.3069
246.7969	0.3067
247.012	0.3032
247.2271	0.3045
247.4423	0.3008
247.6574	0.2837
247.8725	0.2792
248.0876	0.2786
248.3026	0.2738
248.5177	0.2638
248.7328	0.2634
248.9478	0.2601
249.1628	0.2565
249.3779	0.2481
249.5929	0.2415
249.8079	0.2446
250.0228	0.2356
250.2378	0.2422
250.4528	0.2318
250.6677	0.2337
250.8827	0.2222
251.0976	0.2145
251.3125	0.2241
251.5274	0.217
251.7423	0.2149
251.9572	0.2105
252.172	0.2097
252.3869	0.2116
252.6017	0.2121
252.8166	0.2069
253.0314	0.2009
253.2462	0.1993
253.461	0.1953
253.6758	0.1965
253.8906	0.202
254.1053	0.2002
254.3201	0.203
254.5348	0.1881
254.7496	0.1847
254.9643	0.1943
255.179	0.1937
255.3937	0.1971
255.6083	0.2019
255.823	0.1926
256.0377	0.1827
256.2523	0.1869
256.467	0.1923
256.6816	0.1861
256.8962	0.1928
257.1108	0.1871
257.3254	0.1785
257.54	0.1845
257.7545	0.189
257.9691	0.1878
258.1836	0.1806
258.3981	0.1794
258.6127	0.1787
258.8272	0.187
259.0417	0.1775
259.2561	0.181
259.4706	0.1779
259.6851	0.1841
259.8995	0.1839
260.114	0.1862
260.3284	0.1761
260.5428	0.1756
260.7572	0.1803
260.9716	0.1893
261.186	0.1817
261.4003	0.1851
261.6147	0.1895
261.829	0.1815
262.0433	0.1804
262.2577	0.1847
262.472	0.1873
262.6863	0.1882
262.9005	0.1769
263.1148	0.1844
263.3291	0.1849
263.5433	0.187
263.7576	0.1818
263.9718	0.182
264.186	0.1947
264.4002	0.1882
264.6144	0.1924
264.8286	0.1897
265.0427	0.1911
265.2569	0.1976
265.471	0.1929
265.6851	0.1927
265.8993	0.1883
266.1134	0.1945
266.3275	0.1967
266.5415	0.1907
266.7556	0.1976
266.9697	0.1932
267.1837	0.1899
267.3978	0.1959
267.6118	0.1899
267.8258	0.1978
268.0398	0.1914
268.2538	0.1889
268.4677	0.1945
268.6817	0.1878
268.8957	0.1828
269.1096	0.1801
269.3235	0.1916
269.5374	0.1888
269.7514	0.1857
269.9652	0.1918
270.1791	0.1794
270.393	0.1866
270.6068	0.1903
270.8207	0.1884
271.0345	0.185
271.2483	0.1818
271.4622	0.1929
271.676	0.1868
271.8897	0.1863
272.1035	0.1907
272.3173	0.1885
272.531	0.1855
272.7448	0.1856
272.9585	0.1841
273.1722	0.1845
273.3859	0.1889
273.5996	0.1881
273.8133	0.1931
274.0269	0.1861
274.2406	0.1887
274.4542	0.1906
274.6679	0.1981
274.8815	0.1968
275.0951	0.2001
275.3087	0.1961
275.5223	0.1938
275.7358	0.1953
275.9494	0.2005
276.1629	0.2006
276.3765	0.1957
276.59	0.194
276.8035	0.1974
277.017	0.2022
277.2305	0.1989
277.444	0.1998
277.6574	0.1956
277.8709	0.2081
278.0843	0.198
278.2978	0.2021
278.5112	0.205
278.7246	0.1932
278.938	0.1952
279.1513	0.2026
279.3647	0.1986
279.5781	0.2018
279.7914	0.1993
280.0047	0.1981
280.2181	0.1953
280.4314	0.2
280.6447	0.2032
280.8579	0.1939
281.0712	0.1975
281.2845	0.1948
281.4977	0.1905
281.711	0.2001
281.9242	0.193
282.1374	0.1945
282.3506	0.1939
282.5638	0.1941
282.7769	0.1938
282.9901	0.1922
283.2033	0.1921
283.4164	0.1908
283.6295	0.1909
283.8426	0.1904
284.0557	0.1968
284.2688	0.1934
284.4819	0.1884
284.695	0.1975
284.908	0.1924
285.1211	0.1918
285.3341	0.1893
285.5471	0.1934
285.7601	0.1946
285.9731	0.1927
286.1861	0.1958
286.3991	0.1963
286.612	0.1889
286.825	0.1887
287.0379	0.1991
287.2508	0.1897
287.4637	0.1942
287.6766	0.1911
287.8895	0.1942
288.1024	0.1962
288.3152	0.195
288.5281	0.1892
288.7409	0.1868
288.9538	0.191
289.1666	0.1905
289.3794	0.1921
289.5922	0.1816
289.8049	0.1924
290.0177	0.1904
290.2304	0.1925
290.4432	0.1949
290.6559	0.1896
290.8686	0.1906
291.0813	0.1917
291.294	0.1896
291.5067	0.1856
291.7194	0.1921
291.932	0.188
292.1447	0.1902
292.3573	0.1937
292.5699	0.1929
292.7825	0.1886
292.9951	0.1916
293.2077	0.1848
293.4203	0.1902
293.6328	0.1886
293.8454	0.1963
294.0579	0.1877
294.2704	0.193
294.4829	0.1926
294.6954	0.1923
294.9079	0.1874
295.1204	0.1878
295.3328	0.1963
295.5453	0.1903
295.7577	0.1951
295.9701	0.1896
296.1825	0.1927
296.3949	0.1919
296.6073	0.1873
296.8197	0.1889
297.0321	0.1922
297.2444	0.1859
297.4567	0.194
297.6691	0.1911
297.8814	0.1908
298.0937	0.194
298.306	0.189
298.5182	0.1957
298.7305	0.191
298.9428	0.1888
299.155	0.1818
299.3672	0.1965
299.5794	0.1916
299.7916	0.1941
300.0038	0.1917
300.216	0.1948
300.4282	0.1903
300.6403	0.1951
300.8525	0.1928
301.0646	0.1955
301.2767	0.1962
301.4888	0.188
301.7009	0.1951
301.913	0.1948
302.125	0.1891
302.3371	0.1851
302.5491	0.1953
302.7612	0.1942
302.9732	0.1954
303.1852	0.1881
303.3972	0.1917
303.6092	0.1954
303.8211	0.1913
304.0331	0.1937
304.245	0.1916
304.457	0.1923
304.6689	0.1902
304.8808	0.1922
305.0927	0.1926
305.3046	0.191
305.5164	0.1829
305.7283	0.1883
305.9401	0.1798
306.152	0.1858
306.3638	0.1839
306.5756	0.1817
306.7874	0.1752
306.9992	0.1791
307.2109	0.1751
307.4227	0.1728
307.6344	0.1773
307.8462	0.169
308.0579	0.1771
308.2696	0.1713
308.4813	0.1735
308.693	0.1648
308.9046	0.1718
309.1163	0.1618
309.328	0.1651
309.5396	0.1572
309.7512	0.1644
309.9628	0.1567
310.1744	0.1562
310.386	0.1496
310.5976	0.153
310.8091	0.1564
311.0207	0.1598
311.2322	0.1511
311.4437	0.1572
311.6552	0.1557
311.8667	0.1509
312.0782	0.1485
312.2897	0.1531
312.5012	0.1514
312.7126	0.1506
312.924	0.1506
313.1355	0.147
313.3469	0.1473
313.5583	0.1395
313.7696	0.1454
313.981	0.1502
314.1924	0.1441
314.4037	0.1456
314.6151	0.1377
314.8264	0.148
315.0377	0.1462
315.249	0.1503
315.4603	0.1373
315.6716	0.1431
315.8828	0.1369
316.0941	0.1435
316.3053	0.1401
316.5165	0.1418
316.7277	0.1359
316.9389	0.1371
317.1501	0.1446
317.3613	0.1352
317.5724	0.1407
317.7836	0.1324
317.9947	0.137
318.2058	0.1336
318.417	0.1361
318.6281	0.1378
318.8391	0.1368
319.0502	0.1369
319.2613	0.1349
319.4723	0.1379
319.6834	0.1373
319.8944	0.1324
320.1054	0.1423
320.3164	0.1347
320.5274	0.1351
320.7383	0.1352
320.9493	0.1371
321.1602	0.1375
321.3712	0.1441
321.5821	0.128
321.793	0.1429
322.0039	0.1325
322.2148	0.1384
322.4257	0.1337
322.6365	0.1349
322.8474	0.1415
323.0582	0.1383
323.269	0.1378
323.4798	0.1369
323.6906	0.1301
323.9014	0.1307
324.1122	0.1376
324.3229	0.1416
324.5337	0.1412
324.7444	0.1423
324.9551	0.1459
325.1658	0.1421
325.3765	0.1428
325.5872	0.1433
325.7979	0.1395
326.0085	0.1404
326.2192	0.1386
326.4298	0.1475
326.6404	0.1509
326.851	0.1425
327.0616	0.1485
327.2722	0.1501
327.4828	0.1477
327.6933	0.1498
327.9039	0.1461
328.1144	0.1478
328.3249	0.1502
328.5354	0.1461
328.7459	0.1427
328.9564	0.148
329.1669	0.152
329.3773	0.1529
329.5878	0.1472
329.7982	0.1511
330.0086	0.1505
330.219	0.1493
330.4294	0.1563
330.6398	0.1493
330.8502	0.1531
331.0605	0.1509
331.2708	0.1473
331.4812	0.1538
331.6915	0.151
331.9018	0.1576
332.1121	0.1589
332.3224	0.1534
332.5326	0.148
332.7429	0.1572
332.9531	0.1514
333.1633	0.1518
333.3735	0.1448
333.5837	0.1511
333.7939	0.1491
334.0041	0.1556
334.2143	0.1471
334.4244	0.1592
334.6346	0.1583
334.8447	0.1479
335.0548	0.1542
335.2649	0.156
335.475	0.1547
335.685	0.1531
335.8951	0.1512
336.1051	0.1505
336.3152	0.1545
336.5252	0.1494
336.7352	0.1507
336.9452	0.1562
337.1552	0.1541
337.3652	0.1527
337.5751	0.1567
337.7851	0.1543
337.995	0.1549
338.2049	0.1515
338.4148	0.1577
338.6247	0.157
338.8346	0.1512
339.0445	0.1519
339.2543	0.152
339.4642	0.1517
339.674	0.1495
339.8838	0.1542
340.0936	0.1531
340.3034	0.1536
340.5132	0.1521
340.7229	0.1575
340.9327	0.1671
341.1424	0.1539
341.3522	0.15
341.5619	0.1572
341.7716	0.1601
341.9813	0.1579
342.1909	0.1666
342.4006	0.1656
342.6102	0.1577
342.8199	0.1577
343.0295	0.1538
343.2391	0.1656
343.4487	0.1659
343.6583	0.1695
343.8679	0.17
344.0774	0.1658
344.287	0.1692
344.4965	0.1693
344.706	0.1738
344.9155	0.1666
345.125	0.1706
345.3345	0.173
345.544	0.1714
345.7534	0.1728
345.9629	0.1766
346.1723	0.1761
346.3817	0.176
346.5911	0.1837
346.8005	0.1772
347.0099	0.1766
347.2193	0.1836
347.4286	0.1834
347.638	0.1815
347.8473	0.1872
348.0566	0.1841
348.2659	0.1883
348.4752	0.1817
348.6845	0.1884
348.8937	0.182
349.103	0.1797
349.3122	0.18
349.5214	0.1855
349.7306	0.1904
349.9398	0.1857
350.149	0.1821
350.3582	0.1864
350.5674	0.1825
350.7765	0.1894
350.9856	0.1815
351.1948	0.1907
351.4039	0.1914
351.613	0.1832
351.822	0.1913
352.0311	0.1908
352.2402	0.1933
352.4492	0.1908
352.6582	0.187
352.8672	0.1944
353.0762	0.1965
353.2852	0.1896
353.4942	0.1885
353.7032	0.1889
353.9121	0.1874
354.1211	0.1905
354.33	0.1914
354.5389	0.1883
354.7478	0.19
354.9567	0.1826
355.1655	0.1923
355.3744	0.194
355.5833	0.1843
355.7921	0.1953
356.0009	0.1885
356.2097	0.1854
356.4185	0.1928
356.6273	0.1934
356.8361	0.1909
357.0448	0.1885
357.2536	0.1992
357.4623	0.1938
357.671	0.201
357.8797	0.1952
358.0884	0.1896
358.2971	0.1972
358.5057	0.1992
358.7144	0.1921
358.923	0.197
359.1316	0.2013
359.3402	0.1985
359.5488	0.1985
359.7574	0.2005
359.966	0.2001
360.1746	0.1963
360.3831	0.2014
360.5916	0.2045
360.8002	0.2096
361.0087	0.2028
361.2172	0.2039
361.4256	0.2072
361.6341	0.2157
361.8426	0.2124
362.051	0.2086
362.2594	0.1961
362.4678	0.2111
362.6762	0.2217
362.8846	0.2123
363.093	0.2124
363.3014	0.2229
363.5097	0.2111
363.718	0.2111
363.9264	0.2158
364.1347	0.2169
364.343	0.2176
364.5513	0.2163
364.7595	0.227
364.9678	0.2096
365.176	0.2291
365.3842	0.224
365.5925	0.2161
365.8007	0.2179
366.0089	0.2225
366.217	0.226
366.4252	0.2285
366.6333	0.2347
366.8415	0.2301
367.0496	0.2236
367.2577	0.23
367.4658	0.2232
367.6739	0.2227
367.882	0.2366
368.09	0.2248
368.2981	0.2287
368.5061	0.2408
368.7141	0.2316
368.9221	0.2413
369.1301	0.2281
369.3381	0.2319
369.5461	0.2361
369.754	0.2325
369.962	0.2355
370.1699	0.2427
370.3778	0.2508
370.5857	0.2422
370.7936	0.2438
371.0015	0.2393
371.2093	0.2326
371.4172	0.2382
371.625	0.2397
371.8328	0.2387
372.0406	0.2443
372.2484	0.2378
372.4562	0.2438
372.664	0.2411
372.8717	0.2446
373.0795	0.2543
373.2872	0.2519
373.4949	0.2522
373.7026	0.2414
373.9103	0.2377
374.118	0.2552
374.3256	0.2511
374.5333	0.2544
374.7409	0.2507
374.9485	0.2514
375.1561	0.253
375.3637	0.2513
375.5713	0.2616
375.7789	0.2557
375.9864	0.2532
376.194	0.2558
376.4015	0.2536
376.609	0.2568
376.8165	0.2622
377.024	0.2684
377.2315	0.2632
377.4389	0.2586
377.6464	0.2681
377.8538	0.2615
378.0612	0.2689
378.2686	0.2545
378.476	0.2754
378.6834	0.2651
378.8908	0.2657
379.0981	0.275
379.3055	0.2698
379.5128	0.2623
379.7201	0.2718
379.9274	0.2715
380.1347	0.2724
380.342	0.2765
380.5492	0.2732
380.7565	0.2702
380.9637	0.2756
381.1709	0.2678
381.3781	0.2786
381.5853	0.2663
381.7925	0.2776
381.9997	0.2771
382.2068	0.2747
382.4139	0.2824
382.6211	0.274
382.8282	0.2884
383.0353	0.2732
383.2424	0.2768
383.4494	0.2734
383.6565	0.2812
383.8635	0.2715
384.0706	0.2868
384.2776	0.2843
384.4846	0.2814
384.6916	0.2796
384.8986	0.2789
385.1055	0.283
385.3125	0.2792
385.5194	0.2752
385.7263	0.2788
385.9333	0.2798
386.1402	0.2795
386.347	0.2791
386.5539	0.2856
386.7608	0.2759
386.9676	0.2884
387.1744	0.2781
387.3813	0.2841
387.5881	0.2671
387.7948	0.2792
388.0016	0.2956
388.2084	0.2794
388.4151	0.2825
388.6219	0.2737
388.8286	0.283
389.0353	0.2825
389.242	0.2858
389.4487	0.287
389.6553	0.2734
389.862	0.2684
390.0686	0.2808
390.2753	0.281
390.4819	0.2797
390.6885	0.2697
390.8951	0.2739
391.1016	0.2713
391.3082	0.2637
391.5147	0.2604
391.7213	0.2611
391.9278	0.2623
392.1343	0.2675
392.3408	0.2677
392.5473	0.2687
392.7537	0.2607
392.9602	0.2588
393.1666	0.2565
393.373	0.2563
393.5794	0.2598
393.7858	0.2559
393.9922	0.256
394.1986	0.2611
394.4049	0.2526
394.6113	0.2546
394.8176	0.254
395.0239	0.2472
395.2302	0.2487
395.4365	0.2562
395.6428	0.2534
395.8491	0.2567
396.0553	0.252
396.2615	0.2452
396.4678	0.2553
396.674	0.2437
396.8802	0.2413
397.0863	0.2367
397.2925	0.2466
397.4987	0.2379
397.7048	0.2455
397.9109	0.2441
398.117	0.2375
398.3231	0.2409
398.5292	0.2338
398.7353	0.2359
398.9413	0.235
399.1474	0.2372
399.3534	0.2415
399.5594	0.2495
399.7654	0.2343
399.9714	0.2307
400.1774	0.232
400.3833	0.2394
400.5893	0.2372
400.7952	0.2392
401.0011	0.2365
401.207	0.2329
401.4129	0.2304
401.6188	0.2297
401.8247	0.2458
402.0305	0.2325
402.2364	0.2331
402.4422	0.243
402.648	0.2409
402.8538	0.2304
403.0596	0.2252
403.2654	0.2265
403.4711	0.2388
403.6768	0.2313
403.8826	0.2444
404.0883	0.2343
404.294	0.2306
404.4997	0.235
404.7054	0.2365
404.911	0.2306
405.1167	0.2352
405.3223	0.2299
405.5279	0.2348
405.7335	0.2288
405.9391	0.2294
406.1447	0.2384
406.3502	0.238
406.5558	0.2331
406.7613	0.2364
406.9668	0.2343
407.1724	0.2287
407.3778	0.2347
407.5833	0.2198
407.7888	0.2351
407.9942	0.2358
408.1997	0.2371
408.4051	0.2222
408.6105	0.2433
408.8159	0.2349
409.0213	0.2435
409.2267	0.2293
409.432	0.2379
409.6374	0.2381
409.8427	0.2389
410.048	0.2317
410.2533	0.2301
410.4586	0.2292
410.6639	0.2371
410.8691	0.221
411.0744	0.236
411.2796	0.2408
411.4848	0.2361
411.69	0.2336
411.8952	0.2303
412.1004	0.2354
412.3056	0.2215
412.5107	0.2325
412.7158	0.2419
412.921	0.2362
413.1261	0.2267
413.3312	0.2364
413.5362	0.237
413.7413	0.22
413.9464	0.2191
414.1514	0.2206
414.3564	0.241
414.5614	0.2371
414.7664	0.2344
414.9714	0.2235
415.1764	0.2311
415.3813	0.2272
415.5863	0.2319
415.7912	0.2194
415.9961	0.2273
416.201	0.2415
416.4059	0.228
416.6108	0.2325
416.8156	0.2223
417.0205	0.2234
417.2253	0.2278
417.4301	0.2382
417.6349	0.2263
417.8397	0.2164
418.0445	0.2302
418.2492	0.2227
418.454	0.2266
418.6587	0.2248
418.8634	0.2266
419.0681	0.2229
419.2728	0.2154
419.4775	0.2238
419.6822	0.2182
419.8868	0.2187
420.0915	0.2187
420.2961	0.2128
420.5007	0.2212
420.7053	0.221
420.9099	0.219
421.1144	0.2183
421.319	0.2102
421.5235	0.214
421.728	0.2213
421.9325	0.2149
422.137	0.2168
422.3415	0.2089
422.546	0.2043
422.7504	0.2114
422.9549	0.2147
423.1593	0.2054
423.3637	0.2076
423.5681	0.209
423.7725	0.2114
423.9769	0.2099
424.1812	0.1975
424.3856	0.1981
424.5899	0.204
424.7942	0.204
424.9985	0.1904
425.2028	0.2122
425.4071	0.206
425.6113	0.2024
425.8156	0.1908
426.0198	0.2025
426.224	0.2035
426.4282	0.185
426.6324	0.2056
426.8366	0.192
