Data from D4ACN5uM420nmA_Absorbance_14-37-09-538.txt Node
Date: Fri Feb 21 14:37:09 GMT 2025
User: LASERRRRR
Spectrometer: FLMT03099
Trigger mode: 0
Integration Time (sec): 1.500000E-2
Scans to average: 1
Electric dark correction enabled: true
Nonlinearity correction enabled: false
Boxcar width: 0
XAxis mode: Wavelengths
Number of Pixels in Spectrum: 3648
>>>>>Begin Spectral Data<<<<<
179.3399	-0.5337
179.5586	-0.5337
179.7771	-0.5337
179.9957	-0.0185
180.2143	-0
180.4329	2.5172
180.6514	-0
180.8699	0.1255
181.0885	-0
181.307	0.0755
181.5255	0.0921
181.744	-0
181.9625	0.2653
182.181	-0.3614
182.3994	0.2525
182.6179	-0
182.8363	-0
183.0547	-0.1351
183.2732	0.1303
183.4916	0.2971
183.71	0.415
183.9284	0.0779
184.1467	0.3354
184.3651	-0.0014
184.5835	0.2696
184.8018	0.3312
185.0201	0.1303
185.2385	0.2795
185.4568	0.1917
185.6751	0.1062
185.8934	0.4193
186.1117	-0.0754
186.3299	0.1027
186.5482	0.415
186.7664	0.0289
186.9847	0.1205
187.2029	0.077
187.4211	0.2148
187.6393	0.1581
187.8575	0.164
188.0757	0.4063
188.2939	0.0224
188.512	0.2481
188.7302	0.0733
188.9483	0.3043
189.1665	0.7419
189.3846	0.4609
189.6027	0.1518
189.8208	0.2062
190.0389	0.1781
190.257	0.1114
190.475	0.0834
190.6931	0.0658
190.9111	0.177
191.1292	-0.0055
191.3472	0.1081
191.5652	0.1129
191.7832	0.2204
192.0012	0.1191
192.2192	0.1699
192.4371	0.1765
192.6551	0.1074
192.873	0.0382
193.091	0.1366
193.3089	0.1222
193.5268	0.1797
193.7447	0.1584
193.9626	0.1996
194.1805	0.2113
194.3984	0.2211
194.6162	0.2911
194.8341	0.2994
195.0519	0.1969
195.2697	0.2835
195.4875	0.3059
195.7054	0.2549
195.9231	0.1907
196.1409	0.2796
196.3587	0.3699
196.5765	0.2619
196.7942	0.2959
197.012	0.3665
197.2297	0.2976
197.4474	0.3637
197.6651	0.3009
197.8828	0.2907
198.1005	0.445
198.3182	0.3863
198.5358	0.3377
198.7535	0.3852
198.9711	0.3874
199.1888	0.2904
199.4064	0.4006
199.624	0.3446
199.8416	0.354
200.0592	0.3863
200.2767	0.3739
200.4943	0.4119
200.7119	0.4133
200.9294	0.4336
201.1469	0.3708
201.3645	0.409
201.582	0.357
201.7995	0.3912
202.017	0.4026
202.2344	0.3878
202.4519	0.3775
202.6694	0.3682
202.8868	0.3663
203.1042	0.3977
203.3217	0.3765
203.5391	0.3798
203.7565	0.3456
203.9739	0.3917
204.1913	0.3377
204.4086	0.3545
204.626	0.3653
204.8433	0.3406
205.0607	0.3172
205.278	0.3367
205.4953	0.3155
205.7126	0.334
205.9299	0.2953
206.1472	0.3092
206.3644	0.317
206.5817	0.2958
206.7989	0.3399
207.0162	0.2946
207.2334	0.3142
207.4506	0.2861
207.6678	0.2893
207.885	0.2958
208.1022	0.3117
208.3194	0.2837
208.5365	0.2781
208.7537	0.286
208.9708	0.2899
209.1879	0.2903
209.405	0.2708
209.6222	0.2652
209.8392	0.2867
210.0563	0.2771
210.2734	0.2527
210.4905	0.2747
210.7075	0.2716
210.9245	0.2507
211.1416	0.2594
211.3586	0.2606
211.5756	0.2353
211.7926	0.2505
212.0096	0.2545
212.2265	0.2443
212.4435	0.2386
212.6604	0.2398
212.8774	0.2238
213.0943	0.2449
213.3112	0.2412
213.5281	0.2483
213.745	0.224
213.9619	0.2505
214.1788	0.2293
214.3956	0.235
214.6125	0.246
214.8293	0.2397
215.0461	0.2431
215.2629	0.2472
215.4798	0.233
215.6965	0.2328
215.9133	0.2123
216.1301	0.2224
216.3469	0.2336
216.5636	0.2387
216.7803	0.2341
216.9971	0.2544
217.2138	0.2437
217.4305	0.2396
217.6472	0.2394
217.8639	0.2376
218.0805	0.2471
218.2972	0.248
218.5138	0.2589
218.7305	0.2394
218.9471	0.2371
219.1637	0.2654
219.3803	0.2468
219.5969	0.2349
219.8135	0.2545
220.0301	0.243
220.2466	0.2426
220.4632	0.2426
220.6797	0.2543
220.8962	0.2425
221.1127	0.2678
221.3292	0.2556
221.5457	0.2641
221.7622	0.2497
221.9787	0.2672
222.1951	0.2595
222.4116	0.2676
222.628	0.2849
222.8444	0.2733
223.0608	0.2659
223.2772	0.2603
223.4936	0.2673
223.71	0.2772
223.9264	0.2872
224.1427	0.2717
224.3591	0.2756
224.5754	0.2781
224.7917	0.2798
225.008	0.2947
225.2243	0.2944
225.4406	0.2869
225.6569	0.2956
225.8732	0.3162
226.0894	0.3028
226.3057	0.3089
226.5219	0.3067
226.7381	0.3173
226.9543	0.3051
227.1705	0.3142
227.3867	0.3169
227.6029	0.3208
227.8191	0.3334
228.0352	0.3354
228.2513	0.3468
228.4675	0.3335
228.6836	0.3523
228.8997	0.3396
229.1158	0.3533
229.3319	0.3531
229.548	0.3519
229.764	0.3624
229.9801	0.37
230.1961	0.3788
230.4121	0.3621
230.6282	0.3798
230.8442	0.4027
231.0602	0.3852
231.2761	0.3797
231.4921	0.3892
231.7081	0.3906
231.924	0.3966
232.14	0.393
232.3559	0.4105
232.5718	0.4126
232.7877	0.4133
233.0036	0.4045
233.2195	0.4117
233.4353	0.4251
233.6512	0.4233
233.867	0.4251
234.0829	0.4204
234.2987	0.4303
234.5145	0.4397
234.7303	0.4313
234.9461	0.4438
235.1619	0.434
235.3776	0.4408
235.5934	0.4404
235.8091	0.4343
236.0249	0.4468
236.2406	0.4423
236.4563	0.4454
236.672	0.4406
236.8877	0.4502
237.1034	0.4422
237.319	0.4511
237.5347	0.4476
237.7503	0.4493
237.966	0.4641
238.1816	0.4474
238.3972	0.4564
238.6128	0.4644
238.8284	0.4684
239.0439	0.4635
239.2595	0.4553
239.475	0.4602
239.6906	0.4653
239.9061	0.4597
240.1216	0.4541
240.3371	0.4646
240.5526	0.4442
240.7681	0.4638
240.9836	0.4564
241.199	0.4513
241.4145	0.4526
241.6299	0.4536
241.8453	0.4508
242.0607	0.4553
242.2761	0.4399
242.4915	0.4311
242.7069	0.4328
242.9223	0.4391
243.1376	0.4154
243.353	0.4209
243.5683	0.4132
243.7836	0.4063
243.9989	0.3932
244.2142	0.3901
244.4295	0.3853
244.6448	0.3885
244.86	0.3672
245.0753	0.356
245.2905	0.3592
245.5057	0.3481
245.721	0.3502
245.9362	0.3361
246.1514	0.3398
246.3665	0.3218
246.5817	0.3186
246.7969	0.3132
247.012	0.3078
247.2271	0.302
247.4423	0.2945
247.6574	0.299
247.8725	0.2806
248.0876	0.2886
248.3026	0.2702
248.5177	0.2705
248.7328	0.2637
248.9478	0.2638
249.1628	0.2503
249.3779	0.2445
249.5929	0.241
249.8079	0.2417
250.0228	0.238
250.2378	0.2349
250.4528	0.2334
250.6677	0.2366
250.8827	0.2225
251.0976	0.2218
251.3125	0.2217
251.5274	0.222
251.7423	0.2146
251.9572	0.2104
252.172	0.2076
252.3869	0.2135
252.6017	0.2059
252.8166	0.2045
253.0314	0.1945
253.2462	0.2
253.461	0.203
253.6758	0.2002
253.8906	0.1951
254.1053	0.2015
254.3201	0.2
254.5348	0.184
254.7496	0.1917
254.9643	0.1881
255.179	0.1892
255.3937	0.1875
255.6083	0.1907
255.823	0.1882
256.0377	0.1924
256.2523	0.19
256.467	0.1894
256.6816	0.1843
256.8962	0.1865
257.1108	0.1916
257.3254	0.1828
257.54	0.1741
257.7545	0.1861
257.9691	0.1879
258.1836	0.1812
258.3981	0.1883
258.6127	0.1763
258.8272	0.1847
259.0417	0.1772
259.2561	0.1817
259.4706	0.1813
259.6851	0.1824
259.8995	0.179
260.114	0.1827
260.3284	0.1808
260.5428	0.1833
260.7572	0.1801
260.9716	0.1914
261.186	0.1865
261.4003	0.1808
261.6147	0.1822
261.829	0.1787
262.0433	0.1886
262.2577	0.1832
262.472	0.1834
262.6863	0.1863
262.9005	0.186
263.1148	0.1837
263.3291	0.1855
263.5433	0.1892
263.7576	0.1912
263.9718	0.191
264.186	0.1938
264.4002	0.1966
264.6144	0.2038
264.8286	0.1947
265.0427	0.1933
265.2569	0.1926
265.471	0.1969
265.6851	0.2011
265.8993	0.191
266.1134	0.2005
266.3275	0.1972
266.5415	0.2016
266.7556	0.2012
266.9697	0.195
267.1837	0.2005
267.3978	0.2037
267.6118	0.1934
267.8258	0.1982
268.0398	0.1997
268.2538	0.1978
268.4677	0.1973
268.6817	0.1964
268.8957	0.1896
269.1096	0.1872
269.3235	0.1927
269.5374	0.195
269.7514	0.2005
269.9652	0.1916
270.1791	0.1932
270.393	0.195
270.6068	0.195
270.8207	0.1941
271.0345	0.1968
271.2483	0.186
271.4622	0.1944
271.676	0.1961
271.8897	0.1957
272.1035	0.1997
272.3173	0.1948
272.531	0.1939
272.7448	0.1912
272.9585	0.1907
273.1722	0.1893
273.3859	0.2022
273.5996	0.2015
273.8133	0.2091
274.0269	0.1974
274.2406	0.1992
274.4542	0.1982
274.6679	0.2052
274.8815	0.2011
275.0951	0.2053
275.3087	0.2096
275.5223	0.2074
275.7358	0.2086
275.9494	0.209
276.1629	0.2126
276.3765	0.2079
276.59	0.2041
276.8035	0.2055
277.017	0.2146
277.2305	0.2142
277.444	0.2188
277.6574	0.2144
277.8709	0.2239
278.0843	0.2184
278.2978	0.2174
278.5112	0.2146
278.7246	0.2134
278.938	0.2165
279.1513	0.2148
279.3647	0.2103
279.5781	0.2148
279.7914	0.2013
280.0047	0.2098
280.2181	0.2095
280.4314	0.208
280.6447	0.2057
280.8579	0.1986
281.0712	0.2022
281.2845	0.1971
281.4977	0.2063
281.711	0.2007
281.9242	0.2008
282.1374	0.1991
282.3506	0.198
282.5638	0.1969
282.7769	0.1886
282.9901	0.1939
283.2033	0.1963
283.4164	0.1942
283.6295	0.1949
283.8426	0.1952
284.0557	0.1973
284.2688	0.1981
284.4819	0.1911
284.695	0.2002
284.908	0.1916
285.1211	0.1881
285.3341	0.1865
285.5471	0.1969
285.7601	0.1922
285.9731	0.1898
286.1861	0.1934
286.3991	0.189
286.612	0.1927
286.825	0.196
287.0379	0.1874
287.2508	0.1858
287.4637	0.1857
287.6766	0.1858
287.8895	0.1861
288.1024	0.1939
288.3152	0.1897
288.5281	0.1884
288.7409	0.1907
288.9538	0.1872
289.1666	0.1864
289.3794	0.1835
289.5922	0.1872
289.8049	0.1847
290.0177	0.1882
290.2304	0.1902
290.4432	0.1877
290.6559	0.1891
290.8686	0.1926
291.0813	0.1842
291.294	0.1867
291.5067	0.1844
291.7194	0.1867
291.932	0.1814
292.1447	0.1865
292.3573	0.189
292.5699	0.1899
292.7825	0.1806
292.9951	0.1835
293.2077	0.1863
293.4203	0.1844
293.6328	0.1912
293.8454	0.1851
294.0579	0.1828
294.2704	0.1906
294.4829	0.1848
294.6954	0.1836
294.9079	0.186
295.1204	0.1849
295.3328	0.1914
295.5453	0.1865
295.7577	0.1825
295.9701	0.1871
296.1825	0.1848
296.3949	0.1884
296.6073	0.1829
296.8197	0.1875
297.0321	0.1845
297.2444	0.1853
297.4567	0.1902
297.6691	0.1859
297.8814	0.1862
298.0937	0.181
298.306	0.1882
298.5182	0.1831
298.7305	0.1882
298.9428	0.1823
299.155	0.1771
299.3672	0.1836
299.5794	0.1876
299.7916	0.1862
300.0038	0.189
300.216	0.1875
300.4282	0.1822
300.6403	0.1877
300.8525	0.18
301.0646	0.1902
301.2767	0.1897
301.4888	0.1811
301.7009	0.186
301.913	0.186
302.125	0.1854
302.3371	0.1877
302.5491	0.1864
302.7612	0.1941
302.9732	0.1863
303.1852	0.1863
303.3972	0.1918
303.6092	0.1854
303.8211	0.1872
304.0331	0.182
304.245	0.1841
304.457	0.1882
304.6689	0.1821
304.8808	0.179
305.0927	0.1813
305.3046	0.1839
305.5164	0.1774
305.7283	0.1785
305.9401	0.1688
306.152	0.1704
306.3638	0.1827
306.5756	0.1822
306.7874	0.1739
306.9992	0.171
307.2109	0.172
307.4227	0.1706
307.6344	0.1764
307.8462	0.1702
308.0579	0.1735
308.2696	0.1675
308.4813	0.1711
308.693	0.1649
308.9046	0.1695
309.1163	0.1695
309.328	0.1611
309.5396	0.1609
309.7512	0.1571
309.9628	0.1589
310.1744	0.1578
310.386	0.1552
310.5976	0.1556
310.8091	0.1603
311.0207	0.1592
311.2322	0.1516
311.4437	0.1516
311.6552	0.1534
311.8667	0.1539
312.0782	0.152
312.2897	0.1551
312.5012	0.1559
312.7126	0.1488
312.924	0.1481
313.1355	0.1538
313.3469	0.1498
313.5583	0.1494
313.7696	0.1432
313.981	0.1542
314.1924	0.1474
314.4037	0.1465
314.6151	0.1432
314.8264	0.1529
315.0377	0.1438
315.249	0.1478
315.4603	0.145
315.6716	0.1451
315.8828	0.1458
316.0941	0.1478
316.3053	0.1379
316.5165	0.1477
316.7277	0.1418
316.9389	0.1494
317.1501	0.1446
317.3613	0.1456
317.5724	0.1407
317.7836	0.1433
317.9947	0.1429
318.2058	0.1476
318.417	0.1417
318.6281	0.1433
318.8391	0.1512
319.0502	0.1377
319.2613	0.145
319.4723	0.1388
319.6834	0.1476
319.8944	0.1406
320.1054	0.1409
320.3164	0.1372
320.5274	0.1384
320.7383	0.1416
320.9493	0.1418
321.1602	0.1466
321.3712	0.1402
321.5821	0.1383
321.793	0.1448
322.0039	0.1483
322.2148	0.1493
322.4257	0.1401
322.6365	0.1424
322.8474	0.141
323.0582	0.1483
323.269	0.1481
323.4798	0.144
323.6906	0.1397
323.9014	0.1349
324.1122	0.1389
324.3229	0.1453
324.5337	0.1487
324.7444	0.148
324.9551	0.1442
325.1658	0.1486
325.3765	0.1485
325.5872	0.1506
325.7979	0.1483
326.0085	0.1427
326.2192	0.1447
326.4298	0.1503
326.6404	0.1536
326.851	0.1465
327.0616	0.1471
327.2722	0.1539
327.4828	0.1529
327.6933	0.1578
327.9039	0.1568
328.1144	0.1564
328.3249	0.1545
328.5354	0.1511
328.7459	0.1548
328.9564	0.1566
329.1669	0.162
329.3773	0.158
329.5878	0.1547
329.7982	0.1626
330.0086	0.1599
330.219	0.1574
330.4294	0.1627
330.6398	0.1551
330.8502	0.1647
331.0605	0.1624
331.2708	0.1545
331.4812	0.1628
331.6915	0.1606
331.9018	0.1662
332.1121	0.1665
332.3224	0.1541
332.5326	0.1562
332.7429	0.1611
332.9531	0.1652
333.1633	0.1594
333.3735	0.158
333.5837	0.1609
333.7939	0.1601
334.0041	0.1593
334.2143	0.1525
334.4244	0.165
334.6346	0.1638
334.8447	0.1564
335.0548	0.1659
335.2649	0.1621
335.475	0.163
335.685	0.1632
335.8951	0.1592
336.1051	0.1584
336.3152	0.1579
336.5252	0.1543
336.7352	0.159
336.9452	0.1603
337.1552	0.1637
337.3652	0.1551
337.5751	0.1565
337.7851	0.1544
337.995	0.158
338.2049	0.1535
338.4148	0.1568
338.6247	0.1603
338.8346	0.1605
339.0445	0.1578
339.2543	0.1585
339.4642	0.1534
339.674	0.1547
339.8838	0.1574
340.0936	0.1637
340.3034	0.156
340.5132	0.1599
340.7229	0.1621
340.9327	0.1688
341.1424	0.1603
341.3522	0.1529
341.5619	0.1672
341.7716	0.167
341.9813	0.1645
342.1909	0.16
342.4006	0.1616
342.6102	0.1658
342.8199	0.1609
343.0295	0.1599
343.2391	0.1662
343.4487	0.1691
343.6583	0.1744
343.8679	0.1697
344.0774	0.1655
344.287	0.1678
344.4965	0.1761
344.706	0.179
344.9155	0.1773
345.125	0.1745
345.3345	0.1785
345.544	0.1769
345.7534	0.1742
345.9629	0.1802
346.1723	0.1909
346.3817	0.1863
346.5911	0.1877
346.8005	0.191
347.0099	0.1853
347.2193	0.1919
347.4286	0.1887
347.638	0.1873
347.8473	0.1941
348.0566	0.192
348.2659	0.1896
348.4752	0.1889
348.6845	0.1935
348.8937	0.1893
349.103	0.1844
349.3122	0.1951
349.5214	0.1917
349.7306	0.2023
349.9398	0.192
350.149	0.1867
350.3582	0.1967
350.5674	0.1928
350.7765	0.196
350.9856	0.1882
351.1948	0.1917
351.4039	0.1933
351.613	0.192
351.822	0.2014
352.0311	0.1937
352.2402	0.1912
352.4492	0.1921
352.6582	0.1931
352.8672	0.1921
353.0762	0.1925
353.2852	0.1971
353.4942	0.1971
353.7032	0.1827
353.9121	0.1961
354.1211	0.1944
354.33	0.1922
354.5389	0.1848
354.7478	0.1861
354.9567	0.1855
355.1655	0.1898
355.3744	0.1836
355.5833	0.1882
355.7921	0.1899
356.0009	0.1834
356.2097	0.1781
356.4185	0.1839
356.6273	0.1851
356.8361	0.1854
357.0448	0.1845
357.2536	0.1905
357.4623	0.1866
357.671	0.1929
357.8797	0.1892
358.0884	0.192
358.2971	0.1885
358.5057	0.1917
358.7144	0.1954
358.923	0.1959
359.1316	0.1977
359.3402	0.1919
359.5488	0.1868
359.7574	0.1943
359.966	0.1856
360.1746	0.191
360.3831	0.1972
360.5916	0.1966
360.8002	0.2012
361.0087	0.194
361.2172	0.194
361.4256	0.1868
361.6341	0.1909
361.8426	0.2001
362.051	0.2012
362.2594	0.1889
362.4678	0.1974
362.6762	0.202
362.8846	0.1983
363.093	0.1996
363.3014	0.2052
363.5097	0.1995
363.718	0.212
363.9264	0.2107
364.1347	0.205
364.343	0.2023
364.5513	0.2031
364.7595	0.214
364.9678	0.2085
365.176	0.203
365.3842	0.2067
365.5925	0.202
365.8007	0.2036
366.0089	0.2163
366.217	0.2049
366.4252	0.2039
366.6333	0.2132
366.8415	0.2131
367.0496	0.2102
367.2577	0.2158
367.4658	0.206
367.6739	0.2078
367.882	0.2216
368.09	0.211
368.2981	0.219
368.5061	0.2214
368.7141	0.2084
368.9221	0.2217
369.1301	0.2139
369.3381	0.2225
369.5461	0.2205
369.754	0.2222
369.962	0.2222
370.1699	0.2239
370.3778	0.2242
370.5857	0.2149
370.7936	0.2211
371.0015	0.2271
371.2093	0.2285
371.4172	0.2197
371.625	0.2301
371.8328	0.2238
372.0406	0.2219
372.2484	0.219
372.4562	0.2316
372.664	0.2281
372.8717	0.2319
373.0795	0.2295
373.2872	0.2373
373.4949	0.236
373.7026	0.2271
373.9103	0.2286
374.118	0.236
374.3256	0.2417
374.5333	0.225
374.7409	0.2255
374.9485	0.2323
375.1561	0.2373
375.3637	0.2365
375.5713	0.2359
375.7789	0.236
375.9864	0.2375
376.194	0.2424
376.4015	0.2343
376.609	0.2391
376.8165	0.2361
377.024	0.2389
377.2315	0.2401
377.4389	0.234
377.6464	0.248
377.8538	0.2373
378.0612	0.2428
378.2686	0.2486
378.476	0.2455
378.6834	0.2461
378.8908	0.2465
379.0981	0.2454
379.3055	0.2471
379.5128	0.2402
379.7201	0.2443
379.9274	0.2419
380.1347	0.2445
380.342	0.2521
380.5492	0.2424
380.7565	0.2477
380.9637	0.248
381.1709	0.2527
381.3781	0.2495
381.5853	0.2366
381.7925	0.2449
381.9997	0.2575
382.2068	0.2492
382.4139	0.2527
382.6211	0.2421
382.8282	0.266
383.0353	0.2517
383.2424	0.2559
383.4494	0.2545
383.6565	0.2534
383.8635	0.2526
384.0706	0.256
384.2776	0.2511
384.4846	0.2573
384.6916	0.2614
384.8986	0.2616
385.1055	0.2644
385.3125	0.2559
385.5194	0.2605
385.7263	0.2494
385.9333	0.2531
386.1402	0.2473
386.347	0.2493
386.5539	0.2525
386.7608	0.2602
386.9676	0.2592
387.1744	0.2515
387.3813	0.26
387.5881	0.2445
387.7948	0.2604
388.0016	0.2726
388.2084	0.2521
388.4151	0.2474
388.6219	0.2478
388.8286	0.2501
389.0353	0.2478
389.242	0.2557
389.4487	0.2408
389.6553	0.2519
389.862	0.2457
390.0686	0.2567
390.2753	0.2437
390.4819	0.2523
390.6885	0.2485
390.8951	0.2428
391.1016	0.2475
391.3082	0.2493
391.5147	0.2357
391.7213	0.2438
391.9278	0.234
392.1343	0.2393
392.3408	0.2373
392.5473	0.2403
392.7537	0.2345
392.9602	0.2321
393.1666	0.2319
393.373	0.2285
393.5794	0.2382
393.7858	0.235
393.9922	0.2302
394.1986	0.2283
394.4049	0.2326
394.6113	0.2347
394.8176	0.2357
395.0239	0.2298
395.2302	0.2322
395.4365	0.2362
395.6428	0.2304
395.8491	0.2253
396.0553	0.2121
396.2615	0.229
396.4678	0.2322
396.674	0.2228
396.8802	0.2255
397.0863	0.2181
397.2925	0.2214
397.4987	0.2166
397.7048	0.2193
397.9109	0.2154
398.117	0.2214
398.3231	0.2194
398.5292	0.2089
398.7353	0.2104
398.9413	0.2194
399.1474	0.2165
399.3534	0.2105
399.5594	0.2285
399.7654	0.2094
399.9714	0.2218
400.1774	0.2088
400.3833	0.2137
400.5893	0.2097
400.7952	0.2187
401.0011	0.2174
401.207	0.2104
401.4129	0.2159
401.6188	0.2174
401.8247	0.2285
402.0305	0.2118
402.2364	0.2218
402.4422	0.2186
402.648	0.2124
402.8538	0.2125
403.0596	0.2094
403.2654	0.2089
403.4711	0.2112
403.6768	0.2069
403.8826	0.2096
404.0883	0.2109
404.294	0.2116
404.4997	0.2108
404.7054	0.2151
404.911	0.2123
405.1167	0.2046
405.3223	0.2061
405.5279	0.222
405.7335	0.2075
405.9391	0.2099
406.1447	0.2099
406.3502	0.2172
406.5558	0.2053
406.7613	0.2076
406.9668	0.2155
407.1724	0.2122
407.3778	0.2086
407.5833	0.2041
407.7888	0.2138
407.9942	0.2091
408.1997	0.2187
408.4051	0.2132
408.6105	0.2089
408.8159	0.2129
409.0213	0.2096
409.2267	0.2137
409.432	0.2073
409.6374	0.2071
409.8427	0.2176
410.048	0.2069
410.2533	0.2156
410.4586	0.2015
410.6639	0.2165
410.8691	0.2056
411.0744	0.207
411.2796	0.2154
411.4848	0.2127
411.69	0.2027
411.8952	0.2004
412.1004	0.2142
412.3056	0.2088
412.5107	0.2072
412.7158	0.213
412.921	0.2065
413.1261	0.2126
413.3312	0.2149
413.5362	0.2239
413.7413	0.201
413.9464	0.1986
414.1514	0.2059
414.3564	0.2067
414.5614	0.2081
414.7664	0.1983
414.9714	0.2093
415.1764	0.2155
415.3813	0.1995
415.5863	0.2125
415.7912	0.2017
415.9961	0.1932
416.201	0.2098
416.4059	0.2055
416.6108	0.2042
416.8156	0.2084
417.0205	0.2035
417.2253	0.2042
417.4301	0.2069
417.6349	0.1958
417.8397	0.1996
418.0445	0.1936
418.2492	0.201
418.454	0.1982
418.6587	0.1961
418.8634	0.2064
419.0681	0.1988
419.2728	0.2055
419.4775	0.2021
419.6822	0.1974
419.8868	0.1958
420.0915	0.1926
420.2961	0.1885
420.5007	0.2
420.7053	0.1891
420.9099	0.1949
421.1144	0.1942
421.319	0.1903
421.5235	0.1852
421.728	0.1957
421.9325	0.1904
422.137	0.1909
422.3415	0.1921
422.546	0.1847
422.7504	0.1885
422.9549	0.1956
423.1593	0.1873
423.3637	0.1923
423.5681	0.1949
423.7725	0.193
423.9769	0.1928
424.1812	0.1871
424.3856	0.1713
424.5899	0.1722
424.7942	0.1839
424.9985	0.1807
425.2028	0.1864
425.4071	0.1756
425.6113	0.1866
425.8156	0.175
426.0198	0.1838
426.224	0.1807
426.4282	0.1806
426.6324	0.1817
426.8366	0.1764
