Data from D4ACN5uM420nmA_Absorbance_14-37-09-233.txt Node
Date: Fri Feb 21 14:37:09 GMT 2025
User: LASERRRRR
Spectrometer: FLMT03099
Trigger mode: 0
Integration Time (sec): 1.500000E-2
Scans to average: 1
Electric dark correction enabled: true
Nonlinearity correction enabled: false
Boxcar width: 0
XAxis mode: Wavelengths
Number of Pixels in Spectrum: 3648
>>>>>Begin Spectral Data<<<<<
179.3399	-0.0538
179.5586	-0.0538
179.7771	-0.0538
179.9957	-0.1009
180.2143	-1.1139
180.4329	-0
180.6514	-0
180.8699	0.3292
181.0885	-0
181.307	0.2588
181.5255	0.0957
181.744	-0.1099
181.9625	0.7259
182.181	0.1661
182.3994	-0.5015
182.6179	-0.4641
182.8363	-0
183.0547	0.275
183.2732	0.0963
183.4916	0.2456
183.71	0.3416
183.9284	0.0379
184.1467	-0
184.3651	0.031
184.5835	0.172
184.8018	-0.0037
185.0201	0.3147
185.2385	0.2018
185.4568	0.1934
185.6751	0.1998
185.8934	0.154
186.1117	0.292
186.3299	0.104
186.5482	0.0945
186.7664	0.1312
186.9847	0.322
187.2029	-0.0042
187.4211	0.1879
187.6393	0.5165
187.8575	0.194
188.0757	0.4285
188.2939	0.0757
188.512	0.2102
188.7302	0.2297
188.9483	0.3963
189.1665	0.3755
189.3846	0.0402
189.6027	0.12
189.8208	0.3167
190.0389	0.1671
190.257	0.0264
190.475	-0.0577
190.6931	0.0286
190.9111	0.255
191.1292	0.09
191.3472	0.0632
191.5652	0.1187
191.7832	0.1754
192.0012	0.1732
192.2192	0.0894
192.4371	0.0914
192.6551	0.1942
192.873	0.166
193.091	0.0793
193.3089	0.2269
193.5268	0.2212
193.7447	0.1313
193.9626	0.1523
194.1805	0.1587
194.3984	0.1606
194.6162	0.2533
194.8341	0.2362
195.0519	0.2295
195.2697	0.2341
195.4875	0.3004
195.7054	0.2745
195.9231	0.2298
196.1409	0.2863
196.3587	0.3046
196.5765	0.3027
196.7942	0.3216
197.012	0.4171
197.2297	0.2915
197.4474	0.3492
197.6651	0.3279
197.8828	0.3305
198.1005	0.4519
198.3182	0.3674
198.5358	0.3518
198.7535	0.4039
198.9711	0.3478
199.1888	0.3247
199.4064	0.4302
199.624	0.4018
199.8416	0.3386
200.0592	0.3767
200.2767	0.3851
200.4943	0.4418
200.7119	0.4046
200.9294	0.4206
201.1469	0.4504
201.3645	0.502
201.582	0.4002
201.7995	0.3969
202.017	0.3911
202.2344	0.4112
202.4519	0.4222
202.6694	0.3776
202.8868	0.3909
203.1042	0.4106
203.3217	0.3435
203.5391	0.3887
203.7565	0.3285
203.9739	0.3629
204.1913	0.3416
204.4086	0.3598
204.626	0.3564
204.8433	0.3391
205.0607	0.3473
205.278	0.3312
205.4953	0.3152
205.7126	0.3161
205.9299	0.3157
206.1472	0.3405
206.3644	0.326
206.5817	0.3073
206.7989	0.3376
207.0162	0.2966
207.2334	0.306
207.4506	0.3042
207.6678	0.3032
207.885	0.2915
208.1022	0.3197
208.3194	0.3142
208.5365	0.2883
208.7537	0.3028
208.9708	0.2991
209.1879	0.2867
209.405	0.2702
209.6222	0.2594
209.8392	0.2889
210.0563	0.2804
210.2734	0.2717
210.4905	0.2663
210.7075	0.244
210.9245	0.2678
211.1416	0.278
211.3586	0.273
211.5756	0.2425
211.7926	0.2552
212.0096	0.2634
212.2265	0.2588
212.4435	0.2368
212.6604	0.2264
212.8774	0.2449
213.0943	0.2396
213.3112	0.2314
213.5281	0.2521
213.745	0.2322
213.9619	0.2331
214.1788	0.2558
214.3956	0.2538
214.6125	0.2343
214.8293	0.2382
215.0461	0.2444
215.2629	0.2478
215.4798	0.236
215.6965	0.2289
215.9133	0.2235
216.1301	0.2362
216.3469	0.2556
216.5636	0.2375
216.7803	0.2359
216.9971	0.2354
217.2138	0.2444
217.4305	0.2444
217.6472	0.2302
217.8639	0.2356
218.0805	0.2493
218.2972	0.2156
218.5138	0.243
218.7305	0.2378
218.9471	0.231
219.1637	0.2503
219.3803	0.2432
219.5969	0.2453
219.8135	0.252
220.0301	0.2522
220.2466	0.2645
220.4632	0.2516
220.6797	0.2467
220.8962	0.2513
221.1127	0.2519
221.3292	0.2663
221.5457	0.2709
221.7622	0.27
221.9787	0.2739
222.1951	0.2627
222.4116	0.2493
222.628	0.2641
222.8444	0.2839
223.0608	0.2735
223.2772	0.2802
223.4936	0.2772
223.71	0.2744
223.9264	0.2817
224.1427	0.2759
224.3591	0.2772
224.5754	0.2959
224.7917	0.2849
225.008	0.2875
225.2243	0.2908
225.4406	0.2859
225.6569	0.3034
225.8732	0.3003
226.0894	0.2995
226.3057	0.2995
226.5219	0.3051
226.7381	0.3134
226.9543	0.3038
227.1705	0.3096
227.3867	0.3175
227.6029	0.3325
227.8191	0.3298
228.0352	0.3355
228.2513	0.3532
228.4675	0.3418
228.6836	0.347
228.8997	0.3387
229.1158	0.3458
229.3319	0.3596
229.548	0.3497
229.764	0.3599
229.9801	0.3689
230.1961	0.3706
230.4121	0.3751
230.6282	0.3786
230.8442	0.3929
231.0602	0.3823
231.2761	0.3827
231.4921	0.386
231.7081	0.3936
231.924	0.402
232.14	0.4002
232.3559	0.408
232.5718	0.4165
232.7877	0.4135
233.0036	0.4085
233.2195	0.4236
233.4353	0.4204
233.6512	0.4155
233.867	0.4373
234.0829	0.4275
234.2987	0.4296
234.5145	0.4384
234.7303	0.431
234.9461	0.4425
235.1619	0.434
235.3776	0.4428
235.5934	0.447
235.8091	0.4431
236.0249	0.4541
236.2406	0.4349
236.4563	0.4481
236.672	0.4478
236.8877	0.4456
237.1034	0.4507
237.319	0.4547
237.5347	0.4433
237.7503	0.4474
237.966	0.4644
238.1816	0.4448
238.3972	0.4577
238.6128	0.4619
238.8284	0.4666
239.0439	0.462
239.2595	0.47
239.475	0.4539
239.6906	0.4595
239.9061	0.466
240.1216	0.4626
240.3371	0.474
240.5526	0.4617
240.7681	0.4617
240.9836	0.4581
241.199	0.4599
241.4145	0.4559
241.6299	0.452
241.8453	0.4447
242.0607	0.4472
242.2761	0.4448
242.4915	0.4441
242.7069	0.4261
242.9223	0.4301
243.1376	0.4152
243.353	0.4169
243.5683	0.4093
243.7836	0.3977
243.9989	0.3917
244.2142	0.3848
244.4295	0.3892
244.6448	0.377
244.86	0.3659
245.0753	0.3633
245.2905	0.356
245.5057	0.3423
245.721	0.3487
245.9362	0.3442
246.1514	0.3309
246.3665	0.322
246.5817	0.313
246.7969	0.3107
247.012	0.3069
247.2271	0.2984
247.4423	0.2944
247.6574	0.2915
247.8725	0.2844
248.0876	0.275
248.3026	0.2749
248.5177	0.264
248.7328	0.2585
248.9478	0.2596
249.1628	0.2563
249.3779	0.2458
249.5929	0.2442
249.8079	0.2431
250.0228	0.2361
250.2378	0.2325
250.4528	0.2418
250.6677	0.2319
250.8827	0.2233
251.0976	0.2198
251.3125	0.2289
251.5274	0.2137
251.7423	0.2148
251.9572	0.2141
252.172	0.2104
252.3869	0.2078
252.6017	0.207
252.8166	0.2051
253.0314	0.2023
253.2462	0.2024
253.461	0.2011
253.6758	0.2011
253.8906	0.1956
254.1053	0.1972
254.3201	0.1981
254.5348	0.1884
254.7496	0.184
254.9643	0.1941
255.179	0.1885
255.3937	0.1881
255.6083	0.1989
255.823	0.1883
256.0377	0.186
256.2523	0.1885
256.467	0.1947
256.6816	0.1901
256.8962	0.1891
257.1108	0.1899
257.3254	0.1818
257.54	0.1867
257.7545	0.1895
257.9691	0.1849
258.1836	0.1755
258.3981	0.1872
258.6127	0.1772
258.8272	0.1887
259.0417	0.1804
259.2561	0.1754
259.4706	0.1814
259.6851	0.1848
259.8995	0.1803
260.114	0.1816
260.3284	0.1813
260.5428	0.1764
260.7572	0.1746
260.9716	0.1802
261.186	0.1814
261.4003	0.1836
261.6147	0.1794
261.829	0.1812
262.0433	0.1871
262.2577	0.1809
262.472	0.1897
262.6863	0.1828
262.9005	0.1872
263.1148	0.1842
263.3291	0.184
263.5433	0.1886
263.7576	0.1933
263.9718	0.1872
264.186	0.1897
264.4002	0.19
264.6144	0.1987
264.8286	0.1914
265.0427	0.198
265.2569	0.1955
265.471	0.1929
265.6851	0.194
265.8993	0.1914
266.1134	0.1922
266.3275	0.1982
266.5415	0.1985
266.7556	0.1978
266.9697	0.1987
267.1837	0.1945
267.3978	0.2042
267.6118	0.1918
267.8258	0.2012
268.0398	0.2007
268.2538	0.201
268.4677	0.1944
268.6817	0.1931
268.8957	0.1904
269.1096	0.1892
269.3235	0.1888
269.5374	0.1959
269.7514	0.1943
269.9652	0.194
270.1791	0.195
270.393	0.1902
270.6068	0.1888
270.8207	0.1913
271.0345	0.1903
271.2483	0.1894
271.4622	0.1896
271.676	0.1917
271.8897	0.1922
272.1035	0.1928
272.3173	0.1922
272.531	0.1883
272.7448	0.1925
272.9585	0.1882
273.1722	0.1856
273.3859	0.1954
273.5996	0.1924
273.8133	0.1979
274.0269	0.1962
274.2406	0.1935
274.4542	0.1952
274.6679	0.1967
274.8815	0.1989
275.0951	0.2106
275.3087	0.2066
275.5223	0.2076
275.7358	0.2031
275.9494	0.2047
276.1629	0.2105
276.3765	0.2072
276.59	0.2062
276.8035	0.2109
277.017	0.2116
277.2305	0.215
277.444	0.2097
277.6574	0.211
277.8709	0.2219
278.0843	0.2096
278.2978	0.2134
278.5112	0.2108
278.7246	0.2042
278.938	0.209
279.1513	0.2147
279.3647	0.205
279.5781	0.2077
279.7914	0.2092
280.0047	0.2013
280.2181	0.1983
280.4314	0.2076
280.6447	0.2004
280.8579	0.1993
281.0712	0.2072
281.2845	0.2008
281.4977	0.2038
281.711	0.199
281.9242	0.1948
282.1374	0.1988
282.3506	0.1966
282.5638	0.1982
282.7769	0.1877
282.9901	0.1932
283.2033	0.1929
283.4164	0.1916
283.6295	0.1979
283.8426	0.1912
284.0557	0.1937
284.2688	0.1994
284.4819	0.1884
284.695	0.2007
284.908	0.1932
285.1211	0.1951
285.3341	0.185
285.5471	0.193
285.7601	0.1905
285.9731	0.1911
286.1861	0.1906
286.3991	0.1966
286.612	0.1884
286.825	0.1892
287.0379	0.1937
287.2508	0.1908
287.4637	0.1866
287.6766	0.1849
287.8895	0.19
288.1024	0.1914
288.3152	0.1934
288.5281	0.1875
288.7409	0.1947
288.9538	0.184
289.1666	0.19
289.3794	0.1843
289.5922	0.1866
289.8049	0.186
290.0177	0.1933
290.2304	0.1854
290.4432	0.194
290.6559	0.1913
290.8686	0.1879
291.0813	0.1855
291.294	0.1913
291.5067	0.189
291.7194	0.1844
291.932	0.1882
292.1447	0.19
292.3573	0.189
292.5699	0.1852
292.7825	0.1784
292.9951	0.1876
293.2077	0.1826
293.4203	0.1846
293.6328	0.1875
293.8454	0.193
294.0579	0.1812
294.2704	0.1905
294.4829	0.186
294.6954	0.184
294.9079	0.1858
295.1204	0.1845
295.3328	0.1892
295.5453	0.1847
295.7577	0.1869
295.9701	0.1849
296.1825	0.1899
296.3949	0.1798
296.6073	0.1819
296.8197	0.1811
297.0321	0.1849
297.2444	0.1839
297.4567	0.1872
297.6691	0.1811
297.8814	0.1869
298.0937	0.1835
298.306	0.1809
298.5182	0.1918
298.7305	0.191
298.9428	0.1908
299.155	0.1807
299.3672	0.1858
299.5794	0.1855
299.7916	0.1821
300.0038	0.1912
300.216	0.1821
300.4282	0.185
300.6403	0.1908
300.8525	0.1922
301.0646	0.1851
301.2767	0.1912
301.4888	0.1891
301.7009	0.1929
301.913	0.1928
302.125	0.1891
302.3371	0.1868
302.5491	0.1913
302.7612	0.1914
302.9732	0.193
303.1852	0.1871
303.3972	0.1856
303.6092	0.19
303.8211	0.1848
304.0331	0.1833
304.245	0.1876
304.457	0.1874
304.6689	0.1851
304.8808	0.182
305.0927	0.1816
305.3046	0.1839
305.5164	0.1813
305.7283	0.1815
305.9401	0.174
306.152	0.1819
306.3638	0.1861
306.5756	0.182
306.7874	0.1775
306.9992	0.1752
307.2109	0.1736
307.4227	0.1719
307.6344	0.1736
307.8462	0.1721
308.0579	0.179
308.2696	0.168
308.4813	0.174
308.693	0.1628
308.9046	0.1694
309.1163	0.1649
309.328	0.1637
309.5396	0.1624
309.7512	0.1601
309.9628	0.1597
310.1744	0.1574
310.386	0.1518
310.5976	0.1574
310.8091	0.1583
311.0207	0.1539
311.2322	0.1517
311.4437	0.1541
311.6552	0.1567
311.8667	0.1565
312.0782	0.1499
312.2897	0.1541
312.5012	0.1488
312.7126	0.1496
312.924	0.1532
313.1355	0.1509
313.3469	0.1479
313.5583	0.1451
313.7696	0.1447
313.981	0.1502
314.1924	0.1452
314.4037	0.15
314.6151	0.1451
314.8264	0.1492
315.0377	0.1446
315.249	0.1462
315.4603	0.1348
315.6716	0.1419
315.8828	0.144
316.0941	0.1447
316.3053	0.1402
316.5165	0.1514
316.7277	0.1337
316.9389	0.1418
317.1501	0.145
317.3613	0.1373
317.5724	0.1421
317.7836	0.1385
317.9947	0.1349
318.2058	0.1377
318.417	0.14
318.6281	0.1391
318.8391	0.1434
319.0502	0.1361
319.2613	0.1454
319.4723	0.1416
319.6834	0.1419
319.8944	0.1368
320.1054	0.141
320.3164	0.1387
320.5274	0.1403
320.7383	0.1442
320.9493	0.1436
321.1602	0.1424
321.3712	0.1382
321.5821	0.1349
321.793	0.149
322.0039	0.147
322.2148	0.1387
322.4257	0.1365
322.6365	0.1386
322.8474	0.1453
323.0582	0.1417
323.269	0.1434
323.4798	0.1397
323.6906	0.138
323.9014	0.1398
324.1122	0.1355
324.3229	0.1453
324.5337	0.1455
324.7444	0.1492
324.9551	0.1465
325.1658	0.1418
325.3765	0.1479
325.5872	0.1471
325.7979	0.1465
326.0085	0.1473
326.2192	0.1448
326.4298	0.1531
326.6404	0.1515
326.851	0.145
327.0616	0.1499
327.2722	0.1508
327.4828	0.1474
327.6933	0.1538
327.9039	0.148
328.1144	0.1529
328.3249	0.1532
328.5354	0.1543
328.7459	0.1496
328.9564	0.1554
329.1669	0.1547
329.3773	0.1541
329.5878	0.1578
329.7982	0.1577
330.0086	0.1552
330.219	0.1502
330.4294	0.1644
330.6398	0.157
330.8502	0.1655
331.0605	0.1595
331.2708	0.1585
331.4812	0.1592
331.6915	0.156
331.9018	0.1586
332.1121	0.1608
332.3224	0.1549
332.5326	0.1545
332.7429	0.156
332.9531	0.16
333.1633	0.1563
333.3735	0.1546
333.5837	0.1579
333.7939	0.1567
334.0041	0.1646
334.2143	0.1575
334.4244	0.1611
334.6346	0.1562
334.8447	0.1532
335.0548	0.1588
335.2649	0.159
335.475	0.1601
335.685	0.1657
335.8951	0.1528
336.1051	0.1603
336.3152	0.1579
336.5252	0.1562
336.7352	0.1544
336.9452	0.158
337.1552	0.1519
337.3652	0.155
337.5751	0.1609
337.7851	0.1625
337.995	0.1586
338.2049	0.152
338.4148	0.1616
338.6247	0.1625
338.8346	0.1525
339.0445	0.1584
339.2543	0.1541
339.4642	0.1549
339.674	0.1566
339.8838	0.1548
340.0936	0.1619
340.3034	0.154
340.5132	0.1502
340.7229	0.1543
340.9327	0.1712
341.1424	0.1616
341.3522	0.1514
341.5619	0.1614
341.7716	0.1616
341.9813	0.1691
342.1909	0.1611
342.4006	0.1671
342.6102	0.1645
342.8199	0.1698
343.0295	0.1601
343.2391	0.1669
343.4487	0.1725
343.6583	0.1696
343.8679	0.1691
344.0774	0.1663
344.287	0.1691
344.4965	0.1669
344.706	0.1749
344.9155	0.1736
345.125	0.1719
345.3345	0.1837
345.544	0.175
345.7534	0.1785
345.9629	0.177
346.1723	0.1797
346.3817	0.1805
346.5911	0.1848
346.8005	0.1868
347.0099	0.1888
347.2193	0.1878
347.4286	0.1902
347.638	0.1902
347.8473	0.1846
348.0566	0.1845
348.2659	0.1836
348.4752	0.1889
348.6845	0.1896
348.8937	0.1864
349.103	0.1906
349.3122	0.1879
349.5214	0.185
349.7306	0.1933
349.9398	0.1909
350.149	0.1956
350.3582	0.1935
350.5674	0.1917
350.7765	0.2001
350.9856	0.1872
351.1948	0.1927
351.4039	0.1985
351.613	0.1949
351.822	0.1967
352.0311	0.1929
352.2402	0.1912
352.4492	0.1929
352.6582	0.1945
352.8672	0.1954
353.0762	0.1941
353.2852	0.1892
353.4942	0.1909
353.7032	0.1824
353.9121	0.1889
354.1211	0.1898
354.33	0.1894
354.5389	0.1887
354.7478	0.1812
354.9567	0.1901
355.1655	0.1922
355.3744	0.1822
355.5833	0.1882
355.7921	0.1912
356.0009	0.195
356.2097	0.1851
356.4185	0.1848
356.6273	0.183
356.8361	0.1878
357.0448	0.1935
357.2536	0.1854
357.4623	0.1954
357.671	0.1904
357.8797	0.1933
358.0884	0.1804
358.2971	0.1927
358.5057	0.1955
358.7144	0.1854
358.923	0.196
359.1316	0.1934
359.3402	0.1905
359.5488	0.1866
359.7574	0.1959
359.966	0.1986
360.1746	0.1939
360.3831	0.2011
360.5916	0.1983
360.8002	0.2033
361.0087	0.1967
361.2172	0.1923
361.4256	0.1987
361.6341	0.2062
361.8426	0.1977
362.051	0.2054
362.2594	0.2011
362.4678	0.2028
362.6762	0.2001
362.8846	0.2059
363.093	0.197
363.3014	0.2038
363.5097	0.2021
363.718	0.1997
363.9264	0.2072
364.1347	0.2083
364.343	0.2073
364.5513	0.2112
364.7595	0.2105
364.9678	0.2103
365.176	0.2087
365.3842	0.211
365.5925	0.2084
365.8007	0.2134
366.0089	0.2211
366.217	0.214
366.4252	0.2139
366.6333	0.2125
366.8415	0.2151
367.0496	0.2154
367.2577	0.2168
367.4658	0.2107
367.6739	0.2086
367.882	0.2199
368.09	0.2134
368.2981	0.2194
368.5061	0.2226
368.7141	0.2141
368.9221	0.2301
369.1301	0.2325
369.3381	0.2259
369.5461	0.2239
369.754	0.2296
369.962	0.2222
370.1699	0.2285
370.3778	0.2402
370.5857	0.2191
370.7936	0.225
371.0015	0.232
371.2093	0.2238
371.4172	0.2314
371.625	0.2248
371.8328	0.2255
372.0406	0.2354
372.2484	0.2356
372.4562	0.2283
372.664	0.2272
372.8717	0.2279
373.0795	0.2423
373.2872	0.246
373.4949	0.2338
373.7026	0.2342
373.9103	0.2336
374.118	0.2438
374.3256	0.2374
374.5333	0.2393
374.7409	0.2412
374.9485	0.2406
375.1561	0.2437
375.3637	0.2291
375.5713	0.2446
375.7789	0.245
375.9864	0.2425
376.194	0.2412
376.4015	0.246
376.609	0.2446
376.8165	0.2449
377.024	0.2362
377.2315	0.2444
377.4389	0.2388
377.6464	0.2505
377.8538	0.2473
378.0612	0.2517
378.2686	0.251
378.476	0.2432
378.6834	0.2453
378.8908	0.2488
379.0981	0.2487
379.3055	0.2553
379.5128	0.2483
379.7201	0.2486
379.9274	0.2505
380.1347	0.2483
380.342	0.261
380.5492	0.257
380.7565	0.2457
380.9637	0.246
381.1709	0.2535
381.3781	0.2566
381.5853	0.2504
381.7925	0.2588
381.9997	0.2524
382.2068	0.2589
382.4139	0.254
382.6211	0.2567
382.8282	0.2614
383.0353	0.2614
383.2424	0.266
383.4494	0.2582
383.6565	0.2623
383.8635	0.2573
384.0706	0.2706
384.2776	0.2646
384.4846	0.2682
384.6916	0.2547
384.8986	0.2656
385.1055	0.2614
385.3125	0.2667
385.5194	0.2644
385.7263	0.2562
385.9333	0.2631
386.1402	0.2619
386.347	0.2572
386.5539	0.2598
386.7608	0.2574
386.9676	0.2613
387.1744	0.2578
387.3813	0.2628
387.5881	0.2532
387.7948	0.2585
388.0016	0.2658
388.2084	0.2581
388.4151	0.2605
388.6219	0.255
388.8286	0.262
389.0353	0.254
389.242	0.2641
389.4487	0.2538
389.6553	0.2555
389.862	0.2589
390.0686	0.2671
390.2753	0.2581
390.4819	0.2539
390.6885	0.2534
390.8951	0.2564
391.1016	0.255
391.3082	0.2582
391.5147	0.2484
391.7213	0.2485
391.9278	0.2497
392.1343	0.2514
392.3408	0.2476
392.5473	0.247
392.7537	0.2439
392.9602	0.2528
393.1666	0.2444
393.373	0.242
393.5794	0.2436
393.7858	0.2448
393.9922	0.2333
394.1986	0.241
394.4049	0.2362
394.6113	0.2434
394.8176	0.2412
395.0239	0.2287
395.2302	0.2322
395.4365	0.2416
395.6428	0.2339
395.8491	0.2349
396.0553	0.2331
396.2615	0.228
396.4678	0.233
396.674	0.2196
396.8802	0.2232
397.0863	0.2238
397.2925	0.2209
397.4987	0.2225
397.7048	0.2267
397.9109	0.2197
398.117	0.2242
398.3231	0.217
398.5292	0.2159
398.7353	0.2182
398.9413	0.2273
399.1474	0.2188
399.3534	0.2292
399.5594	0.2256
399.7654	0.2124
399.9714	0.2338
400.1774	0.2209
400.3833	0.224
400.5893	0.2192
400.7952	0.2324
401.0011	0.2193
401.207	0.2179
401.4129	0.2241
401.6188	0.2251
401.8247	0.2303
402.0305	0.2158
402.2364	0.2244
402.4422	0.2165
402.648	0.2199
402.8538	0.2255
403.0596	0.2164
403.2654	0.2197
403.4711	0.2132
403.6768	0.2206
403.8826	0.2217
404.0883	0.2181
404.294	0.2184
404.4997	0.2173
404.7054	0.2239
404.911	0.2135
405.1167	0.22
405.3223	0.2128
405.5279	0.2168
405.7335	0.2174
405.9391	0.218
406.1447	0.2245
406.3502	0.215
406.5558	0.2126
406.7613	0.2132
406.9668	0.2077
407.1724	0.2197
407.3778	0.2231
407.5833	0.2139
407.7888	0.2196
407.9942	0.2026
408.1997	0.2117
408.4051	0.2144
408.6105	0.2217
408.8159	0.2264
409.0213	0.2108
409.2267	0.2229
409.432	0.2281
409.6374	0.212
409.8427	0.2259
410.048	0.2161
410.2533	0.202
410.4586	0.2082
410.6639	0.2203
410.8691	0.2086
411.0744	0.2081
411.2796	0.2149
411.4848	0.2257
411.69	0.2207
411.8952	0.225
412.1004	0.2133
412.3056	0.2112
412.5107	0.2149
412.7158	0.2222
412.921	0.218
413.1261	0.2147
413.3312	0.2239
413.5362	0.2301
413.7413	0.2193
413.9464	0.2078
414.1514	0.2112
414.3564	0.2066
414.5614	0.213
414.7664	0.2118
414.9714	0.2069
415.1764	0.214
415.3813	0.2099
415.5863	0.2122
415.7912	0.2073
415.9961	0.215
416.201	0.2181
416.4059	0.2161
416.6108	0.2115
416.8156	0.2072
417.0205	0.2082
417.2253	0.2131
417.4301	0.2145
417.6349	0.205
417.8397	0.206
418.0445	0.2004
418.2492	0.2052
418.454	0.2029
418.6587	0.2039
418.8634	0.2056
419.0681	0.2095
419.2728	0.205
419.4775	0.2187
419.6822	0.2025
419.8868	0.1975
420.0915	0.202
420.2961	0.1969
420.5007	0.2076
420.7053	0.2034
420.9099	0.2028
421.1144	0.2013
421.319	0.1991
421.5235	0.191
421.728	0.2026
421.9325	0.1871
422.137	0.1951
422.3415	0.1851
422.546	0.1934
422.7504	0.1884
422.9549	0.2048
423.1593	0.1916
423.3637	0.1878
423.5681	0.1931
423.7725	0.1894
423.9769	0.1879
424.1812	0.179
424.3856	0.1815
424.5899	0.1841
424.7942	0.1884
424.9985	0.1841
425.2028	0.1987
425.4071	0.1904
425.6113	0.1798
425.8156	0.1734
426.0198	0.1882
426.224	0.172
426.4282	0.1789
426.6324	0.1761
426.8366	0.181
427.0407	0.1831
427.2449	0.1706
