Data from D4ACN5uM420nmA_Absorbance_14-37-07-631.txt Node
Date: Fri Feb 21 14:37:07 GMT 2025
User: LASERRRRR
Spectrometer: FLMT03099
Trigger mode: 0
Integration Time (sec): 1.500000E-2
Scans to average: 1
Electric dark correction enabled: true
Nonlinearity correction enabled: false
Boxcar width: 0
XAxis mode: Wavelengths
Number of Pixels in Spectrum: 3648
>>>>>Begin Spectral Data<<<<<
179.3399	-0.4609
179.5586	-0.4609
179.7771	-0.4609
179.9957	0.0396
180.2143	-0
180.4329	0.5878
180.6514	-0
180.8699	-0
181.0885	-0
181.307	0.0177
181.5255	0.1368
181.744	-0
181.9625	0.6269
182.181	1.1376
182.3994	-0.3719
182.6179	-0
182.8363	-0.3085
183.0547	-0.1473
183.2732	-0.0013
183.4916	0.5453
183.71	0.0019
183.9284	0.1457
184.1467	0.4648
184.3651	-0.0792
184.5835	0.3437
184.8018	0.2374
185.0201	0.2313
185.2385	0.4065
185.4568	0.0088
185.6751	0.1225
185.8934	0.4387
186.1117	-0.1255
186.3299	0.1142
186.5482	0.1971
186.7664	0.1963
186.9847	-0.0496
187.2029	0.1603
187.4211	0.2653
187.6393	0.1272
187.8575	0.261
188.0757	0.3541
188.2939	0.3198
188.512	0.4017
188.7302	0.3955
188.9483	0.137
189.1665	2.2098
189.3846	0.2519
189.6027	0.1518
189.8208	0.1504
190.0389	0.1995
190.257	0.0497
190.475	0.0224
190.6931	0.0864
190.9111	0.1407
191.1292	0.1132
191.3472	0.2709
191.5652	0.4699
191.7832	0.1493
192.0012	0.1623
192.2192	0.2153
192.4371	0.1736
192.6551	0.2331
192.873	0.1424
193.091	0.1783
193.3089	0.2091
193.5268	0.1607
193.7447	0.2407
193.9626	0.2835
194.1805	0.1968
194.3984	0.2803
194.6162	0.2355
194.8341	0.2941
195.0519	0.2004
195.2697	0.3257
195.4875	0.2977
195.7054	0.2872
195.9231	0.2451
196.1409	0.4197
196.3587	0.348
196.5765	0.321
196.7942	0.384
197.012	0.3525
197.2297	0.3565
197.4474	0.3714
197.6651	0.318
197.8828	0.3717
198.1005	0.4578
198.3182	0.3733
198.5358	0.3754
198.7535	0.39
198.9711	0.3983
199.1888	0.4068
199.4064	0.3721
199.624	0.3873
199.8416	0.359
200.0592	0.3572
200.2767	0.3938
200.4943	0.4778
200.7119	0.3794
200.9294	0.3938
201.1469	0.4012
201.3645	0.4488
201.582	0.3799
201.7995	0.4085
202.017	0.394
202.2344	0.4201
202.4519	0.4071
202.6694	0.425
202.8868	0.4256
203.1042	0.4133
203.3217	0.3731
203.5391	0.4029
203.7565	0.3487
203.9739	0.3588
204.1913	0.3353
204.4086	0.3622
204.626	0.3765
204.8433	0.3934
205.0607	0.3477
205.278	0.3967
205.4953	0.314
205.7126	0.3604
205.9299	0.3368
206.1472	0.3314
206.3644	0.354
206.5817	0.3038
206.7989	0.3284
207.0162	0.3489
207.2334	0.3265
207.4506	0.2901
207.6678	0.2873
207.885	0.3172
208.1022	0.2925
208.3194	0.2988
208.5365	0.326
208.7537	0.2892
208.9708	0.2962
209.1879	0.2914
209.405	0.287
209.6222	0.268
209.8392	0.3109
210.0563	0.2968
210.2734	0.2813
210.4905	0.2824
210.7075	0.2569
210.9245	0.2871
211.1416	0.2652
211.3586	0.2802
211.5756	0.2466
211.7926	0.25
212.0096	0.2705
212.2265	0.2584
212.4435	0.2628
212.6604	0.2773
212.8774	0.2456
213.0943	0.2492
213.3112	0.242
213.5281	0.2467
213.745	0.239
213.9619	0.2575
214.1788	0.2658
214.3956	0.2644
214.6125	0.2445
214.8293	0.2488
215.0461	0.2482
215.2629	0.2539
215.4798	0.2393
215.6965	0.2488
215.9133	0.248
216.1301	0.2455
216.3469	0.2703
216.5636	0.2385
216.7803	0.2382
216.9971	0.256
217.2138	0.2645
217.4305	0.2462
217.6472	0.246
217.8639	0.2508
218.0805	0.2682
218.2972	0.2316
218.5138	0.2635
218.7305	0.2603
218.9471	0.257
219.1637	0.2686
219.3803	0.261
219.5969	0.2601
219.8135	0.2698
220.0301	0.2566
220.2466	0.2605
220.4632	0.2588
220.6797	0.2608
220.8962	0.2515
221.1127	0.2731
221.3292	0.2607
221.5457	0.2737
221.7622	0.2734
221.9787	0.2692
222.1951	0.2773
222.4116	0.2797
222.628	0.2874
222.8444	0.2695
223.0608	0.2753
223.2772	0.2822
223.4936	0.2821
223.71	0.2899
223.9264	0.2785
224.1427	0.2969
224.3591	0.3047
224.5754	0.2923
224.7917	0.2856
225.008	0.2954
225.2243	0.3061
225.4406	0.2893
225.6569	0.3064
225.8732	0.3144
226.0894	0.3165
226.3057	0.3103
226.5219	0.3199
226.7381	0.317
226.9543	0.3212
227.1705	0.3191
227.3867	0.3311
227.6029	0.3313
227.8191	0.3399
228.0352	0.3475
228.2513	0.3485
228.4675	0.3458
228.6836	0.3498
228.8997	0.3499
229.1158	0.3541
229.3319	0.3602
229.548	0.3544
229.764	0.3592
229.9801	0.3723
230.1961	0.3678
230.4121	0.3756
230.6282	0.376
230.8442	0.3942
231.0602	0.3863
231.2761	0.378
231.4921	0.3861
231.7081	0.3925
231.924	0.4017
232.14	0.405
232.3559	0.4163
232.5718	0.4134
232.7877	0.4104
233.0036	0.4027
233.2195	0.4238
233.4353	0.415
233.6512	0.4277
233.867	0.4247
234.0829	0.4258
234.2987	0.4254
234.5145	0.4465
234.7303	0.432
234.9461	0.4352
235.1619	0.4398
235.3776	0.441
235.5934	0.4524
235.8091	0.443
236.0249	0.4426
236.2406	0.4425
236.4563	0.4445
236.672	0.4447
236.8877	0.4563
237.1034	0.4399
237.319	0.4504
237.5347	0.4455
237.7503	0.4564
237.966	0.4687
238.1816	0.4543
238.3972	0.4662
238.6128	0.4639
238.8284	0.4746
239.0439	0.4637
239.2595	0.4712
239.475	0.4711
239.6906	0.4608
239.9061	0.4715
240.1216	0.4643
240.3371	0.466
240.5526	0.4666
240.7681	0.4586
240.9836	0.456
241.199	0.4542
241.4145	0.4662
241.6299	0.4549
241.8453	0.4443
242.0607	0.4383
242.2761	0.4406
242.4915	0.4265
242.7069	0.4183
242.9223	0.4318
243.1376	0.4184
243.353	0.4139
243.5683	0.3984
243.7836	0.3984
243.9989	0.3892
244.2142	0.3725
244.4295	0.3769
244.6448	0.369
244.86	0.3583
245.0753	0.3436
245.2905	0.3424
245.5057	0.3421
245.721	0.3413
245.9362	0.3265
246.1514	0.321
246.3665	0.3166
246.5817	0.3087
246.7969	0.3018
247.012	0.2935
247.2271	0.2979
247.4423	0.2902
247.6574	0.2785
247.8725	0.2819
248.0876	0.2729
248.3026	0.2725
248.5177	0.2555
248.7328	0.2569
248.9478	0.2525
249.1628	0.2504
249.3779	0.2466
249.5929	0.2443
249.8079	0.2469
250.0228	0.2354
250.2378	0.2341
250.4528	0.2318
250.6677	0.227
250.8827	0.2194
251.0976	0.2181
251.3125	0.2207
251.5274	0.215
251.7423	0.2132
251.9572	0.2098
252.172	0.2118
252.3869	0.2092
252.6017	0.2084
252.8166	0.2097
253.0314	0.1997
253.2462	0.1991
253.461	0.2016
253.6758	0.1974
253.8906	0.1972
254.1053	0.2018
254.3201	0.2006
254.5348	0.1952
254.7496	0.1909
254.9643	0.1932
255.179	0.1932
255.3937	0.1939
255.6083	0.2035
255.823	0.1906
256.0377	0.1837
256.2523	0.1877
256.467	0.1966
256.6816	0.1838
256.8962	0.1913
257.1108	0.1861
257.3254	0.1875
257.54	0.1828
257.7545	0.1917
257.9691	0.1866
258.1836	0.1833
258.3981	0.1906
258.6127	0.1803
258.8272	0.1873
259.0417	0.1755
259.2561	0.1874
259.4706	0.1779
259.6851	0.176
259.8995	0.1805
260.114	0.1806
260.3284	0.1763
260.5428	0.1816
260.7572	0.1805
260.9716	0.1823
261.186	0.1781
261.4003	0.1753
261.6147	0.1801
261.829	0.1819
262.0433	0.185
262.2577	0.1836
262.472	0.1813
262.6863	0.1869
262.9005	0.1784
263.1148	0.1792
263.3291	0.1797
263.5433	0.1847
263.7576	0.1836
263.9718	0.1825
264.186	0.1871
264.4002	0.1853
264.6144	0.1941
264.8286	0.1872
265.0427	0.1931
265.2569	0.1881
265.471	0.1806
265.6851	0.1893
265.8993	0.1866
266.1134	0.184
266.3275	0.1847
266.5415	0.1894
266.7556	0.1899
266.9697	0.1836
267.1837	0.1886
267.3978	0.1915
267.6118	0.1828
267.8258	0.1906
268.0398	0.1902
268.2538	0.1913
268.4677	0.1815
268.6817	0.1819
268.8957	0.1774
269.1096	0.1751
269.3235	0.1813
269.5374	0.1817
269.7514	0.1814
269.9652	0.1796
270.1791	0.179
270.393	0.1803
270.6068	0.184
270.8207	0.1837
271.0345	0.1799
271.2483	0.1758
271.4622	0.1845
271.676	0.1812
271.8897	0.177
272.1035	0.1839
272.3173	0.1805
272.531	0.1728
272.7448	0.1781
272.9585	0.1722
273.1722	0.1742
273.3859	0.1765
273.5996	0.1813
273.8133	0.1829
274.0269	0.1698
274.2406	0.18
274.4542	0.1825
274.6679	0.1836
274.8815	0.1853
275.0951	0.1894
275.3087	0.1905
275.5223	0.1795
275.7358	0.1829
275.9494	0.1861
276.1629	0.1887
276.3765	0.1847
276.59	0.1862
276.8035	0.1819
277.017	0.1895
277.2305	0.1874
277.444	0.1898
277.6574	0.186
277.8709	0.1894
278.0843	0.1867
278.2978	0.1914
278.5112	0.1881
278.7246	0.1847
278.938	0.1898
279.1513	0.1883
279.3647	0.1888
279.5781	0.1891
279.7914	0.1856
280.0047	0.1877
280.2181	0.1874
280.4314	0.1876
280.6447	0.1933
280.8579	0.1853
281.0712	0.1898
281.2845	0.189
281.4977	0.1876
281.711	0.1852
281.9242	0.1928
282.1374	0.1889
282.3506	0.189
282.5638	0.1888
282.7769	0.1782
282.9901	0.1902
283.2033	0.1953
283.4164	0.1865
283.6295	0.1887
283.8426	0.1856
284.0557	0.1898
284.2688	0.19
284.4819	0.1878
284.695	0.1879
284.908	0.1878
285.1211	0.1929
285.3341	0.1868
285.5471	0.1901
285.7601	0.1916
285.9731	0.192
286.1861	0.1935
286.3991	0.1967
286.612	0.1896
286.825	0.2036
287.0379	0.1912
287.2508	0.1968
287.4637	0.194
287.6766	0.1925
287.8895	0.1917
288.1024	0.194
288.3152	0.1973
288.5281	0.1937
288.7409	0.2012
288.9538	0.1945
289.1666	0.1911
289.3794	0.1918
289.5922	0.1923
289.8049	0.1959
290.0177	0.1988
290.2304	0.1971
290.4432	0.1943
290.6559	0.1978
290.8686	0.1943
291.0813	0.1973
291.294	0.1963
291.5067	0.1992
291.7194	0.1948
291.932	0.1908
292.1447	0.2012
292.3573	0.1957
292.5699	0.1968
292.7825	0.189
292.9951	0.1942
293.2077	0.1934
293.4203	0.1937
293.6328	0.1879
293.8454	0.1969
294.0579	0.1926
294.2704	0.2008
294.4829	0.1948
294.6954	0.1994
294.9079	0.1958
295.1204	0.1896
295.3328	0.2013
295.5453	0.2004
295.7577	0.1978
295.9701	0.2011
296.1825	0.1988
296.3949	0.1939
296.6073	0.1968
296.8197	0.194
297.0321	0.1967
297.2444	0.195
297.4567	0.1932
297.6691	0.1913
297.8814	0.1983
298.0937	0.2019
298.306	0.1985
298.5182	0.1967
298.7305	0.201
298.9428	0.1949
299.155	0.1909
299.3672	0.1946
299.5794	0.1994
299.7916	0.203
300.0038	0.1987
300.216	0.1941
300.4282	0.1956
300.6403	0.1971
300.8525	0.198
301.0646	0.1936
301.2767	0.1977
301.4888	0.1954
301.7009	0.1953
301.913	0.1992
302.125	0.1981
302.3371	0.1923
302.5491	0.1977
302.7612	0.2039
302.9732	0.2023
303.1852	0.1981
303.3972	0.1946
303.6092	0.1917
303.8211	0.1952
304.0331	0.1921
304.245	0.193
304.457	0.1945
304.6689	0.195
304.8808	0.1883
305.0927	0.1977
305.3046	0.1849
305.5164	0.1954
305.7283	0.1844
305.9401	0.1795
306.152	0.1839
306.3638	0.1856
306.5756	0.1801
306.7874	0.1794
306.9992	0.1799
307.2109	0.1736
307.4227	0.1757
307.6344	0.1802
307.8462	0.1775
308.0579	0.1795
308.2696	0.175
308.4813	0.1705
308.693	0.1713
308.9046	0.1684
309.1163	0.1679
309.328	0.1684
309.5396	0.156
309.7512	0.1637
309.9628	0.1629
310.1744	0.1608
310.386	0.1562
310.5976	0.1554
310.8091	0.1535
311.0207	0.1515
311.2322	0.1464
311.4437	0.1524
311.6552	0.1478
311.8667	0.1546
312.0782	0.1504
312.2897	0.1527
312.5012	0.1487
312.7126	0.1369
312.924	0.1451
313.1355	0.1453
313.3469	0.1401
313.5583	0.141
313.7696	0.1374
313.981	0.1404
314.1924	0.14
314.4037	0.1403
314.6151	0.141
314.8264	0.1379
315.0377	0.1369
315.249	0.1378
315.4603	0.1324
315.6716	0.1389
315.8828	0.1337
316.0941	0.1371
316.3053	0.1299
316.5165	0.1368
316.7277	0.1277
316.9389	0.133
317.1501	0.1326
317.3613	0.1296
317.5724	0.1339
317.7836	0.1281
317.9947	0.1293
318.2058	0.1285
318.417	0.1283
318.6281	0.1261
318.8391	0.1345
319.0502	0.1361
319.2613	0.1287
319.4723	0.1308
319.6834	0.1328
319.8944	0.1301
320.1054	0.1359
320.3164	0.1319
320.5274	0.1337
320.7383	0.1315
320.9493	0.1323
321.1602	0.1289
321.3712	0.1309
321.5821	0.1191
321.793	0.1381
322.0039	0.1331
322.2148	0.1338
322.4257	0.1302
322.6365	0.1302
322.8474	0.1323
323.0582	0.1335
323.269	0.1306
323.4798	0.1345
323.6906	0.1236
323.9014	0.1307
324.1122	0.1337
324.3229	0.1358
324.5337	0.13
324.7444	0.1344
324.9551	0.1307
325.1658	0.1367
325.3765	0.1289
325.5872	0.1334
325.7979	0.1311
326.0085	0.1327
326.2192	0.1353
326.4298	0.1373
326.6404	0.1414
326.851	0.1366
327.0616	0.1387
327.2722	0.1426
327.4828	0.1409
327.6933	0.1417
327.9039	0.1382
328.1144	0.1397
328.3249	0.1398
328.5354	0.1389
328.7459	0.1424
328.9564	0.1424
329.1669	0.147
329.3773	0.1412
329.5878	0.1393
329.7982	0.1425
330.0086	0.138
330.219	0.1381
330.4294	0.1419
330.6398	0.1453
330.8502	0.1442
331.0605	0.1369
331.2708	0.1392
331.4812	0.1439
331.6915	0.143
331.9018	0.1433
332.1121	0.1488
332.3224	0.1485
332.5326	0.1427
332.7429	0.139
332.9531	0.1512
333.1633	0.1408
333.3735	0.1416
333.5837	0.1425
333.7939	0.1375
334.0041	0.1456
334.2143	0.1395
334.4244	0.1454
334.6346	0.1419
334.8447	0.1459
335.0548	0.1508
335.2649	0.1452
335.475	0.1478
335.685	0.1444
335.8951	0.1494
336.1051	0.1503
336.3152	0.1464
336.5252	0.1469
336.7352	0.142
336.9452	0.1481
337.1552	0.1442
337.3652	0.141
337.5751	0.1442
337.7851	0.1511
337.995	0.1534
338.2049	0.1468
338.4148	0.1541
338.6247	0.1475
338.8346	0.15
339.0445	0.1462
339.2543	0.1551
339.4642	0.147
339.674	0.1473
339.8838	0.1523
340.0936	0.153
340.3034	0.1454
340.5132	0.1427
340.7229	0.1517
340.9327	0.1581
341.1424	0.1514
341.3522	0.1485
341.5619	0.154
341.7716	0.155
341.9813	0.1597
342.1909	0.155
342.4006	0.1544
342.6102	0.1543
342.8199	0.1551
343.0295	0.1538
343.2391	0.1601
343.4487	0.1613
343.6583	0.1657
343.8679	0.1617
344.0774	0.158
344.287	0.1553
344.4965	0.1662
344.706	0.1619
344.9155	0.1619
345.125	0.159
345.3345	0.17
345.544	0.1636
345.7534	0.1678
345.9629	0.1625
346.1723	0.1661
346.3817	0.169
346.5911	0.1758
346.8005	0.1698
347.0099	0.172
347.2193	0.1731
347.4286	0.1801
347.638	0.1788
347.8473	0.1793
348.0566	0.1777
348.2659	0.1734
348.4752	0.177
348.6845	0.1711
348.8937	0.1817
349.103	0.1795
349.3122	0.1841
349.5214	0.1816
349.7306	0.1779
349.9398	0.1799
350.149	0.177
350.3582	0.1819
350.5674	0.1827
350.7765	0.1837
350.9856	0.1834
351.1948	0.1862
351.4039	0.1813
351.613	0.1801
351.822	0.1921
352.0311	0.1866
352.2402	0.1884
352.4492	0.1827
352.6582	0.1857
352.8672	0.1875
353.0762	0.1896
353.2852	0.1847
353.4942	0.187
353.7032	0.1774
353.9121	0.1905
354.1211	0.1951
354.33	0.1911
354.5389	0.1833
354.7478	0.1837
354.9567	0.193
355.1655	0.1858
355.3744	0.194
355.5833	0.1937
355.7921	0.193
356.0009	0.1976
356.2097	0.1856
356.4185	0.2034
356.6273	0.1925
356.8361	0.1977
357.0448	0.1993
357.2536	0.1925
357.4623	0.1948
357.671	0.1992
357.8797	0.2037
358.0884	0.1957
358.2971	0.1924
358.5057	0.2037
358.7144	0.1967
358.923	0.2019
359.1316	0.1997
359.3402	0.2026
359.5488	0.1984
359.7574	0.2084
359.966	0.2046
360.1746	0.2064
360.3831	0.2151
360.5916	0.2068
360.8002	0.2187
361.0087	0.2139
361.2172	0.206
361.4256	0.2197
361.6341	0.2108
361.8426	0.206
362.051	0.2223
362.2594	0.2165
362.4678	0.214
362.6762	0.2185
362.8846	0.2193
363.093	0.2145
363.3014	0.2242
363.5097	0.2235
363.718	0.2212
363.9264	0.2216
364.1347	0.2241
364.343	0.2315
364.5513	0.2161
364.7595	0.2328
364.9678	0.2196
365.176	0.2247
365.3842	0.2338
365.5925	0.2279
365.8007	0.2389
366.0089	0.2413
366.217	0.2415
366.4252	0.2277
366.6333	0.2392
366.8415	0.2424
367.0496	0.2401
367.2577	0.2461
367.4658	0.2421
367.6739	0.2409
367.882	0.2564
368.09	0.2368
368.2981	0.253
368.5061	0.2535
368.7141	0.2365
368.9221	0.2503
369.1301	0.2445
369.3381	0.2506
369.5461	0.2569
369.754	0.2466
369.962	0.25
370.1699	0.2576
370.3778	0.254
370.5857	0.2524
370.7936	0.2479
371.0015	0.254
371.2093	0.2547
371.4172	0.2565
371.625	0.251
371.8328	0.2509
372.0406	0.2672
372.2484	0.2588
372.4562	0.2566
372.664	0.2558
372.8717	0.2693
373.0795	0.2684
373.2872	0.2667
373.4949	0.266
373.7026	0.2694
373.9103	0.2576
374.118	0.2729
374.3256	0.2764
374.5333	0.2723
374.7409	0.2621
374.9485	0.2611
375.1561	0.2792
375.3637	0.2641
375.5713	0.2826
375.7789	0.2714
375.9864	0.2778
376.194	0.2796
376.4015	0.2755
376.609	0.2725
376.8165	0.2769
377.024	0.2683
377.2315	0.28
377.4389	0.2709
377.6464	0.2858
377.8538	0.2813
378.0612	0.2786
378.2686	0.2862
378.476	0.2906
378.6834	0.2813
378.8908	0.2842
379.0981	0.2793
379.3055	0.278
379.5128	0.2809
379.7201	0.2902
379.9274	0.2876
380.1347	0.2911
380.342	0.2956
380.5492	0.2922
380.7565	0.2917
380.9637	0.2935
381.1709	0.2935
381.3781	0.3043
381.5853	0.2912
381.7925	0.2955
381.9997	0.2974
382.2068	0.2912
382.4139	0.2959
382.6211	0.3003
382.8282	0.3121
383.0353	0.3002
383.2424	0.295
383.4494	0.2936
383.6565	0.3012
383.8635	0.2987
384.0706	0.2973
384.2776	0.3056
384.4846	0.3094
384.6916	0.2982
384.8986	0.3008
385.1055	0.3097
385.3125	0.301
385.5194	0.3098
385.7263	0.296
385.9333	0.3047
386.1402	0.3064
386.347	0.2981
386.5539	0.3053
386.7608	0.3007
386.9676	0.3098
387.1744	0.2959
387.3813	0.3049
387.5881	0.2929
387.7948	0.3063
388.0016	0.3169
388.2084	0.3054
388.4151	0.3019
388.6219	0.2951
388.8286	0.3037
389.0353	0.3036
389.242	0.3039
389.4487	0.2951
389.6553	0.2827
389.862	0.2913
390.0686	0.3008
390.2753	0.3018
390.4819	0.3004
390.6885	0.2921
390.8951	0.2894
391.1016	0.2909
391.3082	0.2933
391.5147	0.2941
391.7213	0.2942
391.9278	0.2805
392.1343	0.2956
392.3408	0.2858
392.5473	0.2799
392.7537	0.2883
392.9602	0.28
393.1666	0.2757
393.373	0.2792
393.5794	0.2824
393.7858	0.2748
393.9922	0.2725
394.1986	0.2821
394.4049	0.2807
394.6113	0.2824
394.8176	0.275
395.0239	0.2715
395.2302	0.2764
395.4365	0.2691
395.6428	0.2717
395.8491	0.2671
396.0553	0.2617
396.2615	0.2695
396.4678	0.2677
396.674	0.2657
396.8802	0.263
397.0863	0.261
397.2925	0.2667
397.4987	0.2559
397.7048	0.261
397.9109	0.261
398.117	0.2629
398.3231	0.2673
398.5292	0.2535
398.7353	0.2506
398.9413	0.2567
399.1474	0.265
399.3534	0.2655
399.5594	0.2555
399.7654	0.2506
399.9714	0.2601
400.1774	0.2577
400.3833	0.2591
400.5893	0.2537
400.7952	0.2625
401.0011	0.2612
401.207	0.2626
401.4129	0.2586
401.6188	0.2525
401.8247	0.2702
402.0305	0.2568
402.2364	0.2615
402.4422	0.2619
402.648	0.2541
402.8538	0.2665
403.0596	0.251
403.2654	0.2582
403.4711	0.2536
403.6768	0.2568
403.8826	0.262
404.0883	0.2665
404.294	0.2584
404.4997	0.2637
404.7054	0.249
404.911	0.2476
405.1167	0.2619
405.3223	0.2504
405.5279	0.2634
405.7335	0.2592
405.9391	0.2554
406.1447	0.2756
406.3502	0.247
406.5558	0.2536
406.7613	0.254
406.9668	0.2492
407.1724	0.2512
407.3778	0.2716
407.5833	0.2457
407.7888	0.2583
407.9942	0.2595
408.1997	0.2653
408.4051	0.2572
408.6105	0.257
408.8159	0.2418
409.0213	0.2632
409.2267	0.259
409.432	0.2587
409.6374	0.2533
409.8427	0.2596
410.048	0.2503
410.2533	0.254
410.4586	0.2455
410.6639	0.2642
410.8691	0.2481
411.0744	0.2579
411.2796	0.2591
411.4848	0.2559
411.69	0.2463
411.8952	0.2621
412.1004	0.2581
412.3056	0.2466
412.5107	0.2629
412.7158	0.2591
412.921	0.2478
413.1261	0.2642
413.3312	0.2553
413.5362	0.2682
413.7413	0.2599
413.9464	0.2476
414.1514	0.2546
414.3564	0.2468
414.5614	0.2633
414.7664	0.2496
414.9714	0.2428
415.1764	0.2565
415.3813	0.2465
415.5863	0.2572
415.7912	0.2433
415.9961	0.2511
416.201	0.2572
416.4059	0.25
416.6108	0.2537
416.8156	0.2491
417.0205	0.2501
417.2253	0.2462
417.4301	0.2491
417.6349	0.236
417.8397	0.2503
418.0445	0.2481
418.2492	0.2494
418.454	0.2361
418.6587	0.251
418.8634	0.2469
419.0681	0.2467
419.2728	0.2488
419.4775	0.2546
419.6822	0.2288
419.8868	0.2342
420.0915	0.2278
420.2961	0.2299
420.5007	0.2384
420.7053	0.2434
420.9099	0.2358
421.1144	0.2334
421.319	0.2305
421.5235	0.2302
421.728	0.2403
421.9325	0.2337
422.137	0.2415
422.3415	0.2275
422.546	0.2338
422.7504	0.2308
422.9549	0.228
423.1593	0.2274
423.3637	0.232
423.5681	0.2359
423.7725	0.2234
423.9769	0.233
424.1812	0.2131
424.3856	0.216
424.5899	0.2161
424.7942	0.2189
424.9985	0.2187
425.2028	0.2209
425.4071	0.2248
425.6113	0.2172
425.8156	0.2156
426.0198	0.22
426.224	0.2167
426.4282	0.2131
426.6324	0.2101
426.8366	0.2021
427.0407	0.219
