Data from D4ACN5uM420nmA_Absorbance_14-37-08-276.txt Node
Date: Fri Feb 21 14:37:08 GMT 2025
User: LASERRRRR
Spectrometer: FLMT03099
Trigger mode: 0
Integration Time (sec): 1.500000E-2
Scans to average: 1
Electric dark correction enabled: true
Nonlinearity correction enabled: false
Boxcar width: 0
XAxis mode: Wavelengths
Number of Pixels in Spectrum: 3648
>>>>>Begin Spectral Data<<<<<
179.3399	-0.6663
179.5586	-0.6663
179.7771	-0.6663
179.9957	0.3046
180.2143	-0
180.4329	0.2118
180.6514	-0
180.8699	0.3059
181.0885	-0
181.307	0.1118
181.5255	-0.0377
181.744	-0
181.9625	-0
182.181	-0
182.3994	-0.6302
182.6179	-0.486
182.8363	-0
183.0547	-0.217
183.2732	0.3986
183.4916	0.3018
183.71	0.1993
183.9284	0.014
184.1467	0.0849
184.3651	0.352
184.5835	0.2858
184.8018	0.0494
185.0201	0.1677
185.2385	0.6079
185.4568	0.125
185.6751	0.1526
185.8934	0.0677
186.1117	-0.1435
186.3299	0.1331
186.5482	0.0861
186.7664	0.6321
186.9847	-0.0825
187.2029	0.3107
187.4211	0.1902
187.6393	0.1901
187.8575	0.1213
188.0757	0.5703
188.2939	0.0379
188.512	0.2902
188.7302	0.0888
188.9483	0.339
189.1665	0.5574
189.3846	0.1103
189.6027	0.1144
189.8208	0.1454
190.0389	0.2117
190.257	0.1402
190.475	0.1263
190.6931	-0.0319
190.9111	0.1817
191.1292	0.1187
191.3472	0.1652
191.5652	0.0785
191.7832	0.1519
192.0012	0.0818
192.2192	0.122
192.4371	0.09
192.6551	0.0894
192.873	0.0932
193.091	0.0958
193.3089	0.14
193.5268	0.2277
193.7447	0.1758
193.9626	0.2037
194.1805	0.2323
194.3984	0.1421
194.6162	0.3001
194.8341	0.1673
195.0519	0.1716
195.2697	0.1899
195.4875	0.2715
195.7054	0.2768
195.9231	0.2122
196.1409	0.316
196.3587	0.2423
196.5765	0.2991
196.7942	0.2196
197.012	0.2978
197.2297	0.2959
197.4474	0.3469
197.6651	0.3163
197.8828	0.357
198.1005	0.3753
198.3182	0.3505
198.5358	0.3888
198.7535	0.355
198.9711	0.3472
199.1888	0.3295
199.4064	0.3847
199.624	0.3836
199.8416	0.3371
200.0592	0.3732
200.2767	0.3766
200.4943	0.4401
200.7119	0.3427
200.9294	0.3955
201.1469	0.4326
201.3645	0.4326
201.582	0.3646
201.7995	0.3857
202.017	0.4
202.2344	0.3986
202.4519	0.3706
202.6694	0.4012
202.8868	0.385
203.1042	0.3889
203.3217	0.3621
203.5391	0.3972
203.7565	0.3694
203.9739	0.3651
204.1913	0.3601
204.4086	0.3339
204.626	0.3418
204.8433	0.3672
205.0607	0.3259
205.278	0.3229
205.4953	0.3354
205.7126	0.3293
205.9299	0.3164
206.1472	0.3176
206.3644	0.3227
206.5817	0.3009
206.7989	0.3217
207.0162	0.3073
207.2334	0.3204
207.4506	0.3065
207.6678	0.288
207.885	0.2785
208.1022	0.2862
208.3194	0.2772
208.5365	0.3038
208.7537	0.2939
208.9708	0.3065
209.1879	0.2872
209.405	0.2865
209.6222	0.2754
209.8392	0.2852
210.0563	0.2691
210.2734	0.2559
210.4905	0.2727
210.7075	0.2755
210.9245	0.2761
211.1416	0.2608
211.3586	0.2566
211.5756	0.2391
211.7926	0.2493
212.0096	0.2463
212.2265	0.2559
212.4435	0.2665
212.6604	0.261
212.8774	0.2254
213.0943	0.2301
213.3112	0.2333
213.5281	0.2358
213.745	0.2421
213.9619	0.2265
214.1788	0.2455
214.3956	0.2209
214.6125	0.2421
214.8293	0.2446
215.0461	0.2356
215.2629	0.2477
215.4798	0.235
215.6965	0.2349
215.9133	0.2206
216.1301	0.2247
216.3469	0.2516
216.5636	0.2206
216.7803	0.2296
216.9971	0.2491
217.2138	0.2377
217.4305	0.2392
217.6472	0.232
217.8639	0.2549
218.0805	0.2431
218.2972	0.243
218.5138	0.2536
218.7305	0.2465
218.9471	0.2501
219.1637	0.2564
219.3803	0.2498
219.5969	0.2425
219.8135	0.2678
220.0301	0.2433
220.2466	0.2542
220.4632	0.2384
220.6797	0.2554
220.8962	0.2726
221.1127	0.2599
221.3292	0.2632
221.5457	0.2609
221.7622	0.2533
221.9787	0.2715
222.1951	0.2584
222.4116	0.2692
222.628	0.2936
222.8444	0.2802
223.0608	0.2694
223.2772	0.2741
223.4936	0.2758
223.71	0.2939
223.9264	0.2858
224.1427	0.2752
224.3591	0.2804
224.5754	0.2931
224.7917	0.2869
225.008	0.2924
225.2243	0.3006
225.4406	0.2884
225.6569	0.3109
225.8732	0.3081
226.0894	0.3061
226.3057	0.3131
226.5219	0.3097
226.7381	0.3076
226.9543	0.3062
227.1705	0.3156
227.3867	0.3119
227.6029	0.3133
227.8191	0.3237
228.0352	0.3471
228.2513	0.3498
228.4675	0.3342
228.6836	0.339
228.8997	0.3469
229.1158	0.348
229.3319	0.3749
229.548	0.3467
229.764	0.3576
229.9801	0.3705
230.1961	0.3672
230.4121	0.3654
230.6282	0.3934
230.8442	0.3855
231.0602	0.3811
231.2761	0.387
231.4921	0.3929
231.7081	0.3864
231.924	0.4016
232.14	0.3963
232.3559	0.4038
232.5718	0.4053
232.7877	0.4077
233.0036	0.419
233.2195	0.4245
233.4353	0.4326
233.6512	0.4121
233.867	0.4289
234.0829	0.4305
234.2987	0.4303
234.5145	0.4314
234.7303	0.4406
234.9461	0.4396
235.1619	0.4401
235.3776	0.4431
235.5934	0.4349
235.8091	0.4463
236.0249	0.4479
236.2406	0.4397
236.4563	0.444
236.672	0.4486
236.8877	0.4532
237.1034	0.4411
237.319	0.4547
237.5347	0.4516
237.7503	0.4499
237.966	0.4623
238.1816	0.4488
238.3972	0.4592
238.6128	0.4698
238.8284	0.4549
239.0439	0.4607
239.2595	0.4581
239.475	0.4686
239.6906	0.4598
239.9061	0.4672
240.1216	0.4644
240.3371	0.4693
240.5526	0.4486
240.7681	0.4557
240.9836	0.4585
241.199	0.4507
241.4145	0.4504
241.6299	0.464
241.8453	0.4423
242.0607	0.4498
242.2761	0.4478
242.4915	0.4245
242.7069	0.4315
242.9223	0.4262
243.1376	0.4177
243.353	0.4109
243.5683	0.4051
243.7836	0.3906
243.9989	0.3857
244.2142	0.3852
244.4295	0.3823
244.6448	0.3685
244.86	0.3622
245.0753	0.3511
245.2905	0.3561
245.5057	0.3359
245.721	0.3393
245.9362	0.3293
246.1514	0.3245
246.3665	0.3136
246.5817	0.3099
246.7969	0.3046
247.012	0.2951
247.2271	0.2938
247.4423	0.2962
247.6574	0.2883
247.8725	0.2675
248.0876	0.2738
248.3026	0.2669
248.5177	0.2665
248.7328	0.2529
248.9478	0.2573
249.1628	0.2598
249.3779	0.2384
249.5929	0.2379
249.8079	0.2366
250.0228	0.2353
250.2378	0.2275
250.4528	0.2314
250.6677	0.2251
250.8827	0.2193
251.0976	0.2203
251.3125	0.2194
251.5274	0.2048
251.7423	0.2124
251.9572	0.2105
252.172	0.2135
252.3869	0.2121
252.6017	0.2087
252.8166	0.2057
253.0314	0.1974
253.2462	0.2015
253.461	0.2041
253.6758	0.1986
253.8906	0.1898
254.1053	0.1998
254.3201	0.1995
254.5348	0.1892
254.7496	0.1904
254.9643	0.1949
255.179	0.1833
255.3937	0.1927
255.6083	0.1916
255.823	0.1908
256.0377	0.1877
256.2523	0.1832
256.467	0.1904
256.6816	0.1904
256.8962	0.1851
257.1108	0.1871
257.3254	0.1807
257.54	0.1825
257.7545	0.1886
257.9691	0.1764
258.1836	0.1761
258.3981	0.1863
258.6127	0.1782
258.8272	0.1827
259.0417	0.1818
259.2561	0.1864
259.4706	0.1781
259.6851	0.1828
259.8995	0.1789
260.114	0.1786
260.3284	0.1732
260.5428	0.1801
260.7572	0.1827
260.9716	0.1883
261.186	0.1786
261.4003	0.1779
261.6147	0.1818
261.829	0.1851
262.0433	0.1768
262.2577	0.1821
262.472	0.1843
262.6863	0.1907
262.9005	0.1852
263.1148	0.183
263.3291	0.1868
263.5433	0.1844
263.7576	0.1866
263.9718	0.1861
264.186	0.1881
264.4002	0.1827
264.6144	0.1901
264.8286	0.1857
265.0427	0.1908
265.2569	0.1927
265.471	0.1881
265.6851	0.1911
265.8993	0.1837
266.1134	0.1865
266.3275	0.1911
266.5415	0.1953
266.7556	0.1957
266.9697	0.1865
267.1837	0.1908
267.3978	0.1922
267.6118	0.1902
267.8258	0.1907
268.0398	0.194
268.2538	0.1919
268.4677	0.1855
268.6817	0.1921
268.8957	0.1847
269.1096	0.185
269.3235	0.1822
269.5374	0.1898
269.7514	0.1892
269.9652	0.1815
270.1791	0.184
270.393	0.1872
270.6068	0.1849
270.8207	0.1803
271.0345	0.1873
271.2483	0.1776
271.4622	0.1807
271.676	0.1822
271.8897	0.1874
272.1035	0.1922
272.3173	0.1816
272.531	0.1852
272.7448	0.1846
272.9585	0.1787
273.1722	0.1808
273.3859	0.1846
273.5996	0.1893
273.8133	0.1944
274.0269	0.182
274.2406	0.1902
274.4542	0.1862
274.6679	0.1947
274.8815	0.1964
275.0951	0.1951
275.3087	0.1943
275.5223	0.1919
275.7358	0.1898
275.9494	0.1899
276.1629	0.1993
276.3765	0.1931
276.59	0.1901
276.8035	0.1953
277.017	0.1979
277.2305	0.1986
277.444	0.1945
277.6574	0.1956
277.8709	0.2034
278.0843	0.1941
278.2978	0.2007
278.5112	0.2011
278.7246	0.2001
278.938	0.2
279.1513	0.2001
279.3647	0.1949
279.5781	0.1978
279.7914	0.1932
280.0047	0.2001
280.2181	0.1931
280.4314	0.1972
280.6447	0.1957
280.8579	0.1921
281.0712	0.1892
281.2845	0.1948
281.4977	0.1939
281.711	0.1906
281.9242	0.1925
282.1374	0.1937
282.3506	0.1945
282.5638	0.1924
282.7769	0.1907
282.9901	0.1888
283.2033	0.1927
283.4164	0.1916
283.6295	0.1903
283.8426	0.188
284.0557	0.1946
284.2688	0.1907
284.4819	0.1872
284.695	0.1944
284.908	0.1831
285.1211	0.1865
285.3341	0.1898
285.5471	0.1862
285.7601	0.1903
285.9731	0.1893
286.1861	0.1931
286.3991	0.1949
286.612	0.1913
286.825	0.192
287.0379	0.1895
287.2508	0.1893
287.4637	0.1967
287.6766	0.19
287.8895	0.1871
288.1024	0.1946
288.3152	0.1955
288.5281	0.1892
288.7409	0.1969
288.9538	0.1953
289.1666	0.1873
289.3794	0.1821
289.5922	0.1869
289.8049	0.1908
290.0177	0.1971
290.2304	0.1916
290.4432	0.1944
290.6559	0.1934
290.8686	0.1903
291.0813	0.1923
291.294	0.1945
291.5067	0.189
291.7194	0.1942
291.932	0.187
292.1447	0.1903
292.3573	0.1931
292.5699	0.1965
292.7825	0.1911
292.9951	0.1897
293.2077	0.1891
293.4203	0.1847
293.6328	0.188
293.8454	0.1903
294.0579	0.1904
294.2704	0.198
294.4829	0.1865
294.6954	0.1866
294.9079	0.1856
295.1204	0.1858
295.3328	0.1918
295.5453	0.1981
295.7577	0.1941
295.9701	0.1889
296.1825	0.1895
296.3949	0.1864
296.6073	0.1837
296.8197	0.1932
297.0321	0.1859
297.2444	0.1844
297.4567	0.1962
297.6691	0.1891
297.8814	0.1918
298.0937	0.188
298.306	0.1949
298.5182	0.1961
298.7305	0.192
298.9428	0.1928
299.155	0.1878
299.3672	0.1856
299.5794	0.1954
299.7916	0.1941
300.0038	0.196
300.216	0.1888
300.4282	0.1907
300.6403	0.1963
300.8525	0.1911
301.0646	0.1908
301.2767	0.1909
301.4888	0.1902
301.7009	0.1877
301.913	0.1931
302.125	0.1893
302.3371	0.1902
302.5491	0.1921
302.7612	0.1977
302.9732	0.1968
303.1852	0.1898
303.3972	0.193
303.6092	0.19
303.8211	0.1913
304.0331	0.1907
304.245	0.1951
304.457	0.1925
304.6689	0.1916
304.8808	0.1879
305.0927	0.19
305.3046	0.1871
305.5164	0.1836
305.7283	0.1861
305.9401	0.1745
306.152	0.1852
306.3638	0.1865
306.5756	0.1831
306.7874	0.1764
306.9992	0.1734
307.2109	0.1773
307.4227	0.1761
307.6344	0.1806
307.8462	0.1763
308.0579	0.1772
308.2696	0.1705
308.4813	0.1692
308.693	0.1611
308.9046	0.1735
309.1163	0.1686
309.328	0.1653
309.5396	0.1601
309.7512	0.1556
309.9628	0.1558
310.1744	0.1575
310.386	0.1525
310.5976	0.1561
310.8091	0.1586
311.0207	0.1537
311.2322	0.147
311.4437	0.1495
311.6552	0.1503
311.8667	0.1529
312.0782	0.1485
312.2897	0.1539
312.5012	0.1477
312.7126	0.1459
312.924	0.1442
313.1355	0.1435
313.3469	0.1413
313.5583	0.1463
313.7696	0.1449
313.981	0.1505
314.1924	0.1381
314.4037	0.1453
314.6151	0.1417
314.8264	0.1423
315.0377	0.1411
315.249	0.143
315.4603	0.138
315.6716	0.1484
315.8828	0.1465
316.0941	0.1401
316.3053	0.1346
316.5165	0.1393
316.7277	0.1362
316.9389	0.1389
317.1501	0.141
317.3613	0.1379
317.5724	0.1364
317.7836	0.1308
317.9947	0.1278
318.2058	0.1342
318.417	0.1316
318.6281	0.1336
318.8391	0.1363
319.0502	0.1364
319.2613	0.1328
319.4723	0.132
319.6834	0.1405
319.8944	0.1352
320.1054	0.1332
320.3164	0.1282
320.5274	0.1262
320.7383	0.137
320.9493	0.1366
321.1602	0.1282
321.3712	0.1286
321.5821	0.1276
321.793	0.1389
322.0039	0.1323
322.2148	0.1362
322.4257	0.136
322.6365	0.131
322.8474	0.1307
323.0582	0.1361
323.269	0.1377
323.4798	0.135
323.6906	0.134
323.9014	0.1318
324.1122	0.1343
324.3229	0.1448
324.5337	0.1388
324.7444	0.1356
324.9551	0.1369
325.1658	0.1386
325.3765	0.136
325.5872	0.1398
325.7979	0.1335
326.0085	0.141
326.2192	0.1328
326.4298	0.1396
326.6404	0.1423
326.851	0.1377
327.0616	0.1439
327.2722	0.1413
327.4828	0.1416
327.6933	0.1509
327.9039	0.1392
328.1144	0.1451
328.3249	0.1401
328.5354	0.1453
328.7459	0.1498
328.9564	0.1459
329.1669	0.1474
329.3773	0.1463
329.5878	0.1411
329.7982	0.1494
330.0086	0.1468
330.219	0.1477
330.4294	0.1445
330.6398	0.1512
330.8502	0.1479
331.0605	0.1504
331.2708	0.1546
331.4812	0.146
331.6915	0.1479
331.9018	0.1498
332.1121	0.1545
332.3224	0.1509
332.5326	0.1415
332.7429	0.149
332.9531	0.1509
333.1633	0.1453
333.3735	0.143
333.5837	0.1555
333.7939	0.1456
334.0041	0.156
334.2143	0.1478
334.4244	0.1553
334.6346	0.1447
334.8447	0.1485
335.0548	0.1572
335.2649	0.1538
335.475	0.1542
335.685	0.1479
335.8951	0.1491
336.1051	0.1503
336.3152	0.1521
336.5252	0.1463
336.7352	0.1526
336.9452	0.1587
337.1552	0.1471
337.3652	0.1497
337.5751	0.1535
337.7851	0.1488
337.995	0.1484
338.2049	0.1535
338.4148	0.149
338.6247	0.1505
338.8346	0.1467
339.0445	0.1491
339.2543	0.1531
339.4642	0.1532
339.674	0.1504
339.8838	0.1511
340.0936	0.1542
340.3034	0.1494
340.5132	0.1473
340.7229	0.1596
340.9327	0.1645
341.1424	0.1546
341.3522	0.1484
341.5619	0.1567
341.7716	0.1627
341.9813	0.1586
342.1909	0.15
342.4006	0.1598
342.6102	0.1604
342.8199	0.1635
343.0295	0.151
343.2391	0.1647
343.4487	0.162
343.6583	0.1667
343.8679	0.1602
344.0774	0.1565
344.287	0.1646
344.4965	0.1641
344.706	0.1686
344.9155	0.1674
345.125	0.1678
345.3345	0.1761
345.544	0.1728
345.7534	0.1703
345.9629	0.1709
346.1723	0.1721
346.3817	0.1778
346.5911	0.1751
346.8005	0.1841
347.0099	0.1762
347.2193	0.1803
347.4286	0.1843
347.638	0.1783
347.8473	0.1841
348.0566	0.1839
348.2659	0.179
348.4752	0.1808
348.6845	0.1825
348.8937	0.1808
349.103	0.1781
349.3122	0.1766
349.5214	0.1839
349.7306	0.1884
349.9398	0.189
350.149	0.1836
350.3582	0.1809
350.5674	0.1876
350.7765	0.1932
350.9856	0.1877
351.1948	0.1917
351.4039	0.1892
351.613	0.1906
351.822	0.1868
352.0311	0.1873
352.2402	0.191
352.4492	0.191
352.6582	0.1899
352.8672	0.1879
353.0762	0.1903
353.2852	0.1925
353.4942	0.1988
353.7032	0.1816
353.9121	0.1784
354.1211	0.185
354.33	0.1906
354.5389	0.1896
354.7478	0.1801
354.9567	0.1853
355.1655	0.1937
355.3744	0.1834
355.5833	0.1865
355.7921	0.1992
356.0009	0.1878
356.2097	0.1856
356.4185	0.1933
356.6273	0.1974
356.8361	0.1906
357.0448	0.1921
357.2536	0.1905
357.4623	0.1975
357.671	0.1952
357.8797	0.1961
358.0884	0.1922
358.2971	0.1922
358.5057	0.1959
358.7144	0.2001
358.923	0.2036
359.1316	0.2046
359.3402	0.1948
359.5488	0.1976
359.7574	0.1998
359.966	0.2057
360.1746	0.1996
360.3831	0.2079
360.5916	0.2114
360.8002	0.204
361.0087	0.2061
361.2172	0.2057
361.4256	0.2075
361.6341	0.2054
361.8426	0.2058
362.051	0.2067
362.2594	0.2056
362.4678	0.2085
362.6762	0.2102
362.8846	0.2119
363.093	0.2078
363.3014	0.2123
363.5097	0.2081
363.718	0.2201
363.9264	0.2156
364.1347	0.2129
364.343	0.2239
364.5513	0.2229
364.7595	0.2286
364.9678	0.2146
365.176	0.2183
365.3842	0.2222
365.5925	0.2246
365.8007	0.2151
366.0089	0.2306
366.217	0.2268
366.4252	0.2284
366.6333	0.2302
366.8415	0.2292
367.0496	0.228
367.2577	0.2262
367.4658	0.2236
367.6739	0.2223
367.882	0.2361
368.09	0.218
368.2981	0.2373
368.5061	0.2346
368.7141	0.2384
368.9221	0.2433
369.1301	0.2366
369.3381	0.2344
369.5461	0.2397
369.754	0.2384
369.962	0.2333
370.1699	0.2398
370.3778	0.2512
370.5857	0.2495
370.7936	0.2365
371.0015	0.2385
371.2093	0.2439
371.4172	0.2352
371.625	0.2393
371.8328	0.2378
372.0406	0.2565
372.2484	0.2467
372.4562	0.2493
372.664	0.2493
372.8717	0.2496
373.0795	0.2555
373.2872	0.2542
373.4949	0.2545
373.7026	0.2499
373.9103	0.2511
374.118	0.2483
374.3256	0.2597
374.5333	0.2531
374.7409	0.2587
374.9485	0.256
375.1561	0.26
375.3637	0.2508
375.5713	0.2656
375.7789	0.2591
375.9864	0.2647
376.194	0.2629
376.4015	0.2613
376.609	0.2592
376.8165	0.2699
377.024	0.2649
377.2315	0.2663
377.4389	0.2544
377.6464	0.2612
377.8538	0.2635
378.0612	0.2731
378.2686	0.266
378.476	0.2727
378.6834	0.2639
378.8908	0.2696
379.0981	0.2705
379.3055	0.2698
379.5128	0.265
379.7201	0.274
379.9274	0.2666
380.1347	0.2789
380.342	0.2727
380.5492	0.272
380.7565	0.266
380.9637	0.2799
381.1709	0.2685
381.3781	0.2734
381.5853	0.2735
381.7925	0.2769
381.9997	0.28
382.2068	0.2862
382.4139	0.2788
382.6211	0.2751
382.8282	0.2873
383.0353	0.2817
383.2424	0.2781
383.4494	0.2804
383.6565	0.2813
383.8635	0.2655
384.0706	0.2799
384.2776	0.2757
384.4846	0.2761
384.6916	0.2801
384.8986	0.2905
385.1055	0.2854
385.3125	0.2837
385.5194	0.2999
385.7263	0.2851
385.9333	0.2812
386.1402	0.2833
386.347	0.2806
386.5539	0.2882
386.7608	0.2827
386.9676	0.2836
387.1744	0.2701
387.3813	0.2827
387.5881	0.2771
387.7948	0.2926
388.0016	0.2897
388.2084	0.2855
388.4151	0.2903
388.6219	0.2712
388.8286	0.2762
389.0353	0.2751
389.242	0.2844
389.4487	0.2794
389.6553	0.2663
389.862	0.2714
390.0686	0.2849
390.2753	0.285
390.4819	0.2691
390.6885	0.2762
390.8951	0.2698
391.1016	0.2756
391.3082	0.2742
391.5147	0.2667
391.7213	0.2616
391.9278	0.2644
392.1343	0.2723
392.3408	0.2795
392.5473	0.2621
392.7537	0.2673
392.9602	0.2551
393.1666	0.2656
393.373	0.2532
393.5794	0.2664
393.7858	0.2674
393.9922	0.2617
394.1986	0.2522
394.4049	0.252
394.6113	0.2604
394.8176	0.2637
395.0239	0.2564
395.2302	0.2525
395.4365	0.25
395.6428	0.2424
395.8491	0.2529
396.0553	0.244
396.2615	0.2469
396.4678	0.2561
396.674	0.2492
396.8802	0.2476
397.0863	0.2377
397.2925	0.2542
397.4987	0.2472
397.7048	0.2414
397.9109	0.2469
398.117	0.2409
398.3231	0.2422
398.5292	0.2289
398.7353	0.2407
398.9413	0.2425
399.1474	0.2423
399.3534	0.2391
399.5594	0.2482
399.7654	0.2437
399.9714	0.2373
400.1774	0.2402
400.3833	0.2428
400.5893	0.2406
400.7952	0.2403
401.0011	0.2409
401.207	0.241
401.4129	0.2364
401.6188	0.2382
401.8247	0.2423
402.0305	0.2409
402.2364	0.2455
402.4422	0.2387
402.648	0.2376
402.8538	0.2354
403.0596	0.2417
403.2654	0.2414
403.4711	0.2323
403.6768	0.2298
403.8826	0.248
404.0883	0.2344
404.294	0.2329
404.4997	0.2355
404.7054	0.2419
404.911	0.24
405.1167	0.2458
405.3223	0.2301
405.5279	0.2384
405.7335	0.2353
405.9391	0.2337
406.1447	0.2417
406.3502	0.232
406.5558	0.227
406.7613	0.2388
406.9668	0.2364
407.1724	0.239
407.3778	0.2394
407.5833	0.2312
407.7888	0.2414
407.9942	0.2379
408.1997	0.2273
408.4051	0.2387
408.6105	0.2373
408.8159	0.2341
409.0213	0.2368
409.2267	0.2387
409.432	0.234
409.6374	0.2418
409.8427	0.2417
410.048	0.2315
410.2533	0.2277
410.4586	0.2369
410.6639	0.2319
410.8691	0.2323
411.0744	0.2419
411.2796	0.2391
411.4848	0.2319
411.69	0.2258
411.8952	0.2352
412.1004	0.2305
412.3056	0.2262
412.5107	0.2323
412.7158	0.2426
412.921	0.2363
413.1261	0.231
413.3312	0.2371
413.5362	0.2421
413.7413	0.2451
413.9464	0.2256
414.1514	0.2324
414.3564	0.2293
414.5614	0.2277
414.7664	0.2267
414.9714	0.2251
415.1764	0.2325
415.3813	0.2327
415.5863	0.2408
415.7912	0.233
415.9961	0.2376
416.201	0.2362
416.4059	0.221
416.6108	0.2314
416.8156	0.2176
417.0205	0.2259
417.2253	0.232
417.4301	0.2287
417.6349	0.2147
417.8397	0.2251
418.0445	0.2259
418.2492	0.2212
418.454	0.2257
418.6587	0.2314
418.8634	0.2242
419.0681	0.2299
419.2728	0.2217
419.4775	0.2342
419.6822	0.2207
419.8868	0.2209
420.0915	0.2253
420.2961	0.2156
420.5007	0.2175
420.7053	0.2164
420.9099	0.2203
421.1144	0.2177
421.319	0.2141
421.5235	0.2093
421.728	0.2225
421.9325	0.2153
422.137	0.207
422.3415	0.2101
422.546	0.2046
422.7504	0.2084
422.9549	0.221
423.1593	0.2099
423.3637	0.2148
423.5681	0.2166
423.7725	0.2088
423.9769	0.208
424.1812	0.2036
424.3856	0.2118
424.5899	0.2037
424.7942	0.2015
424.9985	0.2059
425.2028	0.2028
425.4071	0.207
425.6113	0.2052
425.8156	0.2019
426.0198	0.1987
426.224	0.1956
426.4282	0.1857
426.6324	0.1934
