Data from D4ACN5uM420nmA_Absorbance_14-37-09-593.txt Node
Date: Fri Feb 21 14:37:09 GMT 2025
User: LASERRRRR
Spectrometer: FLMT03099
Trigger mode: 0
Integration Time (sec): 1.500000E-2
Scans to average: 1
Electric dark correction enabled: true
Nonlinearity correction enabled: false
Boxcar width: 0
XAxis mode: Wavelengths
Number of Pixels in Spectrum: 3648
>>>>>Begin Spectral Data<<<<<
179.3399	-0.7511
179.5586	-0.7511
179.7771	-0.7511
179.9957	-0.2835
180.2143	-1.2655
180.4329	0.9261
180.6514	-0
180.8699	-0
181.0885	-0
181.307	-0.0808
181.5255	0.0342
181.744	-0
181.9625	0.3772
182.181	-0.4019
182.3994	-0.6634
182.6179	-0.3325
182.8363	0.7601
183.0547	0.051
183.2732	0.0113
183.4916	0.2503
183.71	0.2927
183.9284	0.1036
184.1467	0.1645
184.3651	0.0538
184.5835	0.3395
184.8018	0.0863
185.0201	-0.0161
185.2385	0.1595
185.4568	0.016
185.6751	0.1198
185.8934	0.2907
186.1117	-0.0233
186.3299	0.173
186.5482	0.1936
186.7664	0.1359
186.9847	0.1806
187.2029	0.4828
187.4211	0.1151
187.6393	0.1971
187.8575	0.193
188.0757	0.2532
188.2939	0.0526
188.512	0.3475
188.7302	0.0948
188.9483	0.1629
189.1665	0.4257
189.3846	0.0879
189.6027	0.0273
189.8208	0.2305
190.0389	0.2091
190.257	0.0725
190.475	0.1497
190.6931	-0.0764
190.9111	0.0164
191.1292	-0.0168
191.3472	0.052
191.5652	0.1547
191.7832	0.0948
192.0012	0.0442
192.2192	0.0917
192.4371	0.068
192.6551	0.1474
192.873	0.0897
193.091	0.079
193.3089	0.1803
193.5268	0.1541
193.7447	0.0858
193.9626	0.1437
194.1805	0.2013
194.3984	0.2153
194.6162	0.3419
194.8341	0.3244
195.0519	0.2006
195.2697	0.2551
195.4875	0.2572
195.7054	0.2994
195.9231	0.2143
196.1409	0.3834
196.3587	0.3075
196.5765	0.3393
196.7942	0.2383
197.012	0.3497
197.2297	0.3434
197.4474	0.3331
197.6651	0.3024
197.8828	0.2776
198.1005	0.3772
198.3182	0.3945
198.5358	0.3719
198.7535	0.3713
198.9711	0.39
199.1888	0.3182
199.4064	0.4192
199.624	0.41
199.8416	0.3336
200.0592	0.3517
200.2767	0.378
200.4943	0.456
200.7119	0.3605
200.9294	0.4065
201.1469	0.437
201.3645	0.4176
201.582	0.376
201.7995	0.3995
202.017	0.4059
202.2344	0.403
202.4519	0.393
202.6694	0.3808
202.8868	0.3591
203.1042	0.3786
203.3217	0.3815
203.5391	0.374
203.7565	0.3598
203.9739	0.3794
204.1913	0.3642
204.4086	0.3336
204.626	0.3605
204.8433	0.3287
205.0607	0.3428
205.278	0.3254
205.4953	0.3457
205.7126	0.3336
205.9299	0.3206
206.1472	0.3208
206.3644	0.353
206.5817	0.2903
206.7989	0.3414
207.0162	0.3155
207.2334	0.3249
207.4506	0.3096
207.6678	0.3367
207.885	0.2898
208.1022	0.3175
208.3194	0.3044
208.5365	0.2858
208.7537	0.2912
208.9708	0.2919
209.1879	0.2881
209.405	0.2882
209.6222	0.2494
209.8392	0.3069
210.0563	0.2723
210.2734	0.2624
210.4905	0.2413
210.7075	0.2777
210.9245	0.2394
211.1416	0.2637
211.3586	0.2613
211.5756	0.2348
211.7926	0.2669
212.0096	0.2531
212.2265	0.2736
212.4435	0.2681
212.6604	0.2449
212.8774	0.2573
213.0943	0.2492
213.3112	0.2217
213.5281	0.229
213.745	0.2286
213.9619	0.2528
214.1788	0.2357
214.3956	0.2343
214.6125	0.2547
214.8293	0.2314
215.0461	0.2312
215.2629	0.2305
215.4798	0.2353
215.6965	0.2304
215.9133	0.241
216.1301	0.2323
216.3469	0.2455
216.5636	0.2181
216.7803	0.2442
216.9971	0.2392
217.2138	0.2551
217.4305	0.2346
217.6472	0.2361
217.8639	0.238
218.0805	0.2317
218.2972	0.2427
218.5138	0.2464
218.7305	0.237
218.9471	0.2394
219.1637	0.2634
219.3803	0.2567
219.5969	0.244
219.8135	0.2516
220.0301	0.2527
220.2466	0.246
220.4632	0.2385
220.6797	0.2682
220.8962	0.2524
221.1127	0.2588
221.3292	0.2584
221.5457	0.2582
221.7622	0.2603
221.9787	0.2697
222.1951	0.2557
222.4116	0.2702
222.628	0.2772
222.8444	0.2783
223.0608	0.2717
223.2772	0.2862
223.4936	0.2744
223.71	0.2769
223.9264	0.2736
224.1427	0.2725
224.3591	0.2719
224.5754	0.2895
224.7917	0.2825
225.008	0.3025
225.2243	0.3045
225.4406	0.2839
225.6569	0.3035
225.8732	0.3033
226.0894	0.3061
226.3057	0.3054
226.5219	0.3206
226.7381	0.3149
226.9543	0.3055
227.1705	0.3091
227.3867	0.3081
227.6029	0.3309
227.8191	0.323
228.0352	0.3363
228.2513	0.3556
228.4675	0.3526
228.6836	0.35
228.8997	0.3474
229.1158	0.3458
229.3319	0.3511
229.548	0.3482
229.764	0.3588
229.9801	0.3733
230.1961	0.373
230.4121	0.3778
230.6282	0.3974
230.8442	0.3888
231.0602	0.3822
231.2761	0.3965
231.4921	0.4014
231.7081	0.4009
231.924	0.3983
232.14	0.4027
232.3559	0.405
232.5718	0.4126
232.7877	0.414
233.0036	0.3947
233.2195	0.4165
233.4353	0.4237
233.6512	0.4082
233.867	0.423
234.0829	0.4229
234.2987	0.4345
234.5145	0.4374
234.7303	0.431
234.9461	0.4401
235.1619	0.4524
235.3776	0.436
235.5934	0.4351
235.8091	0.4453
236.0249	0.4476
236.2406	0.4452
236.4563	0.4567
236.672	0.4554
236.8877	0.4464
237.1034	0.4422
237.319	0.4603
237.5347	0.4411
237.7503	0.4419
237.966	0.4682
238.1816	0.4552
238.3972	0.4629
238.6128	0.4621
238.8284	0.4535
239.0439	0.459
239.2595	0.4604
239.475	0.4511
239.6906	0.4628
239.9061	0.4697
240.1216	0.4633
240.3371	0.4648
240.5526	0.4767
240.7681	0.4687
240.9836	0.4589
241.199	0.4612
241.4145	0.4581
241.6299	0.4605
241.8453	0.4451
242.0607	0.4446
242.2761	0.4444
242.4915	0.4372
242.7069	0.429
242.9223	0.4322
243.1376	0.4252
243.353	0.424
243.5683	0.4076
243.7836	0.4045
243.9989	0.3967
244.2142	0.3907
244.4295	0.3885
244.6448	0.3806
244.86	0.3747
245.0753	0.3618
245.2905	0.3554
245.5057	0.3544
245.721	0.3482
245.9362	0.3386
246.1514	0.3291
246.3665	0.3296
246.5817	0.314
246.7969	0.3083
247.012	0.3062
247.2271	0.3019
247.4423	0.2938
247.6574	0.2894
247.8725	0.2862
248.0876	0.2796
248.3026	0.2745
248.5177	0.2616
248.7328	0.2592
248.9478	0.2587
249.1628	0.2573
249.3779	0.2526
249.5929	0.2398
249.8079	0.2435
250.0228	0.2349
250.2378	0.2379
250.4528	0.2359
250.6677	0.2246
250.8827	0.2192
251.0976	0.2203
251.3125	0.2205
251.5274	0.2171
251.7423	0.2153
251.9572	0.2156
252.172	0.2117
252.3869	0.2084
252.6017	0.2037
252.8166	0.205
253.0314	0.1989
253.2462	0.1997
253.461	0.2007
253.6758	0.1969
253.8906	0.1928
254.1053	0.1913
254.3201	0.1984
254.5348	0.1868
254.7496	0.186
254.9643	0.1999
255.179	0.1913
255.3937	0.1934
255.6083	0.1964
255.823	0.1876
256.0377	0.1904
256.2523	0.1917
256.467	0.1906
256.6816	0.1793
256.8962	0.1904
257.1108	0.1926
257.3254	0.1881
257.54	0.1862
257.7545	0.1897
257.9691	0.1833
258.1836	0.1736
258.3981	0.1806
258.6127	0.1807
258.8272	0.1871
259.0417	0.1797
259.2561	0.1858
259.4706	0.18
259.6851	0.1822
259.8995	0.1785
260.114	0.1836
260.3284	0.179
260.5428	0.1792
260.7572	0.1768
260.9716	0.1832
261.186	0.1876
261.4003	0.1809
261.6147	0.1894
261.829	0.1788
262.0433	0.1894
262.2577	0.1806
262.472	0.1819
262.6863	0.1913
262.9005	0.1885
263.1148	0.1857
263.3291	0.1897
263.5433	0.1886
263.7576	0.1939
263.9718	0.1883
264.186	0.1938
264.4002	0.1941
264.6144	0.1976
264.8286	0.1954
265.0427	0.1948
265.2569	0.1991
265.471	0.1977
265.6851	0.1993
265.8993	0.1874
266.1134	0.1978
266.3275	0.1935
266.5415	0.2009
266.7556	0.202
266.9697	0.1959
267.1837	0.1958
267.3978	0.2038
267.6118	0.1947
267.8258	0.2008
268.0398	0.2035
268.2538	0.2063
268.4677	0.2013
268.6817	0.2035
268.8957	0.194
269.1096	0.1918
269.3235	0.1971
269.5374	0.198
269.7514	0.1948
269.9652	0.1947
270.1791	0.1935
270.393	0.1932
270.6068	0.1942
270.8207	0.1891
271.0345	0.1942
271.2483	0.1812
271.4622	0.1882
271.676	0.1901
271.8897	0.1874
272.1035	0.1962
272.3173	0.1919
272.531	0.192
272.7448	0.1911
272.9585	0.1959
273.1722	0.1947
273.3859	0.1995
273.5996	0.1987
273.8133	0.1988
274.0269	0.1989
274.2406	0.2017
274.4542	0.1987
274.6679	0.2032
274.8815	0.2058
275.0951	0.2099
275.3087	0.2132
275.5223	0.2075
275.7358	0.2161
275.9494	0.2113
276.1629	0.2134
276.3765	0.2171
276.59	0.2093
276.8035	0.2107
277.017	0.2182
277.2305	0.2164
277.444	0.2157
277.6574	0.2154
277.8709	0.2208
278.0843	0.2202
278.2978	0.2172
278.5112	0.2147
278.7246	0.2092
278.938	0.2096
279.1513	0.2138
279.3647	0.2079
279.5781	0.2102
279.7914	0.2086
280.0047	0.2128
280.2181	0.2035
280.4314	0.2089
280.6447	0.2085
280.8579	0.2005
281.0712	0.2056
281.2845	0.2024
281.4977	0.2023
281.711	0.1969
281.9242	0.1961
282.1374	0.2027
282.3506	0.1975
282.5638	0.2036
282.7769	0.1909
282.9901	0.1919
283.2033	0.1942
283.4164	0.2012
283.6295	0.1965
283.8426	0.1937
284.0557	0.2006
284.2688	0.1916
284.4819	0.1914
284.695	0.195
284.908	0.1892
285.1211	0.1925
285.3341	0.1939
285.5471	0.19
285.7601	0.1871
285.9731	0.1943
286.1861	0.1934
286.3991	0.1933
286.612	0.191
286.825	0.1861
287.0379	0.1914
287.2508	0.1907
287.4637	0.1928
287.6766	0.1858
287.8895	0.1866
288.1024	0.1886
288.3152	0.1923
288.5281	0.1842
288.7409	0.1908
288.9538	0.1901
289.1666	0.191
289.3794	0.1915
289.5922	0.1853
289.8049	0.1888
290.0177	0.1914
290.2304	0.1884
290.4432	0.1925
290.6559	0.1877
290.8686	0.1881
291.0813	0.1922
291.294	0.1918
291.5067	0.1845
291.7194	0.1834
291.932	0.1871
292.1447	0.1837
292.3573	0.1866
292.5699	0.187
292.7825	0.1786
292.9951	0.1811
293.2077	0.1826
293.4203	0.1861
293.6328	0.1839
293.8454	0.1863
294.0579	0.1877
294.2704	0.1876
294.4829	0.1805
294.6954	0.1791
294.9079	0.1797
295.1204	0.1816
295.3328	0.1872
295.5453	0.1897
295.7577	0.1892
295.9701	0.1838
296.1825	0.1811
296.3949	0.1807
296.6073	0.1858
296.8197	0.1846
297.0321	0.1868
297.2444	0.1836
297.4567	0.1855
297.6691	0.1836
297.8814	0.1865
298.0937	0.1853
298.306	0.187
298.5182	0.1934
298.7305	0.1824
298.9428	0.1848
299.155	0.1829
299.3672	0.1843
299.5794	0.1842
299.7916	0.1908
300.0038	0.1871
300.216	0.1886
300.4282	0.1851
300.6403	0.1937
300.8525	0.1827
301.0646	0.1901
301.2767	0.1842
301.4888	0.1875
301.7009	0.1876
301.913	0.1914
302.125	0.1853
302.3371	0.1859
302.5491	0.1819
302.7612	0.195
302.9732	0.1903
303.1852	0.1827
303.3972	0.187
303.6092	0.1849
303.8211	0.1855
304.0331	0.1852
304.245	0.1858
304.457	0.1841
304.6689	0.184
304.8808	0.1841
305.0927	0.1885
305.3046	0.1808
305.5164	0.1821
305.7283	0.1828
305.9401	0.1761
306.152	0.1785
306.3638	0.1786
306.5756	0.1782
306.7874	0.1793
306.9992	0.1736
307.2109	0.1716
307.4227	0.1702
307.6344	0.1784
307.8462	0.1684
308.0579	0.1778
308.2696	0.169
308.4813	0.1686
308.693	0.168
308.9046	0.1696
309.1163	0.1626
309.328	0.166
309.5396	0.1587
309.7512	0.16
309.9628	0.1603
310.1744	0.1587
310.386	0.1573
310.5976	0.1597
310.8091	0.1546
311.0207	0.1614
311.2322	0.1537
311.4437	0.1548
311.6552	0.1591
311.8667	0.151
312.0782	0.1504
312.2897	0.1548
312.5012	0.1507
312.7126	0.1481
312.924	0.1477
313.1355	0.1483
313.3469	0.1437
313.5583	0.1467
313.7696	0.1479
313.981	0.1554
314.1924	0.1428
314.4037	0.1481
314.6151	0.145
314.8264	0.1483
315.0377	0.1493
315.249	0.145
315.4603	0.1471
315.6716	0.1476
315.8828	0.1424
316.0941	0.1497
316.3053	0.1426
316.5165	0.1481
316.7277	0.1438
316.9389	0.1448
317.1501	0.1464
317.3613	0.1422
317.5724	0.1437
317.7836	0.1411
317.9947	0.1429
318.2058	0.1461
318.417	0.1419
318.6281	0.1445
318.8391	0.1473
319.0502	0.142
319.2613	0.1413
319.4723	0.1434
319.6834	0.1486
319.8944	0.1439
320.1054	0.1418
320.3164	0.1392
320.5274	0.1414
320.7383	0.1402
320.9493	0.1421
321.1602	0.138
321.3712	0.1432
321.5821	0.133
321.793	0.1491
322.0039	0.1418
322.2148	0.1447
322.4257	0.1398
322.6365	0.1401
322.8474	0.1462
323.0582	0.1444
323.269	0.1438
323.4798	0.1481
323.6906	0.1389
323.9014	0.1387
324.1122	0.1366
324.3229	0.1499
324.5337	0.1469
324.7444	0.1514
324.9551	0.1442
325.1658	0.1504
325.3765	0.1492
325.5872	0.1528
325.7979	0.1472
326.0085	0.1473
326.2192	0.1468
326.4298	0.1512
326.6404	0.1547
326.851	0.157
327.0616	0.1519
327.2722	0.152
327.4828	0.1536
327.6933	0.1621
327.9039	0.1558
328.1144	0.1584
328.3249	0.1586
328.5354	0.1592
328.7459	0.1542
328.9564	0.1596
329.1669	0.1623
329.3773	0.1583
329.5878	0.1601
329.7982	0.1638
330.0086	0.1644
330.219	0.1656
330.4294	0.1622
330.6398	0.1596
330.8502	0.1685
331.0605	0.1586
331.2708	0.1632
331.4812	0.1603
331.6915	0.159
331.9018	0.1578
332.1121	0.1692
332.3224	0.1569
332.5326	0.161
332.7429	0.1619
332.9531	0.1583
333.1633	0.1603
333.3735	0.1571
333.5837	0.1619
333.7939	0.1643
334.0041	0.1656
334.2143	0.1555
334.4244	0.168
334.6346	0.1612
334.8447	0.1634
335.0548	0.1674
335.2649	0.1596
335.475	0.1639
335.685	0.163
335.8951	0.1518
336.1051	0.1584
336.3152	0.1574
336.5252	0.1591
336.7352	0.1561
336.9452	0.1582
337.1552	0.1563
337.3652	0.153
337.5751	0.159
337.7851	0.1601
337.995	0.1603
338.2049	0.1548
338.4148	0.1554
338.6247	0.1641
338.8346	0.1541
339.0445	0.1635
339.2543	0.1531
339.4642	0.1576
339.674	0.1545
339.8838	0.1588
340.0936	0.1601
340.3034	0.1564
340.5132	0.1539
340.7229	0.1596
340.9327	0.1723
341.1424	0.159
341.3522	0.1555
341.5619	0.1654
341.7716	0.1634
341.9813	0.1597
342.1909	0.1631
342.4006	0.1673
342.6102	0.1635
342.8199	0.1688
343.0295	0.1604
343.2391	0.1722
343.4487	0.1772
343.6583	0.1751
343.8679	0.1692
344.0774	0.168
344.287	0.1712
344.4965	0.1736
344.706	0.1762
344.9155	0.1733
345.125	0.1773
345.3345	0.1846
345.544	0.1784
345.7534	0.1859
345.9629	0.182
346.1723	0.1881
346.3817	0.1832
346.5911	0.188
346.8005	0.1853
347.0099	0.1841
347.2193	0.1883
347.4286	0.1938
347.638	0.1911
347.8473	0.1935
348.0566	0.1918
348.2659	0.1949
348.4752	0.1884
348.6845	0.1941
348.8937	0.1895
349.103	0.192
349.3122	0.19
349.5214	0.1912
349.7306	0.1928
349.9398	0.1953
350.149	0.1931
350.3582	0.1964
350.5674	0.1997
350.7765	0.1946
350.9856	0.1882
351.1948	0.1961
351.4039	0.2019
351.613	0.1925
351.822	0.196
352.0311	0.1901
352.2402	0.1927
352.4492	0.1942
352.6582	0.1897
352.8672	0.1992
353.0762	0.1915
353.2852	0.1933
353.4942	0.1912
353.7032	0.1949
353.9121	0.1933
354.1211	0.1886
354.33	0.1929
354.5389	0.1924
354.7478	0.186
354.9567	0.1895
355.1655	0.1862
355.3744	0.188
355.5833	0.1888
355.7921	0.1973
356.0009	0.1957
356.2097	0.1821
356.4185	0.191
356.6273	0.1921
356.8361	0.1867
357.0448	0.1874
357.2536	0.1858
357.4623	0.1917
357.671	0.1881
357.8797	0.1925
358.0884	0.1869
358.2971	0.1891
358.5057	0.1919
358.7144	0.1925
358.923	0.1936
359.1316	0.1918
359.3402	0.1909
359.5488	0.1929
359.7574	0.1976
359.966	0.1933
360.1746	0.1924
360.3831	0.2009
360.5916	0.1958
360.8002	0.2027
361.0087	0.1983
361.2172	0.1964
361.4256	0.2001
361.6341	0.1967
361.8426	0.1965
362.051	0.2019
362.2594	0.1944
362.4678	0.1995
362.6762	0.208
362.8846	0.2018
363.093	0.2041
363.3014	0.2015
363.5097	0.1998
363.718	0.2039
363.9264	0.2104
364.1347	0.1983
364.343	0.2075
364.5513	0.2057
364.7595	0.2136
364.9678	0.2052
365.176	0.212
365.3842	0.2192
365.5925	0.2102
365.8007	0.21
366.0089	0.2144
366.217	0.2123
366.4252	0.2099
366.6333	0.2112
366.8415	0.2146
367.0496	0.2151
367.2577	0.2123
367.4658	0.2078
367.6739	0.212
367.882	0.2189
368.09	0.2127
368.2981	0.2234
368.5061	0.2175
368.7141	0.2142
368.9221	0.2254
369.1301	0.2192
369.3381	0.2249
369.5461	0.2155
369.754	0.2213
369.962	0.2177
370.1699	0.2225
370.3778	0.233
370.5857	0.2279
370.7936	0.2208
371.0015	0.2198
371.2093	0.2224
371.4172	0.2169
371.625	0.2202
371.8328	0.2265
372.0406	0.2322
372.2484	0.2315
372.4562	0.2271
372.664	0.2313
372.8717	0.2344
373.0795	0.2288
373.2872	0.2382
373.4949	0.2356
373.7026	0.2282
373.9103	0.2293
374.118	0.2377
374.3256	0.2385
374.5333	0.2346
374.7409	0.2332
374.9485	0.2318
375.1561	0.2391
375.3637	0.2359
375.5713	0.2382
375.7789	0.2316
375.9864	0.2313
376.194	0.2362
376.4015	0.2371
376.609	0.2381
376.8165	0.2414
377.024	0.2389
377.2315	0.2412
377.4389	0.2381
377.6464	0.2413
377.8538	0.2397
378.0612	0.2414
378.2686	0.2333
378.476	0.2554
378.6834	0.2446
378.8908	0.2452
379.0981	0.2454
379.3055	0.2503
379.5128	0.2379
379.7201	0.2443
379.9274	0.2457
380.1347	0.2489
380.342	0.2516
380.5492	0.2458
380.7565	0.2506
380.9637	0.248
381.1709	0.2477
381.3781	0.2566
381.5853	0.2428
381.7925	0.2488
381.9997	0.2475
382.2068	0.2526
382.4139	0.2417
382.6211	0.2527
382.8282	0.2517
383.0353	0.2608
383.2424	0.2524
383.4494	0.2529
383.6565	0.2546
383.8635	0.2461
384.0706	0.2546
384.2776	0.2603
384.4846	0.2588
384.6916	0.2528
384.8986	0.2568
385.1055	0.2598
385.3125	0.2667
385.5194	0.2527
385.7263	0.2544
385.9333	0.2613
386.1402	0.2569
386.347	0.2503
386.5539	0.2555
386.7608	0.2551
386.9676	0.2549
387.1744	0.2508
387.3813	0.2584
387.5881	0.2471
387.7948	0.262
388.0016	0.2588
388.2084	0.2529
388.4151	0.2536
388.6219	0.2434
388.8286	0.262
389.0353	0.2536
389.242	0.2587
389.4487	0.24
389.6553	0.2443
389.862	0.2473
390.0686	0.2562
390.2753	0.2477
390.4819	0.2498
390.6885	0.2441
390.8951	0.2554
391.1016	0.2535
391.3082	0.2457
391.5147	0.2487
391.7213	0.2423
391.9278	0.2414
392.1343	0.242
392.3408	0.2451
392.5473	0.2448
392.7537	0.244
392.9602	0.2346
393.1666	0.2409
393.373	0.2354
393.5794	0.2367
393.7858	0.2317
393.9922	0.2422
394.1986	0.228
394.4049	0.2217
394.6113	0.2259
394.8176	0.2315
395.0239	0.2289
395.2302	0.2266
395.4365	0.2319
395.6428	0.23
395.8491	0.2277
396.0553	0.222
396.2615	0.2217
396.4678	0.2225
396.674	0.2211
396.8802	0.2266
397.0863	0.2172
397.2925	0.2238
397.4987	0.212
397.7048	0.2185
397.9109	0.2204
398.117	0.2187
398.3231	0.2168
398.5292	0.2053
398.7353	0.2155
398.9413	0.2196
399.1474	0.2103
399.3534	0.2092
399.5594	0.219
399.7654	0.2121
399.9714	0.2212
400.1774	0.2137
400.3833	0.2131
400.5893	0.2192
400.7952	0.2208
401.0011	0.2192
401.207	0.2184
401.4129	0.2193
401.6188	0.2126
401.8247	0.2164
402.0305	0.2071
402.2364	0.2115
402.4422	0.2178
402.648	0.2095
402.8538	0.2173
403.0596	0.2084
403.2654	0.2161
403.4711	0.2127
403.6768	0.2122
403.8826	0.2116
404.0883	0.2109
404.294	0.2122
404.4997	0.2092
404.7054	0.2078
404.911	0.2062
405.1167	0.212
405.3223	0.2094
405.5279	0.2117
405.7335	0.2099
405.9391	0.1984
406.1447	0.2149
406.3502	0.2045
406.5558	0.2069
406.7613	0.2126
406.9668	0.2099
407.1724	0.2052
407.3778	0.2028
407.5833	0.2106
407.7888	0.2116
407.9942	0.2127
408.1997	0.2184
408.4051	0.2146
408.6105	0.2172
408.8159	0.2058
409.0213	0.2152
409.2267	0.2124
409.432	0.2057
409.6374	0.2171
409.8427	0.2134
410.048	0.212
410.2533	0.2124
410.4586	0.2138
410.6639	0.218
410.8691	0.2064
411.0744	0.2076
411.2796	0.2106
411.4848	0.2224
411.69	0.2059
411.8952	0.2058
412.1004	0.2128
412.3056	0.2075
412.5107	0.2074
412.7158	0.2214
412.921	0.2052
413.1261	0.2078
413.3312	0.2097
413.5362	0.2173
413.7413	0.2102
413.9464	0.2029
414.1514	0.2103
414.3564	0.2086
414.5614	0.2033
414.7664	0.1967
414.9714	0.2075
415.1764	0.2135
415.3813	0.2024
415.5863	0.213
415.7912	0.1948
415.9961	0.2047
416.201	0.2093
416.4059	0.1979
416.6108	0.2045
416.8156	0.2055
417.0205	0.2117
417.2253	0.199
417.4301	0.2042
417.6349	0.2036
417.8397	0.206
418.0445	0.1886
418.2492	0.1999
418.454	0.1995
418.6587	0.2142
418.8634	0.2057
419.0681	0.2136
419.2728	0.2052
419.4775	0.2119
419.6822	0.1959
419.8868	0.1946
420.0915	0.1935
420.2961	0.1868
420.5007	0.2027
420.7053	0.1872
420.9099	0.1935
421.1144	0.195
421.319	0.1907
421.5235	0.1885
421.728	0.196
421.9325	0.1988
422.137	0.1896
422.3415	0.1785
422.546	0.1826
422.7504	0.1913
422.9549	0.2021
423.1593	0.1806
423.3637	0.1891
423.5681	0.1935
423.7725	0.1903
423.9769	0.1908
424.1812	0.1817
424.3856	0.1809
424.5899	0.1823
424.7942	0.1848
424.9985	0.18
425.2028	0.1831
425.4071	0.1878
425.6113	0.1773
425.8156	0.1833
426.0198	0.1756
426.224	0.1865
426.4282	0.1675
426.6324	0.1714
