Data from D4ACN5uM420nmA_Absorbance_14-37-08-217.txt Node
Date: Fri Feb 21 14:37:08 GMT 2025
User: LASERRRRR
Spectrometer: FLMT03099
Trigger mode: 0
Integration Time (sec): 1.500000E-2
Scans to average: 1
Electric dark correction enabled: true
Nonlinearity correction enabled: false
Boxcar width: 0
XAxis mode: Wavelengths
Number of Pixels in Spectrum: 3648
>>>>>Begin Spectral Data<<<<<
179.3399	-0.6652
179.5586	-0.6652
179.7771	-0.6652
179.9957	0.2791
180.2143	-0
180.4329	-0.105
180.6514	-0
180.8699	0.4462
181.0885	-0
181.307	-0
181.5255	0.2257
181.744	-0
181.9625	0.1213
182.181	-0.1328
182.3994	-0.5446
182.6179	0.0237
182.8363	-0
183.0547	0.0086
183.2732	0.1401
183.4916	0.2265
183.71	0.2329
183.9284	0.1282
184.1467	0.2342
184.3651	0.704
184.5835	0.3184
184.8018	0.2988
185.0201	0.0702
185.2385	0.1045
185.4568	0.2332
185.6751	0.1637
185.8934	0.0766
186.1117	0.2648
186.3299	0.1214
186.5482	0.1452
186.7664	0.2154
186.9847	0.1194
187.2029	0.2944
187.4211	-0.0332
187.6393	0.2107
187.8575	0.6503
188.0757	0.3867
188.2939	0.0968
188.512	0.3202
188.7302	0.4994
188.9483	0.5944
189.1665	0.49
189.3846	0.6126
189.6027	0.1827
189.8208	0.651
190.0389	0.3813
190.257	0.0984
190.475	-0.0244
190.6931	0.2472
190.9111	0.1397
191.1292	0.1482
191.3472	0.209
191.5652	0.4683
191.7832	0.2996
192.0012	0.1275
192.2192	0.0771
192.4371	0.0606
192.6551	0.2447
192.873	0.1396
193.091	0.2269
193.3089	0.1743
193.5268	0.2042
193.7447	0.2735
193.9626	0.2404
194.1805	0.3094
194.3984	0.1798
194.6162	0.2654
194.8341	0.2783
195.0519	0.2473
195.2697	0.2057
195.4875	0.2833
195.7054	0.2705
195.9231	0.2679
196.1409	0.3046
196.3587	0.332
196.5765	0.3497
196.7942	0.2924
197.012	0.3694
197.2297	0.3669
197.4474	0.4236
197.6651	0.3689
197.8828	0.383
198.1005	0.3945
198.3182	0.4022
198.5358	0.3927
198.7535	0.4021
198.9711	0.3651
199.1888	0.3428
199.4064	0.3646
199.624	0.3918
199.8416	0.3343
200.0592	0.426
200.2767	0.4453
200.4943	0.4579
200.7119	0.3793
200.9294	0.3862
201.1469	0.4257
201.3645	0.3916
201.582	0.3515
201.7995	0.4205
202.017	0.4236
202.2344	0.4117
202.4519	0.3881
202.6694	0.422
202.8868	0.3921
203.1042	0.431
203.3217	0.4071
203.5391	0.4007
203.7565	0.3823
203.9739	0.3867
204.1913	0.3475
204.4086	0.3376
204.626	0.3695
204.8433	0.3539
205.0607	0.3639
205.278	0.374
205.4953	0.3256
205.7126	0.3344
205.9299	0.3155
206.1472	0.3455
206.3644	0.3481
206.5817	0.3344
206.7989	0.3199
207.0162	0.3074
207.2334	0.3299
207.4506	0.2986
207.6678	0.3142
207.885	0.2723
208.1022	0.2963
208.3194	0.2875
208.5365	0.3158
208.7537	0.3195
208.9708	0.3057
209.1879	0.288
209.405	0.2711
209.6222	0.2863
209.8392	0.3068
210.0563	0.2593
210.2734	0.2659
210.4905	0.2701
210.7075	0.2739
210.9245	0.2715
211.1416	0.2835
211.3586	0.2575
211.5756	0.2376
211.7926	0.2612
212.0096	0.2702
212.2265	0.2472
212.4435	0.2634
212.6604	0.2463
212.8774	0.245
213.0943	0.254
213.3112	0.2456
213.5281	0.2638
213.745	0.2447
213.9619	0.2509
214.1788	0.2571
214.3956	0.2447
214.6125	0.2433
214.8293	0.2449
215.0461	0.253
215.2629	0.2517
215.4798	0.2366
215.6965	0.2447
215.9133	0.2418
216.1301	0.2472
216.3469	0.2625
216.5636	0.2412
216.7803	0.247
216.9971	0.2626
217.2138	0.2482
217.4305	0.2472
217.6472	0.2388
217.8639	0.2463
218.0805	0.2426
218.2972	0.2406
218.5138	0.2669
218.7305	0.2527
218.9471	0.2401
219.1637	0.265
219.3803	0.2447
219.5969	0.2595
219.8135	0.2566
220.0301	0.2526
220.2466	0.2354
220.4632	0.2409
220.6797	0.2613
220.8962	0.2597
221.1127	0.2604
221.3292	0.2602
221.5457	0.2759
221.7622	0.2599
221.9787	0.2652
222.1951	0.267
222.4116	0.2719
222.628	0.2943
222.8444	0.2797
223.0608	0.2873
223.2772	0.2747
223.4936	0.2647
223.71	0.283
223.9264	0.2873
224.1427	0.2871
224.3591	0.2754
224.5754	0.2862
224.7917	0.2896
225.008	0.2949
225.2243	0.3081
225.4406	0.2934
225.6569	0.2983
225.8732	0.3179
226.0894	0.302
226.3057	0.3038
226.5219	0.3141
226.7381	0.323
226.9543	0.3131
227.1705	0.3143
227.3867	0.3206
227.6029	0.329
227.8191	0.3403
228.0352	0.3514
228.2513	0.3475
228.4675	0.3433
228.6836	0.3522
228.8997	0.337
229.1158	0.3584
229.3319	0.3598
229.548	0.356
229.764	0.3569
229.9801	0.375
230.1961	0.3809
230.4121	0.3655
230.6282	0.3871
230.8442	0.398
231.0602	0.3883
231.2761	0.3893
231.4921	0.3918
231.7081	0.3978
231.924	0.4088
232.14	0.4176
232.3559	0.4041
232.5718	0.4021
232.7877	0.4119
233.0036	0.4111
233.2195	0.4181
233.4353	0.4263
233.6512	0.4255
233.867	0.4294
234.0829	0.4477
234.2987	0.4362
234.5145	0.4271
234.7303	0.4418
234.9461	0.4473
235.1619	0.4466
235.3776	0.4487
235.5934	0.4438
235.8091	0.4503
236.0249	0.4487
236.2406	0.4378
236.4563	0.4572
236.672	0.4451
236.8877	0.4566
237.1034	0.4457
237.319	0.4583
237.5347	0.4598
237.7503	0.4626
237.966	0.4614
238.1816	0.4621
238.3972	0.4525
238.6128	0.4674
238.8284	0.4611
239.0439	0.4684
239.2595	0.4644
239.475	0.459
239.6906	0.4596
239.9061	0.4694
240.1216	0.4647
240.3371	0.4654
240.5526	0.4732
240.7681	0.4666
240.9836	0.4607
241.199	0.4543
241.4145	0.4586
241.6299	0.4631
241.8453	0.4425
242.0607	0.4475
242.2761	0.4419
242.4915	0.4355
242.7069	0.4232
242.9223	0.4325
243.1376	0.4161
243.353	0.4078
243.5683	0.4029
243.7836	0.4
243.9989	0.3831
244.2142	0.3841
244.4295	0.3743
244.6448	0.3776
244.86	0.3558
245.0753	0.3567
245.2905	0.3423
245.5057	0.3412
245.721	0.3409
245.9362	0.3369
246.1514	0.3217
246.3665	0.3298
246.5817	0.3087
246.7969	0.3107
247.012	0.3068
247.2271	0.305
247.4423	0.2899
247.6574	0.2894
247.8725	0.2847
248.0876	0.2792
248.3026	0.2742
248.5177	0.2669
248.7328	0.2516
248.9478	0.2507
249.1628	0.2578
249.3779	0.2532
249.5929	0.2474
249.8079	0.2458
250.0228	0.2436
250.2378	0.2359
250.4528	0.2363
250.6677	0.2343
250.8827	0.2273
251.0976	0.225
251.3125	0.2172
251.5274	0.2214
251.7423	0.2097
251.9572	0.2123
252.172	0.2131
252.3869	0.2108
252.6017	0.207
252.8166	0.2021
253.0314	0.2046
253.2462	0.2012
253.461	0.2026
253.6758	0.2006
253.8906	0.1986
254.1053	0.1954
254.3201	0.1995
254.5348	0.1967
254.7496	0.1918
254.9643	0.1974
255.179	0.1901
255.3937	0.1908
255.6083	0.1987
255.823	0.1901
256.0377	0.1855
256.2523	0.1895
256.467	0.1852
256.6816	0.1825
256.8962	0.1891
257.1108	0.1894
257.3254	0.1817
257.54	0.1885
257.7545	0.1883
257.9691	0.1823
258.1836	0.1812
258.3981	0.1833
258.6127	0.1774
258.8272	0.1871
259.0417	0.1837
259.2561	0.1789
259.4706	0.1848
259.6851	0.1856
259.8995	0.1839
260.114	0.1827
260.3284	0.1794
260.5428	0.1801
260.7572	0.1755
260.9716	0.1848
261.186	0.1832
261.4003	0.1806
261.6147	0.1826
261.829	0.1771
262.0433	0.1839
262.2577	0.1833
262.472	0.1825
262.6863	0.1884
262.9005	0.186
263.1148	0.1875
263.3291	0.1889
263.5433	0.1878
263.7576	0.1884
263.9718	0.1868
264.186	0.1857
264.4002	0.1865
264.6144	0.1978
264.8286	0.1893
265.0427	0.1926
265.2569	0.1918
265.471	0.1947
265.6851	0.1867
265.8993	0.1906
266.1134	0.1913
266.3275	0.1938
266.5415	0.1938
266.7556	0.1954
266.9697	0.1935
267.1837	0.197
267.3978	0.1916
267.6118	0.1879
267.8258	0.1957
268.0398	0.1901
268.2538	0.1915
268.4677	0.1955
268.6817	0.1874
268.8957	0.1806
269.1096	0.1809
269.3235	0.1877
269.5374	0.1901
269.7514	0.1869
269.9652	0.184
270.1791	0.1838
270.393	0.1886
270.6068	0.1889
270.8207	0.1866
271.0345	0.1827
271.2483	0.1779
271.4622	0.1832
271.676	0.1824
271.8897	0.1832
272.1035	0.1863
272.3173	0.1844
272.531	0.1826
272.7448	0.1848
272.9585	0.1825
273.1722	0.1803
273.3859	0.186
273.5996	0.1848
273.8133	0.1875
274.0269	0.1839
274.2406	0.1858
274.4542	0.1868
274.6679	0.1915
274.8815	0.191
275.0951	0.1897
275.3087	0.1948
275.5223	0.1863
275.7358	0.1933
275.9494	0.1905
276.1629	0.2001
276.3765	0.1955
276.59	0.1944
276.8035	0.1969
277.017	0.1913
277.2305	0.2003
277.444	0.1954
277.6574	0.1968
277.8709	0.1957
278.0843	0.201
278.2978	0.1934
278.5112	0.2021
278.7246	0.1912
278.938	0.198
279.1513	0.1963
279.3647	0.1954
279.5781	0.19
279.7914	0.198
280.0047	0.1962
280.2181	0.1959
280.4314	0.1927
280.6447	0.1998
280.8579	0.1896
281.0712	0.1921
281.2845	0.1916
281.4977	0.1971
281.711	0.187
281.9242	0.1921
282.1374	0.1964
282.3506	0.1955
282.5638	0.1906
282.7769	0.1882
282.9901	0.1962
283.2033	0.1943
283.4164	0.1934
283.6295	0.1886
283.8426	0.1915
284.0557	0.1964
284.2688	0.1895
284.4819	0.1848
284.695	0.1921
284.908	0.1912
285.1211	0.1964
285.3341	0.1856
285.5471	0.1946
285.7601	0.1951
285.9731	0.1871
286.1861	0.195
286.3991	0.1998
286.612	0.1937
286.825	0.1899
287.0379	0.1958
287.2508	0.1961
287.4637	0.1953
287.6766	0.1936
287.8895	0.1961
288.1024	0.1989
288.3152	0.1953
288.5281	0.1902
288.7409	0.1953
288.9538	0.1924
289.1666	0.1945
289.3794	0.1935
289.5922	0.1862
289.8049	0.1945
290.0177	0.1932
290.2304	0.1946
290.4432	0.1956
290.6559	0.1933
290.8686	0.1931
291.0813	0.1905
291.294	0.19
291.5067	0.1884
291.7194	0.1948
291.932	0.1892
292.1447	0.1936
292.3573	0.1952
292.5699	0.1922
292.7825	0.1936
292.9951	0.1938
293.2077	0.1931
293.4203	0.1925
293.6328	0.1916
293.8454	0.1992
294.0579	0.187
294.2704	0.1975
294.4829	0.1909
294.6954	0.193
294.9079	0.1959
295.1204	0.183
295.3328	0.2018
295.5453	0.1892
295.7577	0.2005
295.9701	0.1887
296.1825	0.1956
296.3949	0.1889
296.6073	0.1887
296.8197	0.1939
297.0321	0.1951
297.2444	0.1882
297.4567	0.1956
297.6691	0.1979
297.8814	0.1945
298.0937	0.1925
298.306	0.1927
298.5182	0.1984
298.7305	0.1939
298.9428	0.1969
299.155	0.1865
299.3672	0.1861
299.5794	0.1912
299.7916	0.1917
300.0038	0.1965
300.216	0.1923
300.4282	0.1921
300.6403	0.1978
300.8525	0.1887
301.0646	0.193
301.2767	0.1886
301.4888	0.1948
301.7009	0.1958
301.913	0.1974
302.125	0.1914
302.3371	0.1927
302.5491	0.1922
302.7612	0.1955
302.9732	0.1928
303.1852	0.192
303.3972	0.1969
303.6092	0.1954
303.8211	0.1967
304.0331	0.1914
304.245	0.192
304.457	0.1936
304.6689	0.1866
304.8808	0.1901
305.0927	0.1956
305.3046	0.1901
305.5164	0.1811
305.7283	0.1846
305.9401	0.1788
306.152	0.1811
306.3638	0.1814
306.5756	0.1844
306.7874	0.1792
306.9992	0.1751
307.2109	0.1775
307.4227	0.1738
307.6344	0.1777
307.8462	0.1718
308.0579	0.1774
308.2696	0.1754
308.4813	0.1738
308.693	0.1643
308.9046	0.1688
309.1163	0.17
309.328	0.1644
309.5396	0.1613
309.7512	0.1591
309.9628	0.1561
310.1744	0.1578
310.386	0.1513
310.5976	0.154
310.8091	0.1601
311.0207	0.1537
311.2322	0.1537
311.4437	0.1531
311.6552	0.1523
311.8667	0.1536
312.0782	0.1503
312.2897	0.1581
312.5012	0.1553
312.7126	0.1458
312.924	0.1476
313.1355	0.1464
313.3469	0.1445
313.5583	0.1434
313.7696	0.1399
313.981	0.1465
314.1924	0.1371
314.4037	0.1403
314.6151	0.1408
314.8264	0.1469
315.0377	0.1424
315.249	0.1456
315.4603	0.136
315.6716	0.1408
315.8828	0.1414
316.0941	0.142
316.3053	0.1404
316.5165	0.136
316.7277	0.1363
316.9389	0.1382
317.1501	0.1367
317.3613	0.1367
317.5724	0.1332
317.7836	0.1335
317.9947	0.1366
318.2058	0.1323
318.417	0.1347
318.6281	0.1313
318.8391	0.1408
319.0502	0.1347
319.2613	0.1376
319.4723	0.13
319.6834	0.1381
319.8944	0.1309
320.1054	0.1345
320.3164	0.132
320.5274	0.132
320.7383	0.1391
320.9493	0.1342
321.1602	0.1331
321.3712	0.1312
321.5821	0.1351
321.793	0.143
322.0039	0.1364
322.2148	0.1331
322.4257	0.1363
322.6365	0.1338
322.8474	0.1404
323.0582	0.138
323.269	0.131
323.4798	0.1339
323.6906	0.1311
323.9014	0.1342
324.1122	0.1325
324.3229	0.1397
324.5337	0.141
324.7444	0.1425
324.9551	0.143
325.1658	0.1399
325.3765	0.1419
325.5872	0.1423
325.7979	0.1392
326.0085	0.1395
326.2192	0.1379
326.4298	0.1409
326.6404	0.1454
326.851	0.1431
327.0616	0.1391
327.2722	0.1442
327.4828	0.1454
327.6933	0.1457
327.9039	0.14
328.1144	0.1398
328.3249	0.1418
328.5354	0.1498
328.7459	0.1459
328.9564	0.1441
329.1669	0.1523
329.3773	0.1459
329.5878	0.145
329.7982	0.1438
330.0086	0.1463
330.219	0.1416
330.4294	0.1469
330.6398	0.1482
330.8502	0.1537
331.0605	0.1433
331.2708	0.1476
331.4812	0.1487
331.6915	0.1509
331.9018	0.1505
332.1121	0.1542
332.3224	0.1525
332.5326	0.1451
332.7429	0.1467
332.9531	0.1528
333.1633	0.1497
333.3735	0.1496
333.5837	0.1494
333.7939	0.1471
334.0041	0.1505
334.2143	0.1485
334.4244	0.1565
334.6346	0.1495
334.8447	0.1501
335.0548	0.1538
335.2649	0.1539
335.475	0.1494
335.685	0.1527
335.8951	0.1443
336.1051	0.1601
336.3152	0.1532
336.5252	0.1563
336.7352	0.1509
336.9452	0.1528
337.1552	0.1483
337.3652	0.1388
337.5751	0.1527
337.7851	0.1577
337.995	0.1523
338.2049	0.149
338.4148	0.1461
338.6247	0.1533
338.8346	0.1543
339.0445	0.1514
339.2543	0.1463
339.4642	0.1494
339.674	0.1499
339.8838	0.1573
340.0936	0.1517
340.3034	0.1521
340.5132	0.1516
340.7229	0.1523
340.9327	0.1647
341.1424	0.1517
341.3522	0.1515
341.5619	0.1499
341.7716	0.1582
341.9813	0.1628
342.1909	0.156
342.4006	0.1635
342.6102	0.1565
342.8199	0.1626
343.0295	0.1625
343.2391	0.1658
343.4487	0.1607
343.6583	0.1736
343.8679	0.1561
344.0774	0.1606
344.287	0.1648
344.4965	0.1657
344.706	0.1653
344.9155	0.1613
345.125	0.1673
345.3345	0.1701
345.544	0.1769
345.7534	0.1771
345.9629	0.1803
346.1723	0.1738
346.3817	0.1751
346.5911	0.18
346.8005	0.18
347.0099	0.1794
347.2193	0.1824
347.4286	0.1844
347.638	0.1765
347.8473	0.1817
348.0566	0.1789
348.2659	0.1831
348.4752	0.1819
348.6845	0.1859
348.8937	0.1773
349.103	0.1826
349.3122	0.181
349.5214	0.1912
349.7306	0.1889
349.9398	0.178
350.149	0.1819
350.3582	0.1853
350.5674	0.1892
350.7765	0.1899
350.9856	0.1775
351.1948	0.1857
351.4039	0.1912
351.613	0.1823
351.822	0.1943
352.0311	0.1878
352.2402	0.1843
352.4492	0.1796
352.6582	0.1866
352.8672	0.1906
353.0762	0.1934
353.2852	0.1946
353.4942	0.1909
353.7032	0.1918
353.9121	0.1801
354.1211	0.1896
354.33	0.19
354.5389	0.1927
354.7478	0.1898
354.9567	0.1993
355.1655	0.1897
355.3744	0.1863
355.5833	0.1929
355.7921	0.1969
356.0009	0.1911
356.2097	0.1897
356.4185	0.1937
356.6273	0.1942
356.8361	0.1942
357.0448	0.1959
357.2536	0.1964
357.4623	0.1885
357.671	0.1999
357.8797	0.2002
358.0884	0.191
358.2971	0.1913
358.5057	0.2009
358.7144	0.2018
358.923	0.1999
359.1316	0.2005
359.3402	0.2033
359.5488	0.2024
359.7574	0.2044
359.966	0.2051
360.1746	0.1983
360.3831	0.207
360.5916	0.2058
360.8002	0.2107
361.0087	0.2006
361.2172	0.206
361.4256	0.2095
361.6341	0.2114
361.8426	0.2063
362.051	0.2186
362.2594	0.2011
362.4678	0.2115
362.6762	0.2152
362.8846	0.2154
363.093	0.2163
363.3014	0.2115
363.5097	0.2128
363.718	0.2153
363.9264	0.2166
364.1347	0.2194
364.343	0.2255
364.5513	0.2116
364.7595	0.2311
364.9678	0.2232
365.176	0.2229
365.3842	0.2257
365.5925	0.2254
365.8007	0.2215
366.0089	0.2317
366.217	0.2291
366.4252	0.2243
366.6333	0.2315
366.8415	0.2374
367.0496	0.2297
367.2577	0.2342
367.4658	0.2326
367.6739	0.2293
367.882	0.2405
368.09	0.2294
368.2981	0.2314
368.5061	0.2384
368.7141	0.2339
368.9221	0.2414
369.1301	0.2369
369.3381	0.2454
369.5461	0.2409
369.754	0.2424
369.962	0.236
370.1699	0.2512
370.3778	0.2471
370.5857	0.2461
370.7936	0.2453
371.0015	0.2475
371.2093	0.2475
371.4172	0.2416
371.625	0.2488
371.8328	0.2374
372.0406	0.2507
372.2484	0.2519
372.4562	0.2482
372.664	0.2496
372.8717	0.2448
373.0795	0.2599
373.2872	0.2614
373.4949	0.259
373.7026	0.2563
373.9103	0.2478
374.118	0.2499
374.3256	0.2611
374.5333	0.2593
374.7409	0.2611
374.9485	0.2589
375.1561	0.2652
375.3637	0.2591
375.5713	0.2682
375.7789	0.2651
375.9864	0.2606
376.194	0.271
376.4015	0.2639
376.609	0.2659
376.8165	0.267
377.024	0.272
377.2315	0.2643
377.4389	0.2662
377.6464	0.2666
377.8538	0.2684
378.0612	0.2728
378.2686	0.2654
378.476	0.2812
378.6834	0.2725
378.8908	0.2676
379.0981	0.2704
379.3055	0.2759
379.5128	0.2631
379.7201	0.2763
379.9274	0.2778
380.1347	0.2711
380.342	0.2835
380.5492	0.2681
380.7565	0.2761
380.9637	0.2794
381.1709	0.2723
381.3781	0.2892
381.5853	0.2826
381.7925	0.2775
381.9997	0.2845
382.2068	0.2837
382.4139	0.2807
382.6211	0.2847
382.8282	0.2834
383.0353	0.2915
383.2424	0.286
383.4494	0.2833
383.6565	0.2861
383.8635	0.277
384.0706	0.292
384.2776	0.2855
384.4846	0.284
384.6916	0.2918
384.8986	0.2905
385.1055	0.2869
385.3125	0.286
385.5194	0.2893
385.7263	0.286
385.9333	0.2913
386.1402	0.2896
386.347	0.282
386.5539	0.2825
386.7608	0.2916
386.9676	0.2946
387.1744	0.2888
387.3813	0.2855
387.5881	0.2783
387.7948	0.2877
388.0016	0.2939
388.2084	0.286
388.4151	0.2976
388.6219	0.2791
388.8286	0.2782
389.0353	0.2881
389.242	0.2845
389.4487	0.2947
389.6553	0.2858
389.862	0.2805
390.0686	0.2851
390.2753	0.2829
390.4819	0.2785
390.6885	0.2798
390.8951	0.2819
391.1016	0.288
391.3082	0.2732
391.5147	0.2652
391.7213	0.271
391.9278	0.2731
392.1343	0.2737
392.3408	0.2744
392.5473	0.2599
392.7537	0.284
392.9602	0.2662
393.1666	0.2677
393.373	0.2625
393.5794	0.2593
393.7858	0.2681
393.9922	0.2596
394.1986	0.2561
394.4049	0.261
394.6113	0.26
394.8176	0.27
395.0239	0.2567
395.2302	0.2553
395.4365	0.2585
395.6428	0.257
395.8491	0.2537
396.0553	0.2516
396.2615	0.2569
396.4678	0.2587
396.674	0.2445
396.8802	0.2453
397.0863	0.2569
397.2925	0.2538
397.4987	0.254
397.7048	0.2491
397.9109	0.2409
398.117	0.2347
398.3231	0.2454
398.5292	0.2354
398.7353	0.2502
398.9413	0.2408
399.1474	0.2409
399.3534	0.253
399.5594	0.2505
399.7654	0.2337
399.9714	0.2459
400.1774	0.2351
400.3833	0.2447
400.5893	0.2397
400.7952	0.2557
401.0011	0.2428
401.207	0.2393
401.4129	0.2491
401.6188	0.2453
401.8247	0.2469
402.0305	0.2433
402.2364	0.2507
402.4422	0.245
402.648	0.2416
402.8538	0.2475
403.0596	0.2342
403.2654	0.2443
403.4711	0.2351
403.6768	0.2407
403.8826	0.2438
404.0883	0.2405
404.294	0.2359
404.4997	0.2452
404.7054	0.2399
404.911	0.2405
405.1167	0.245
405.3223	0.2362
405.5279	0.2394
405.7335	0.2413
405.9391	0.2304
406.1447	0.2453
406.3502	0.2413
406.5558	0.2316
406.7613	0.2369
406.9668	0.2424
407.1724	0.2355
407.3778	0.2414
407.5833	0.2455
407.7888	0.2367
407.9942	0.248
408.1997	0.2418
408.4051	0.2418
408.6105	0.2516
408.8159	0.236
409.0213	0.2415
409.2267	0.2481
409.432	0.2433
409.6374	0.2422
409.8427	0.2463
410.048	0.2467
410.2533	0.2396
410.4586	0.2386
410.6639	0.2476
410.8691	0.2335
411.0744	0.2396
411.2796	0.2394
411.4848	0.2529
411.69	0.2296
411.8952	0.243
412.1004	0.2356
412.3056	0.2314
412.5107	0.2423
412.7158	0.2479
412.921	0.2429
413.1261	0.239
413.3312	0.2347
413.5362	0.244
413.7413	0.2326
413.9464	0.2267
414.1514	0.2324
414.3564	0.2283
414.5614	0.2381
414.7664	0.2324
414.9714	0.2304
415.1764	0.241
415.3813	0.2338
415.5863	0.2404
415.7912	0.232
415.9961	0.2359
416.201	0.2337
416.4059	0.2361
416.6108	0.227
416.8156	0.2337
417.0205	0.234
417.2253	0.2289
417.4301	0.2363
417.6349	0.2336
417.8397	0.2319
418.0445	0.2304
418.2492	0.224
418.454	0.2278
418.6587	0.2265
418.8634	0.2242
419.0681	0.2334
419.2728	0.2199
419.4775	0.2386
419.6822	0.2189
419.8868	0.2344
420.0915	0.2251
420.2961	0.2241
420.5007	0.2259
420.7053	0.2279
420.9099	0.2232
421.1144	0.2231
421.319	0.2185
421.5235	0.2179
421.728	0.2205
421.9325	0.2203
422.137	0.2218
422.3415	0.2152
422.546	0.2075
422.7504	0.2237
422.9549	0.2294
423.1593	0.2081
423.3637	0.2165
423.5681	0.2177
423.7725	0.2237
423.9769	0.2149
424.1812	0.2072
424.3856	0.2067
424.5899	0.2173
424.7942	0.2105
424.9985	0.2036
425.2028	0.2064
425.4071	0.2062
425.6113	0.2154
425.8156	0.1952
426.0198	0.2068
426.224	0.2057
426.4282	0.1998
426.6324	0.1943
426.8366	0.1941
