Data from D4ACN5uM420nmA_Absorbance_14-37-07-976.txt Node
Date: Fri Feb 21 14:37:07 GMT 2025
User: LASERRRRR
Spectrometer: FLMT03099
Trigger mode: 0
Integration Time (sec): 1.500000E-2
Scans to average: 1
Electric dark correction enabled: true
Nonlinearity correction enabled: false
Boxcar width: 0
XAxis mode: Wavelengths
Number of Pixels in Spectrum: 3648
>>>>>Begin Spectral Data<<<<<
179.3399	-0.9542
179.5586	-0.9542
179.7771	-0.9542
179.9957	-0.2326
180.2143	-1.6363
180.4329	-0.2128
180.6514	-0
180.8699	0.2657
181.0885	1.7947
181.307	-0
181.5255	0.0296
181.744	-0.4096
181.9625	0.3004
182.181	-0.1615
182.3994	-0.6213
182.6179	-0
182.8363	-0
183.0547	-0.1267
183.2732	0.0215
183.4916	0.401
183.71	0.0941
183.9284	-0.0261
184.1467	0.1521
184.3651	-0.066
184.5835	0.1217
184.8018	0.1478
185.0201	0.334
185.2385	0.0776
185.4568	0.2379
185.6751	0.032
185.8934	0.1506
186.1117	-0.0206
186.3299	-0.0166
186.5482	0.1833
186.7664	0.1565
186.9847	-0.0077
187.2029	0.3187
187.4211	0.0198
187.6393	0.1565
187.8575	0.1515
188.0757	0.4033
188.2939	0.0461
188.512	0.1841
188.7302	0.0046
188.9483	0.3578
189.1665	0.3849
189.3846	0.1355
189.6027	0.1247
189.8208	0.307
190.0389	0.0356
190.257	-0.0532
190.475	-0.0498
190.6931	-0.0721
190.9111	-0.079
191.1292	0.1247
191.3472	0.1319
191.5652	0.0987
191.7832	0.1346
192.0012	0.043
192.2192	0.0986
192.4371	0.1727
192.6551	0.1687
192.873	0.0299
193.091	0.1236
193.3089	0.0323
193.5268	0.1576
193.7447	0.1826
193.9626	0.1897
194.1805	0.0765
194.3984	0.1965
194.6162	0.2225
194.8341	0.2416
195.0519	0.1929
195.2697	0.178
195.4875	0.2525
195.7054	0.3215
195.9231	0.1959
196.1409	0.2837
196.3587	0.2924
196.5765	0.2719
196.7942	0.3069
197.012	0.3644
197.2297	0.2729
197.4474	0.3678
197.6651	0.3297
197.8828	0.3052
198.1005	0.4276
198.3182	0.3291
198.5358	0.3452
198.7535	0.3217
198.9711	0.3604
199.1888	0.3404
199.4064	0.347
199.624	0.315
199.8416	0.3487
200.0592	0.3961
200.2767	0.3612
200.4943	0.4105
200.7119	0.3962
200.9294	0.3615
201.1469	0.3793
201.3645	0.4171
201.582	0.4048
201.7995	0.4309
202.017	0.4055
202.2344	0.3994
202.4519	0.391
202.6694	0.3688
202.8868	0.4038
203.1042	0.4012
203.3217	0.4314
203.5391	0.3724
203.7565	0.3441
203.9739	0.3477
204.1913	0.3511
204.4086	0.3375
204.626	0.3737
204.8433	0.3707
205.0607	0.3531
205.278	0.3268
205.4953	0.3286
205.7126	0.3323
205.9299	0.3008
206.1472	0.2998
206.3644	0.3646
206.5817	0.3247
206.7989	0.308
207.0162	0.3239
207.2334	0.3489
207.4506	0.3031
207.6678	0.3013
207.885	0.2868
208.1022	0.3153
208.3194	0.2909
208.5365	0.3017
208.7537	0.2725
208.9708	0.2745
209.1879	0.2872
209.405	0.2861
209.6222	0.28
209.8392	0.2955
210.0563	0.2722
210.2734	0.2623
210.4905	0.2671
210.7075	0.2675
210.9245	0.2702
211.1416	0.27
211.3586	0.2651
211.5756	0.2532
211.7926	0.2612
212.0096	0.2612
212.2265	0.258
212.4435	0.2544
212.6604	0.2423
212.8774	0.228
213.0943	0.245
213.3112	0.2264
213.5281	0.2461
213.745	0.2215
213.9619	0.2522
214.1788	0.2578
214.3956	0.2327
214.6125	0.2555
214.8293	0.2487
215.0461	0.2432
215.2629	0.2423
215.4798	0.2463
215.6965	0.2495
215.9133	0.2413
216.1301	0.2405
216.3469	0.2411
216.5636	0.2508
216.7803	0.2415
216.9971	0.2423
217.2138	0.2434
217.4305	0.2422
217.6472	0.2484
217.8639	0.2601
218.0805	0.2608
218.2972	0.2451
218.5138	0.2398
218.7305	0.2593
218.9471	0.238
219.1637	0.273
219.3803	0.2514
219.5969	0.2519
219.8135	0.263
220.0301	0.2534
220.2466	0.2514
220.4632	0.2543
220.6797	0.2557
220.8962	0.2635
221.1127	0.2562
221.3292	0.2587
221.5457	0.2564
221.7622	0.2625
221.9787	0.2649
222.1951	0.2626
222.4116	0.2826
222.628	0.2767
222.8444	0.2665
223.0608	0.2756
223.2772	0.2864
223.4936	0.2668
223.71	0.2875
223.9264	0.2902
224.1427	0.285
224.3591	0.2981
224.5754	0.2844
224.7917	0.2888
225.008	0.2819
225.2243	0.3065
225.4406	0.2919
225.6569	0.3001
225.8732	0.3121
226.0894	0.3024
226.3057	0.3061
226.5219	0.3108
226.7381	0.3163
226.9543	0.3194
227.1705	0.3167
227.3867	0.3067
227.6029	0.3121
227.8191	0.3312
228.0352	0.3391
228.2513	0.3421
228.4675	0.3367
228.6836	0.3508
228.8997	0.3424
229.1158	0.3455
229.3319	0.363
229.548	0.3532
229.764	0.3517
229.9801	0.369
230.1961	0.3625
230.4121	0.3773
230.6282	0.3766
230.8442	0.3853
231.0602	0.3879
231.2761	0.3718
231.4921	0.3918
231.7081	0.3964
231.924	0.3955
232.14	0.4018
232.3559	0.4127
232.5718	0.4182
232.7877	0.4166
233.0036	0.4171
233.2195	0.4085
233.4353	0.4248
233.6512	0.4098
233.867	0.4173
234.0829	0.4284
234.2987	0.4248
234.5145	0.4429
234.7303	0.4361
234.9461	0.4366
235.1619	0.4358
235.3776	0.4318
235.5934	0.4305
235.8091	0.4382
236.0249	0.4477
236.2406	0.4504
236.4563	0.4602
236.672	0.431
236.8877	0.4539
237.1034	0.4518
237.319	0.4548
237.5347	0.4492
237.7503	0.4389
237.966	0.4662
238.1816	0.4579
238.3972	0.4494
238.6128	0.4638
238.8284	0.4721
239.0439	0.4689
239.2595	0.4586
239.475	0.4551
239.6906	0.4636
239.9061	0.466
240.1216	0.4567
240.3371	0.4622
240.5526	0.4716
240.7681	0.4532
240.9836	0.4663
241.199	0.461
241.4145	0.4474
241.6299	0.4547
241.8453	0.4469
242.0607	0.4329
242.2761	0.4444
242.4915	0.4309
242.7069	0.4184
242.9223	0.4265
243.1376	0.4106
243.353	0.4092
243.5683	0.4065
243.7836	0.3969
243.9989	0.3851
244.2142	0.3812
244.4295	0.3722
244.6448	0.3701
244.86	0.3606
245.0753	0.3559
245.2905	0.3528
245.5057	0.3394
245.721	0.3375
245.9362	0.3333
246.1514	0.3265
246.3665	0.3176
246.5817	0.3047
246.7969	0.3034
247.012	0.2935
247.2271	0.3033
247.4423	0.2879
247.6574	0.2878
247.8725	0.2754
248.0876	0.2748
248.3026	0.2775
248.5177	0.2616
248.7328	0.259
248.9478	0.2563
249.1628	0.2498
249.3779	0.2469
249.5929	0.2401
249.8079	0.2464
250.0228	0.235
250.2378	0.2342
250.4528	0.2337
250.6677	0.2235
250.8827	0.2218
251.0976	0.2205
251.3125	0.2204
251.5274	0.2176
251.7423	0.2105
251.9572	0.2104
252.172	0.2116
252.3869	0.2102
252.6017	0.211
252.8166	0.2094
253.0314	0.1988
253.2462	0.2042
253.461	0.1948
253.6758	0.1994
253.8906	0.1995
254.1053	0.1965
254.3201	0.1972
254.5348	0.1906
254.7496	0.1855
254.9643	0.1972
255.179	0.1878
255.3937	0.1885
255.6083	0.1938
255.823	0.1874
256.0377	0.1874
256.2523	0.1875
256.467	0.1866
256.6816	0.1792
256.8962	0.1878
257.1108	0.1839
257.3254	0.1889
257.54	0.1815
257.7545	0.188
257.9691	0.1874
258.1836	0.1737
258.3981	0.18
258.6127	0.1752
258.8272	0.1842
259.0417	0.1787
259.2561	0.1773
259.4706	0.1882
259.6851	0.1823
259.8995	0.1787
260.114	0.1789
260.3284	0.1777
260.5428	0.1795
260.7572	0.181
260.9716	0.1827
261.186	0.182
261.4003	0.1773
261.6147	0.1766
261.829	0.1826
262.0433	0.1828
262.2577	0.1866
262.472	0.1826
262.6863	0.1791
262.9005	0.186
263.1148	0.1855
263.3291	0.1866
263.5433	0.1861
263.7576	0.1883
263.9718	0.1843
264.186	0.1901
264.4002	0.1876
264.6144	0.1953
264.8286	0.1849
265.0427	0.1902
265.2569	0.1893
265.471	0.1877
265.6851	0.1884
265.8993	0.1854
266.1134	0.1855
266.3275	0.1902
266.5415	0.1889
266.7556	0.1939
266.9697	0.1911
267.1837	0.1867
267.3978	0.1908
267.6118	0.1843
267.8258	0.1945
268.0398	0.1912
268.2538	0.1891
268.4677	0.1865
268.6817	0.1904
268.8957	0.1832
269.1096	0.18
269.3235	0.1892
269.5374	0.1928
269.7514	0.1835
269.9652	0.1908
270.1791	0.1775
270.393	0.1841
270.6068	0.1798
270.8207	0.1796
271.0345	0.1818
271.2483	0.1758
271.4622	0.183
271.676	0.1808
271.8897	0.1792
272.1035	0.1918
272.3173	0.1802
272.531	0.1832
272.7448	0.1772
272.9585	0.1792
273.1722	0.1831
273.3859	0.1852
273.5996	0.1822
273.8133	0.1871
274.0269	0.1815
274.2406	0.1858
274.4542	0.183
274.6679	0.1832
274.8815	0.1885
275.0951	0.1883
275.3087	0.1903
275.5223	0.184
275.7358	0.194
275.9494	0.1913
276.1629	0.1975
276.3765	0.1859
276.59	0.185
276.8035	0.1882
277.017	0.1977
277.2305	0.1878
277.444	0.1936
277.6574	0.1966
277.8709	0.2001
278.0843	0.192
278.2978	0.1909
278.5112	0.1926
278.7246	0.1962
278.938	0.1937
279.1513	0.1938
279.3647	0.1901
279.5781	0.1948
279.7914	0.1947
280.0047	0.1996
280.2181	0.1892
280.4314	0.1891
280.6447	0.1974
280.8579	0.1912
281.0712	0.1877
281.2845	0.1937
281.4977	0.1934
281.711	0.1906
281.9242	0.1931
282.1374	0.1842
282.3506	0.1888
282.5638	0.1926
282.7769	0.1832
282.9901	0.1955
283.2033	0.1923
283.4164	0.1874
283.6295	0.1834
283.8426	0.1922
284.0557	0.1929
284.2688	0.1916
284.4819	0.1788
284.695	0.1939
284.908	0.1886
285.1211	0.1918
285.3341	0.1918
285.5471	0.1928
285.7601	0.1933
285.9731	0.1868
286.1861	0.1944
286.3991	0.1934
286.612	0.1934
286.825	0.1874
287.0379	0.1902
287.2508	0.1923
287.4637	0.1956
287.6766	0.1973
287.8895	0.1914
288.1024	0.1935
288.3152	0.194
288.5281	0.1895
288.7409	0.1971
288.9538	0.1918
289.1666	0.1937
289.3794	0.1997
289.5922	0.1911
289.8049	0.1922
290.0177	0.1955
290.2304	0.1945
290.4432	0.1975
290.6559	0.1946
290.8686	0.1922
291.0813	0.1896
291.294	0.1933
291.5067	0.1852
291.7194	0.1904
291.932	0.1905
292.1447	0.194
292.3573	0.1941
292.5699	0.1931
292.7825	0.1935
292.9951	0.1914
293.2077	0.1955
293.4203	0.1917
293.6328	0.1896
293.8454	0.1893
294.0579	0.1905
294.2704	0.196
294.4829	0.1947
294.6954	0.1903
294.9079	0.1916
295.1204	0.1852
295.3328	0.1984
295.5453	0.1971
295.7577	0.1922
295.9701	0.1931
296.1825	0.1942
296.3949	0.1878
296.6073	0.1841
296.8197	0.1957
297.0321	0.1987
297.2444	0.191
297.4567	0.1917
297.6691	0.1911
297.8814	0.1974
298.0937	0.1909
298.306	0.1893
298.5182	0.1934
298.7305	0.1938
298.9428	0.1898
299.155	0.1911
299.3672	0.1922
299.5794	0.1907
299.7916	0.1927
300.0038	0.19
300.216	0.1937
300.4282	0.1925
300.6403	0.1985
300.8525	0.1915
301.0646	0.1957
301.2767	0.1912
301.4888	0.1957
301.7009	0.1933
301.913	0.1914
302.125	0.1898
302.3371	0.1948
302.5491	0.1934
302.7612	0.1968
302.9732	0.1979
303.1852	0.1949
303.3972	0.1916
303.6092	0.1976
303.8211	0.1942
304.0331	0.1921
304.245	0.1897
304.457	0.1903
304.6689	0.1883
304.8808	0.1897
305.0927	0.191
305.3046	0.1859
305.5164	0.1853
305.7283	0.1888
305.9401	0.1817
306.152	0.1871
306.3638	0.184
306.5756	0.1838
306.7874	0.1793
306.9992	0.1774
307.2109	0.1784
307.4227	0.1751
307.6344	0.1764
307.8462	0.1707
308.0579	0.1804
308.2696	0.1707
308.4813	0.1751
308.693	0.1716
308.9046	0.1677
309.1163	0.1703
309.328	0.1651
309.5396	0.1589
309.7512	0.1572
309.9628	0.1621
310.1744	0.1615
310.386	0.1514
310.5976	0.1549
310.8091	0.1599
311.0207	0.1512
311.2322	0.1493
311.4437	0.1515
311.6552	0.1507
311.8667	0.1526
312.0782	0.1488
312.2897	0.1487
312.5012	0.1468
312.7126	0.1412
312.924	0.1421
313.1355	0.1419
313.3469	0.1431
313.5583	0.1402
313.7696	0.1368
313.981	0.1444
314.1924	0.1379
314.4037	0.1356
314.6151	0.1391
314.8264	0.1469
315.0377	0.1355
315.249	0.144
315.4603	0.1381
315.6716	0.1424
315.8828	0.1379
316.0941	0.1381
316.3053	0.1327
316.5165	0.1416
316.7277	0.1383
316.9389	0.1369
317.1501	0.1339
317.3613	0.1352
317.5724	0.1323
317.7836	0.1307
317.9947	0.1296
318.2058	0.1288
318.417	0.1312
318.6281	0.1299
318.8391	0.1335
319.0502	0.1321
319.2613	0.135
319.4723	0.1266
319.6834	0.1369
319.8944	0.1327
320.1054	0.1296
320.3164	0.1322
320.5274	0.1264
320.7383	0.1368
320.9493	0.1345
321.1602	0.1268
321.3712	0.1277
321.5821	0.1272
321.793	0.1368
322.0039	0.1423
322.2148	0.1339
322.4257	0.1309
322.6365	0.1289
322.8474	0.1319
323.0582	0.1367
323.269	0.1339
323.4798	0.1361
323.6906	0.1323
323.9014	0.1269
324.1122	0.1318
324.3229	0.1353
324.5337	0.1359
324.7444	0.1397
324.9551	0.1408
325.1658	0.1344
325.3765	0.1351
325.5872	0.1374
325.7979	0.1395
326.0085	0.1333
326.2192	0.132
326.4298	0.1369
326.6404	0.1392
326.851	0.135
327.0616	0.137
327.2722	0.1396
327.4828	0.1382
327.6933	0.1419
327.9039	0.1421
328.1144	0.1386
328.3249	0.1463
328.5354	0.1406
328.7459	0.1416
328.9564	0.1448
329.1669	0.1464
329.3773	0.1429
329.5878	0.1438
329.7982	0.1434
330.0086	0.1447
330.219	0.1439
330.4294	0.1447
330.6398	0.143
330.8502	0.1514
331.0605	0.1466
331.2708	0.1473
331.4812	0.1395
331.6915	0.1499
331.9018	0.1481
332.1121	0.1498
332.3224	0.1458
332.5326	0.1435
332.7429	0.1444
332.9531	0.1476
333.1633	0.1374
333.3735	0.1435
333.5837	0.1466
333.7939	0.1417
334.0041	0.1532
334.2143	0.1471
334.4244	0.151
334.6346	0.1407
334.8447	0.1494
335.0548	0.1541
335.2649	0.1541
335.475	0.1523
335.685	0.1476
335.8951	0.1489
336.1051	0.1479
336.3152	0.1514
336.5252	0.1456
336.7352	0.144
336.9452	0.1481
337.1552	0.1466
337.3652	0.148
337.5751	0.1484
337.7851	0.1507
337.995	0.1525
338.2049	0.146
338.4148	0.1503
338.6247	0.151
338.8346	0.1475
339.0445	0.1536
339.2543	0.1508
339.4642	0.1546
339.674	0.1469
339.8838	0.1551
340.0936	0.1554
340.3034	0.1492
340.5132	0.1473
340.7229	0.1521
340.9327	0.1599
341.1424	0.148
341.3522	0.1422
341.5619	0.1576
341.7716	0.1575
341.9813	0.1584
342.1909	0.159
342.4006	0.1601
342.6102	0.162
342.8199	0.1512
343.0295	0.1555
343.2391	0.1583
343.4487	0.1605
343.6583	0.1678
343.8679	0.1578
344.0774	0.1589
344.287	0.1608
344.4965	0.166
344.706	0.1686
344.9155	0.1646
345.125	0.1624
345.3345	0.1699
345.544	0.1652
345.7534	0.1696
345.9629	0.1678
346.1723	0.1714
346.3817	0.1693
346.5911	0.1713
346.8005	0.1795
347.0099	0.1716
347.2193	0.1775
347.4286	0.1768
347.638	0.1796
347.8473	0.1774
348.0566	0.1671
348.2659	0.1747
348.4752	0.1735
348.6845	0.1767
348.8937	0.1764
349.103	0.1751
349.3122	0.1815
349.5214	0.1837
349.7306	0.1878
349.9398	0.1838
350.149	0.1813
350.3582	0.1806
350.5674	0.1852
350.7765	0.1867
350.9856	0.1786
351.1948	0.1867
351.4039	0.1764
351.613	0.1875
351.822	0.1868
352.0311	0.1907
352.2402	0.1865
352.4492	0.1903
352.6582	0.1929
352.8672	0.1906
353.0762	0.185
353.2852	0.1873
353.4942	0.1889
353.7032	0.187
353.9121	0.1846
354.1211	0.1908
354.33	0.1923
354.5389	0.1913
354.7478	0.1842
354.9567	0.19
355.1655	0.1898
355.3744	0.1925
355.5833	0.1924
355.7921	0.1947
356.0009	0.1853
356.2097	0.1906
356.4185	0.1894
356.6273	0.1919
356.8361	0.1919
357.0448	0.1906
357.2536	0.1969
357.4623	0.1995
357.671	0.2007
357.8797	0.1966
358.0884	0.1922
358.2971	0.1918
358.5057	0.1991
358.7144	0.1964
358.923	0.2063
359.1316	0.2039
359.3402	0.1979
359.5488	0.1972
359.7574	0.1985
359.966	0.2047
360.1746	0.1946
360.3831	0.1987
360.5916	0.2059
360.8002	0.2062
361.0087	0.2047
361.2172	0.2086
361.4256	0.2109
361.6341	0.2099
361.8426	0.2022
362.051	0.2141
362.2594	0.2077
362.4678	0.2065
362.6762	0.2204
362.8846	0.2158
363.093	0.216
363.3014	0.2152
363.5097	0.2159
363.718	0.2161
363.9264	0.2249
364.1347	0.2198
364.343	0.2224
364.5513	0.2217
364.7595	0.2275
364.9678	0.2147
365.176	0.222
365.3842	0.2291
365.5925	0.2225
365.8007	0.2286
366.0089	0.2338
366.217	0.2302
366.4252	0.2305
366.6333	0.2356
366.8415	0.2313
367.0496	0.2265
367.2577	0.2319
367.4658	0.2261
367.6739	0.2355
367.882	0.2401
368.09	0.2334
368.2981	0.2405
368.5061	0.2358
368.7141	0.238
368.9221	0.2457
369.1301	0.2354
369.3381	0.2492
369.5461	0.2434
369.754	0.2479
369.962	0.2428
370.1699	0.2514
370.3778	0.2564
370.5857	0.2457
370.7936	0.2473
371.0015	0.2464
371.2093	0.2438
371.4172	0.251
371.625	0.25
371.8328	0.2503
372.0406	0.2545
372.2484	0.2442
372.4562	0.2531
372.664	0.2504
372.8717	0.25
373.0795	0.2593
373.2872	0.2567
373.4949	0.2532
373.7026	0.2533
373.9103	0.2467
374.118	0.2518
374.3256	0.261
374.5333	0.2515
374.7409	0.2647
374.9485	0.2577
375.1561	0.2653
375.3637	0.257
375.5713	0.2718
375.7789	0.2686
375.9864	0.2581
376.194	0.2655
376.4015	0.2528
376.609	0.2644
376.8165	0.2661
377.024	0.2715
377.2315	0.2655
377.4389	0.2668
377.6464	0.2747
377.8538	0.2656
378.0612	0.2707
378.2686	0.2731
378.476	0.2844
378.6834	0.273
378.8908	0.2765
379.0981	0.2758
379.3055	0.276
379.5128	0.2652
379.7201	0.2765
379.9274	0.2771
380.1347	0.2774
380.342	0.2865
380.5492	0.2821
380.7565	0.2885
380.9637	0.2786
381.1709	0.2796
381.3781	0.2981
381.5853	0.2894
381.7925	0.2845
381.9997	0.2879
382.2068	0.281
382.4139	0.2938
382.6211	0.2818
382.8282	0.2908
383.0353	0.295
383.2424	0.2857
383.4494	0.2813
383.6565	0.2928
383.8635	0.2844
384.0706	0.2944
384.2776	0.2836
384.4846	0.2903
384.6916	0.2918
384.8986	0.2917
385.1055	0.2939
385.3125	0.2957
385.5194	0.2993
385.7263	0.2904
385.9333	0.2965
386.1402	0.2864
386.347	0.2899
386.5539	0.2994
386.7608	0.2782
386.9676	0.2938
387.1744	0.2926
387.3813	0.2941
387.5881	0.2817
387.7948	0.2976
388.0016	0.3087
388.2084	0.2845
388.4151	0.2797
388.6219	0.2845
388.8286	0.2835
389.0353	0.2859
389.242	0.2926
389.4487	0.2794
389.6553	0.2797
389.862	0.2845
390.0686	0.2825
390.2753	0.2816
390.4819	0.2822
390.6885	0.2853
390.8951	0.287
391.1016	0.286
391.3082	0.2849
391.5147	0.2807
391.7213	0.2764
391.9278	0.2754
392.1343	0.2753
392.3408	0.2727
392.5473	0.2714
392.7537	0.2738
392.9602	0.2734
393.1666	0.266
393.373	0.2626
393.5794	0.267
393.7858	0.2714
393.9922	0.2659
394.1986	0.2651
394.4049	0.2583
394.6113	0.261
394.8176	0.2608
395.0239	0.2614
395.2302	0.259
395.4365	0.2622
395.6428	0.2524
395.8491	0.2645
396.0553	0.2498
396.2615	0.258
396.4678	0.2543
396.674	0.2508
396.8802	0.2478
397.0863	0.2491
397.2925	0.2522
397.4987	0.2515
397.7048	0.2543
397.9109	0.2495
398.117	0.2452
398.3231	0.2429
398.5292	0.2364
398.7353	0.2414
398.9413	0.2471
399.1474	0.2459
399.3534	0.2564
399.5594	0.2495
399.7654	0.2406
399.9714	0.249
400.1774	0.2415
400.3833	0.2494
400.5893	0.2431
400.7952	0.2475
401.0011	0.2474
401.207	0.2479
401.4129	0.2505
401.6188	0.2394
401.8247	0.2544
402.0305	0.24
402.2364	0.2541
402.4422	0.2543
402.648	0.2516
402.8538	0.2435
403.0596	0.2345
403.2654	0.2491
403.4711	0.236
403.6768	0.2452
403.8826	0.2567
404.0883	0.2456
404.294	0.2462
404.4997	0.2477
404.7054	0.251
404.911	0.2528
405.1167	0.258
405.3223	0.2403
405.5279	0.2387
405.7335	0.2457
405.9391	0.2424
406.1447	0.2453
406.3502	0.2422
406.5558	0.2455
406.7613	0.2418
406.9668	0.2507
407.1724	0.2483
407.3778	0.2438
407.5833	0.2391
407.7888	0.2376
407.9942	0.2405
408.1997	0.2469
408.4051	0.2474
408.6105	0.248
408.8159	0.2434
409.0213	0.2469
409.2267	0.2503
409.432	0.2462
409.6374	0.2487
409.8427	0.2481
410.048	0.243
410.2533	0.2395
410.4586	0.2355
410.6639	0.2391
410.8691	0.2338
411.0744	0.2449
411.2796	0.2487
411.4848	0.2369
411.69	0.2364
411.8952	0.2343
412.1004	0.2472
412.3056	0.2457
412.5107	0.2411
412.7158	0.2566
412.921	0.2447
413.1261	0.232
413.3312	0.2454
413.5362	0.2472
413.7413	0.2441
413.9464	0.2273
414.1514	0.2399
414.3564	0.235
414.5614	0.2302
414.7664	0.2317
414.9714	0.2359
415.1764	0.2344
415.3813	0.2412
415.5863	0.2421
415.7912	0.2293
415.9961	0.2317
416.201	0.2496
416.4059	0.2442
416.6108	0.2421
416.8156	0.2354
417.0205	0.2323
417.2253	0.2424
417.4301	0.2336
417.6349	0.227
417.8397	0.232
418.0445	0.2217
418.2492	0.2356
418.454	0.2383
418.6587	0.2354
418.8634	0.2337
419.0681	0.2313
419.2728	0.2389
419.4775	0.2474
419.6822	0.2206
419.8868	0.2276
420.0915	0.219
420.2961	0.2207
420.5007	0.2269
420.7053	0.2201
420.9099	0.2337
421.1144	0.2197
421.319	0.2257
421.5235	0.2219
421.728	0.2251
421.9325	0.229
422.137	0.2251
422.3415	0.21
422.546	0.208
422.7504	0.2144
422.9549	0.2133
423.1593	0.209
423.3637	0.2147
423.5681	0.221
423.7725	0.2195
423.9769	0.2208
424.1812	0.2139
424.3856	0.2076
424.5899	0.2016
424.7942	0.2172
424.9985	0.2097
425.2028	0.2158
425.4071	0.2075
425.6113	0.2155
425.8156	0.2031
426.0198	0.2051
426.224	0.2108
426.4282	0.209
