Data from D4ACN5uM420nmA_Absorbance_14-37-08-547.txt Node
Date: Fri Feb 21 14:37:08 GMT 2025
User: LASERRRRR
Spectrometer: FLMT03099
Trigger mode: 0
Integration Time (sec): 1.500000E-2
Scans to average: 1
Electric dark correction enabled: true
Nonlinearity correction enabled: false
Boxcar width: 0
XAxis mode: Wavelengths
Number of Pixels in Spectrum: 3648
>>>>>Begin Spectral Data<<<<<
179.3399	-0.1128
179.5586	-0.1128
179.7771	-0.1128
179.9957	-0.1942
180.2143	-0
180.4329	0.9374
180.6514	-0.3537
180.8699	0.1542
181.0885	0.5084
181.307	0.1783
181.5255	0.2753
181.744	-0.1335
181.9625	-0
182.181	-0.2588
182.3994	-0
182.6179	-0
182.8363	-0
183.0547	-0
183.2732	0.1638
183.4916	0.4043
183.71	0.2922
183.9284	0.3899
184.1467	0.0043
184.3651	0.1327
184.5835	0.2215
184.8018	0.0859
185.0201	0.1255
185.2385	0.3699
185.4568	0.1094
185.6751	0.0044
185.8934	0.1901
186.1117	0.0344
186.3299	0.2345
186.5482	0.3282
186.7664	0.153
186.9847	0.2243
187.2029	0.0774
187.4211	0.0138
187.6393	0.0322
187.8575	0.3197
188.0757	0.5357
188.2939	0.0107
188.512	0.2434
188.7302	0.2583
188.9483	0.2877
189.1665	0.4251
189.3846	0.23
189.6027	0.1598
189.8208	0.0977
190.0389	0.166
190.257	0.2467
190.475	0.0745
190.6931	0.0622
190.9111	0.0716
191.1292	0.1915
191.3472	0.2138
191.5652	-0.0659
191.7832	0.197
192.0012	0.0721
192.2192	0.1976
192.4371	0.1329
192.6551	0.1723
192.873	0.1838
193.091	0.108
193.3089	0.16
193.5268	0.1516
193.7447	0.2979
193.9626	0.2951
194.1805	0.1695
194.3984	0.162
194.6162	0.289
194.8341	0.3076
195.0519	0.2272
195.2697	0.2879
195.4875	0.3296
195.7054	0.2397
195.9231	0.2517
196.1409	0.3406
196.3587	0.3645
196.5765	0.3109
196.7942	0.2977
197.012	0.3542
197.2297	0.3206
197.4474	0.4103
197.6651	0.2699
197.8828	0.3591
198.1005	0.5129
198.3182	0.3473
198.5358	0.3574
198.7535	0.3926
198.9711	0.3315
199.1888	0.3522
199.4064	0.3862
199.624	0.3944
199.8416	0.3631
200.0592	0.4069
200.2767	0.4376
200.4943	0.412
200.7119	0.4164
200.9294	0.4204
201.1469	0.4379
201.3645	0.4468
201.582	0.4467
201.7995	0.4188
202.017	0.4238
202.2344	0.4278
202.4519	0.3898
202.6694	0.3945
202.8868	0.3829
203.1042	0.3884
203.3217	0.4073
203.5391	0.3688
203.7565	0.352
203.9739	0.3753
204.1913	0.3514
204.4086	0.3396
204.626	0.3605
204.8433	0.3495
205.0607	0.3752
205.278	0.3593
205.4953	0.3166
205.7126	0.3397
205.9299	0.3211
206.1472	0.3078
206.3644	0.3303
206.5817	0.3164
206.7989	0.3409
207.0162	0.3079
207.2334	0.3451
207.4506	0.3109
207.6678	0.2927
207.885	0.3058
208.1022	0.2929
208.3194	0.2961
208.5365	0.2886
208.7537	0.2949
208.9708	0.2838
209.1879	0.2775
209.405	0.2755
209.6222	0.2648
209.8392	0.2875
210.0563	0.2734
210.2734	0.2726
210.4905	0.255
210.7075	0.2604
210.9245	0.2749
211.1416	0.2807
211.3586	0.264
211.5756	0.2509
211.7926	0.2619
212.0096	0.2525
212.2265	0.2611
212.4435	0.2337
212.6604	0.2506
212.8774	0.2627
213.0943	0.2621
213.3112	0.2527
213.5281	0.2405
213.745	0.2448
213.9619	0.2403
214.1788	0.248
214.3956	0.2472
214.6125	0.2625
214.8293	0.2622
215.0461	0.2352
215.2629	0.2454
215.4798	0.2448
215.6965	0.2306
215.9133	0.2383
216.1301	0.2267
216.3469	0.2446
216.5636	0.2334
216.7803	0.2356
216.9971	0.2556
217.2138	0.2738
217.4305	0.2688
217.6472	0.2548
217.8639	0.2649
218.0805	0.2487
218.2972	0.2332
218.5138	0.2356
218.7305	0.2508
218.9471	0.2442
219.1637	0.2621
219.3803	0.2545
219.5969	0.2434
219.8135	0.2626
220.0301	0.2606
220.2466	0.2498
220.4632	0.2559
220.6797	0.2482
220.8962	0.2578
221.1127	0.2736
221.3292	0.2671
221.5457	0.2657
221.7622	0.2685
221.9787	0.2813
222.1951	0.2625
222.4116	0.2756
222.628	0.2789
222.8444	0.2773
223.0608	0.27
223.2772	0.2961
223.4936	0.293
223.71	0.2879
223.9264	0.2811
224.1427	0.2814
224.3591	0.2773
224.5754	0.289
224.7917	0.2892
225.008	0.2871
225.2243	0.3006
225.4406	0.283
225.6569	0.2995
225.8732	0.3106
226.0894	0.3052
226.3057	0.3045
226.5219	0.3051
226.7381	0.3185
226.9543	0.31
227.1705	0.317
227.3867	0.3184
227.6029	0.3275
227.8191	0.3392
228.0352	0.3373
228.2513	0.3438
228.4675	0.3407
228.6836	0.3536
228.8997	0.3468
229.1158	0.3521
229.3319	0.3604
229.548	0.3544
229.764	0.3541
229.9801	0.3796
230.1961	0.3686
230.4121	0.3658
230.6282	0.3764
230.8442	0.3836
231.0602	0.3785
231.2761	0.3754
231.4921	0.3911
231.7081	0.3915
231.924	0.4009
232.14	0.4102
232.3559	0.4119
232.5718	0.4212
232.7877	0.417
233.0036	0.4095
233.2195	0.4131
233.4353	0.4247
233.6512	0.4256
233.867	0.4318
234.0829	0.4354
234.2987	0.4236
234.5145	0.4353
234.7303	0.4341
234.9461	0.4469
235.1619	0.4445
235.3776	0.4313
235.5934	0.4398
235.8091	0.4453
236.0249	0.463
236.2406	0.4464
236.4563	0.4572
236.672	0.4538
236.8877	0.4474
237.1034	0.4483
237.319	0.4462
237.5347	0.4501
237.7503	0.4474
237.966	0.4668
238.1816	0.4565
238.3972	0.4626
238.6128	0.4601
238.8284	0.4641
239.0439	0.4583
239.2595	0.4637
239.475	0.4601
239.6906	0.4574
239.9061	0.4558
240.1216	0.46
240.3371	0.4557
240.5526	0.4658
240.7681	0.4663
240.9836	0.4584
241.199	0.4573
241.4145	0.4535
241.6299	0.4575
241.8453	0.4494
242.0607	0.4532
242.2761	0.4534
242.4915	0.427
242.7069	0.4321
242.9223	0.4352
243.1376	0.4209
243.353	0.415
243.5683	0.4059
243.7836	0.4014
243.9989	0.3881
244.2142	0.3936
244.4295	0.3781
244.6448	0.3813
244.86	0.3624
245.0753	0.3563
245.2905	0.3487
245.5057	0.346
245.721	0.3469
245.9362	0.3385
246.1514	0.3293
246.3665	0.3171
246.5817	0.3092
246.7969	0.3054
247.012	0.3
247.2271	0.3061
247.4423	0.2892
247.6574	0.2858
247.8725	0.2825
248.0876	0.28
248.3026	0.274
248.5177	0.2618
248.7328	0.2482
248.9478	0.2632
249.1628	0.2548
249.3779	0.2535
249.5929	0.2425
249.8079	0.2483
250.0228	0.2411
250.2378	0.2384
250.4528	0.231
250.6677	0.2284
250.8827	0.219
251.0976	0.2242
251.3125	0.2215
251.5274	0.2195
251.7423	0.211
251.9572	0.2098
252.172	0.209
252.3869	0.2147
252.6017	0.2052
252.8166	0.2082
253.0314	0.2006
253.2462	0.2022
253.461	0.2065
253.6758	0.1954
253.8906	0.1955
254.1053	0.2016
254.3201	0.1919
254.5348	0.1934
254.7496	0.1869
254.9643	0.1969
255.179	0.1895
255.3937	0.1976
255.6083	0.196
255.823	0.1846
256.0377	0.186
256.2523	0.1888
256.467	0.1878
256.6816	0.1864
256.8962	0.1949
257.1108	0.1895
257.3254	0.1888
257.54	0.1798
257.7545	0.1902
257.9691	0.1829
258.1836	0.178
258.3981	0.184
258.6127	0.1784
258.8272	0.185
259.0417	0.1781
259.2561	0.1862
259.4706	0.1815
259.6851	0.1819
259.8995	0.1809
260.114	0.18
260.3284	0.1801
260.5428	0.1824
260.7572	0.1828
260.9716	0.1857
261.186	0.1831
261.4003	0.18
261.6147	0.1776
261.829	0.1855
262.0433	0.1865
262.2577	0.1877
262.472	0.1832
262.6863	0.1917
262.9005	0.182
263.1148	0.1853
263.3291	0.1843
263.5433	0.1929
263.7576	0.1893
263.9718	0.1877
264.186	0.1907
264.4002	0.1893
264.6144	0.1971
264.8286	0.1898
265.0427	0.1937
265.2569	0.1958
265.471	0.1936
265.6851	0.1952
265.8993	0.1881
266.1134	0.1937
266.3275	0.1849
266.5415	0.1962
266.7556	0.1942
266.9697	0.1916
267.1837	0.198
267.3978	0.1928
267.6118	0.1917
267.8258	0.1976
268.0398	0.1972
268.2538	0.1969
268.4677	0.1935
268.6817	0.1917
268.8957	0.1844
269.1096	0.188
269.3235	0.1899
269.5374	0.188
269.7514	0.1864
269.9652	0.1875
270.1791	0.1856
270.393	0.1894
270.6068	0.1885
270.8207	0.1835
271.0345	0.1943
271.2483	0.1782
271.4622	0.1868
271.676	0.1857
271.8897	0.183
272.1035	0.1879
272.3173	0.1851
272.531	0.1879
272.7448	0.1897
272.9585	0.1909
273.1722	0.1834
273.3859	0.1915
273.5996	0.1832
273.8133	0.1941
274.0269	0.1848
274.2406	0.1895
274.4542	0.1919
274.6679	0.1941
274.8815	0.1983
275.0951	0.1999
275.3087	0.2016
275.5223	0.1918
275.7358	0.2005
275.9494	0.1965
276.1629	0.2074
276.3765	0.1947
276.59	0.1953
276.8035	0.1967
277.017	0.2046
277.2305	0.2018
277.444	0.2054
277.6574	0.204
277.8709	0.2074
278.0843	0.1989
278.2978	0.2051
278.5112	0.2006
278.7246	0.1981
278.938	0.1999
279.1513	0.2026
279.3647	0.2023
279.5781	0.1999
279.7914	0.1951
280.0047	0.2018
280.2181	0.2017
280.4314	0.1982
280.6447	0.1985
280.8579	0.1952
281.0712	0.1938
281.2845	0.1991
281.4977	0.1986
281.711	0.1952
281.9242	0.1964
282.1374	0.1988
282.3506	0.1921
282.5638	0.1934
282.7769	0.1902
282.9901	0.1971
283.2033	0.1941
283.4164	0.1927
283.6295	0.1919
283.8426	0.1911
284.0557	0.1964
284.2688	0.1965
284.4819	0.1839
284.695	0.1994
284.908	0.189
285.1211	0.1953
285.3341	0.1902
285.5471	0.1883
285.7601	0.1844
285.9731	0.1918
286.1861	0.1923
286.3991	0.195
286.612	0.1924
286.825	0.1954
287.0379	0.1921
287.2508	0.188
287.4637	0.1915
287.6766	0.1889
287.8895	0.1843
288.1024	0.1954
288.3152	0.1939
288.5281	0.1836
288.7409	0.1927
288.9538	0.1969
289.1666	0.1927
289.3794	0.1882
289.5922	0.1891
289.8049	0.1888
290.0177	0.189
290.2304	0.192
290.4432	0.1925
290.6559	0.1971
290.8686	0.1936
291.0813	0.1907
291.294	0.1931
291.5067	0.188
291.7194	0.1902
291.932	0.1904
292.1447	0.1866
292.3573	0.193
292.5699	0.1934
292.7825	0.1835
292.9951	0.1832
293.2077	0.1879
293.4203	0.1906
293.6328	0.1906
293.8454	0.1918
294.0579	0.1887
294.2704	0.1939
294.4829	0.1901
294.6954	0.1909
294.9079	0.1927
295.1204	0.1839
295.3328	0.1958
295.5453	0.1941
295.7577	0.1919
295.9701	0.198
296.1825	0.1954
296.3949	0.1894
296.6073	0.188
296.8197	0.1873
297.0321	0.1909
297.2444	0.1853
297.4567	0.1909
297.6691	0.1893
297.8814	0.1912
298.0937	0.1895
298.306	0.1879
298.5182	0.1908
298.7305	0.1868
298.9428	0.1864
299.155	0.1883
299.3672	0.1892
299.5794	0.1924
299.7916	0.1937
300.0038	0.1888
300.216	0.1943
300.4282	0.1892
300.6403	0.1946
300.8525	0.187
301.0646	0.1917
301.2767	0.1936
301.4888	0.1887
301.7009	0.1892
301.913	0.1917
302.125	0.1918
302.3371	0.1905
302.5491	0.1932
302.7612	0.195
302.9732	0.1945
303.1852	0.1878
303.3972	0.1888
303.6092	0.1872
303.8211	0.1893
304.0331	0.1893
304.245	0.1898
304.457	0.1876
304.6689	0.185
304.8808	0.1837
305.0927	0.1857
305.3046	0.19
305.5164	0.1846
305.7283	0.186
305.9401	0.1778
306.152	0.1813
306.3638	0.1828
306.5756	0.1838
306.7874	0.1722
306.9992	0.1746
307.2109	0.178
307.4227	0.1771
307.6344	0.178
307.8462	0.1722
308.0579	0.1717
308.2696	0.1698
308.4813	0.174
308.693	0.1719
308.9046	0.1664
309.1163	0.1659
309.328	0.1667
309.5396	0.1631
309.7512	0.1665
309.9628	0.1647
310.1744	0.1583
310.386	0.1584
310.5976	0.1512
310.8091	0.1547
311.0207	0.1543
311.2322	0.1521
311.4437	0.1528
311.6552	0.1504
311.8667	0.1571
312.0782	0.1498
312.2897	0.153
312.5012	0.1475
312.7126	0.1477
312.924	0.1499
313.1355	0.143
313.3469	0.1464
313.5583	0.147
313.7696	0.1426
313.981	0.1517
314.1924	0.1409
314.4037	0.1484
314.6151	0.1376
314.8264	0.1498
315.0377	0.148
315.249	0.1438
315.4603	0.1424
315.6716	0.1433
315.8828	0.1445
316.0941	0.1437
316.3053	0.141
316.5165	0.1432
316.7277	0.1367
316.9389	0.1436
317.1501	0.1387
317.3613	0.1332
317.5724	0.1408
317.7836	0.1347
317.9947	0.1392
318.2058	0.1337
318.417	0.1396
318.6281	0.1342
318.8391	0.1386
319.0502	0.1392
319.2613	0.1318
319.4723	0.1322
319.6834	0.1403
319.8944	0.1337
320.1054	0.139
320.3164	0.1303
320.5274	0.1369
320.7383	0.1456
320.9493	0.1364
321.1602	0.1341
321.3712	0.1394
321.5821	0.1325
321.793	0.1404
322.0039	0.139
322.2148	0.1393
322.4257	0.1396
322.6365	0.1331
322.8474	0.1467
323.0582	0.144
323.269	0.1341
323.4798	0.1385
323.6906	0.1413
323.9014	0.1422
324.1122	0.1286
324.3229	0.1429
324.5337	0.1462
324.7444	0.1415
324.9551	0.1396
325.1658	0.1425
325.3765	0.1441
325.5872	0.14
325.7979	0.1397
326.0085	0.1395
326.2192	0.1378
326.4298	0.1441
326.6404	0.148
326.851	0.1351
327.0616	0.1448
327.2722	0.1469
327.4828	0.144
327.6933	0.1572
327.9039	0.1431
328.1144	0.147
328.3249	0.1513
328.5354	0.152
328.7459	0.1495
328.9564	0.1431
329.1669	0.1536
329.3773	0.1531
329.5878	0.1473
329.7982	0.1519
330.0086	0.1482
330.219	0.1491
330.4294	0.152
330.6398	0.1513
330.8502	0.159
331.0605	0.1558
331.2708	0.1496
331.4812	0.1533
331.6915	0.1545
331.9018	0.1493
332.1121	0.1574
332.3224	0.1515
332.5326	0.1531
332.7429	0.1493
332.9531	0.1599
333.1633	0.1452
333.3735	0.15
333.5837	0.1545
333.7939	0.1573
334.0041	0.1517
334.2143	0.159
334.4244	0.1594
334.6346	0.1516
334.8447	0.1523
335.0548	0.1609
335.2649	0.1547
335.475	0.1538
335.685	0.1596
335.8951	0.1495
336.1051	0.1551
336.3152	0.1598
336.5252	0.1509
336.7352	0.1589
336.9452	0.1559
337.1552	0.1544
337.3652	0.1528
337.5751	0.1552
337.7851	0.1547
337.995	0.1552
338.2049	0.1522
338.4148	0.1532
338.6247	0.1549
338.8346	0.1486
339.0445	0.1493
339.2543	0.1565
339.4642	0.1479
339.674	0.1488
339.8838	0.1544
340.0936	0.1506
340.3034	0.1474
340.5132	0.1464
340.7229	0.1629
340.9327	0.172
341.1424	0.1645
341.3522	0.1482
341.5619	0.1584
341.7716	0.164
341.9813	0.1629
342.1909	0.1642
342.4006	0.1608
342.6102	0.1595
342.8199	0.1636
343.0295	0.1574
343.2391	0.1625
343.4487	0.1668
343.6583	0.1698
343.8679	0.1646
344.0774	0.1604
344.287	0.171
344.4965	0.1676
344.706	0.1697
344.9155	0.1625
345.125	0.1646
345.3345	0.179
345.544	0.173
345.7534	0.1787
345.9629	0.1746
346.1723	0.175
346.3817	0.1724
346.5911	0.1788
346.8005	0.1839
347.0099	0.175
347.2193	0.1863
347.4286	0.1868
347.638	0.1836
347.8473	0.182
348.0566	0.1828
348.2659	0.187
348.4752	0.1856
348.6845	0.1792
348.8937	0.1798
349.103	0.1889
349.3122	0.184
349.5214	0.1871
349.7306	0.1922
349.9398	0.1841
350.149	0.1806
350.3582	0.1886
350.5674	0.1935
350.7765	0.1855
350.9856	0.179
351.1948	0.1907
351.4039	0.1905
351.613	0.1895
351.822	0.1913
352.0311	0.1929
352.2402	0.1916
352.4492	0.1872
352.6582	0.1929
352.8672	0.19
353.0762	0.1907
353.2852	0.1914
353.4942	0.1936
353.7032	0.188
353.9121	0.1931
354.1211	0.1893
354.33	0.1953
354.5389	0.186
354.7478	0.1887
354.9567	0.1894
355.1655	0.1924
355.3744	0.1846
355.5833	0.1909
355.7921	0.1952
356.0009	0.1876
356.2097	0.1837
356.4185	0.187
356.6273	0.1959
356.8361	0.1882
357.0448	0.1948
357.2536	0.1952
357.4623	0.1992
357.671	0.1999
357.8797	0.1932
358.0884	0.1865
358.2971	0.1919
358.5057	0.1954
358.7144	0.2001
358.923	0.2046
359.1316	0.2005
359.3402	0.1952
359.5488	0.193
359.7574	0.2034
359.966	0.203
360.1746	0.1937
360.3831	0.2049
360.5916	0.2059
360.8002	0.2101
361.0087	0.2042
361.2172	0.1975
361.4256	0.2043
361.6341	0.2107
361.8426	0.2107
362.051	0.2094
362.2594	0.2045
362.4678	0.2085
362.6762	0.2157
362.8846	0.2156
363.093	0.2184
363.3014	0.2163
363.5097	0.212
363.718	0.2141
363.9264	0.2156
364.1347	0.2161
364.343	0.2184
364.5513	0.215
364.7595	0.2121
364.9678	0.2073
365.176	0.2139
365.3842	0.2178
365.5925	0.2139
365.8007	0.2151
366.0089	0.2264
366.217	0.2176
366.4252	0.2252
366.6333	0.2256
366.8415	0.2264
367.0496	0.2216
367.2577	0.225
367.4658	0.2259
367.6739	0.2179
367.882	0.2358
368.09	0.2216
368.2981	0.2305
368.5061	0.228
368.7141	0.2281
368.9221	0.2327
369.1301	0.2309
369.3381	0.2364
369.5461	0.2371
369.754	0.2376
369.962	0.23
370.1699	0.2396
370.3778	0.2333
370.5857	0.2352
370.7936	0.242
371.0015	0.2391
371.2093	0.232
371.4172	0.238
371.625	0.2377
371.8328	0.239
372.0406	0.2465
372.2484	0.2403
372.4562	0.2451
372.664	0.2367
372.8717	0.2429
373.0795	0.2493
373.2872	0.2534
373.4949	0.2425
373.7026	0.2441
373.9103	0.2458
374.118	0.2455
374.3256	0.2476
374.5333	0.2429
374.7409	0.2495
374.9485	0.2514
375.1561	0.2542
375.3637	0.2527
375.5713	0.2551
375.7789	0.2492
375.9864	0.251
376.194	0.2648
376.4015	0.2518
376.609	0.2577
376.8165	0.2632
377.024	0.2538
377.2315	0.26
377.4389	0.2624
377.6464	0.2603
377.8538	0.2614
378.0612	0.2585
378.2686	0.2577
378.476	0.2584
378.6834	0.2614
378.8908	0.2678
379.0981	0.2631
379.3055	0.2621
379.5128	0.2576
379.7201	0.2629
379.9274	0.2608
380.1347	0.2694
380.342	0.2759
380.5492	0.2664
380.7565	0.269
380.9637	0.2698
381.1709	0.2653
381.3781	0.271
381.5853	0.2643
381.7925	0.2677
381.9997	0.2725
382.2068	0.2731
382.4139	0.27
382.6211	0.2747
382.8282	0.2787
383.0353	0.278
383.2424	0.2717
383.4494	0.2778
383.6565	0.2792
383.8635	0.2697
384.0706	0.2852
384.2776	0.2736
384.4846	0.2817
384.6916	0.2805
384.8986	0.278
385.1055	0.2733
385.3125	0.2799
385.5194	0.2831
385.7263	0.2799
385.9333	0.2804
386.1402	0.278
386.347	0.2639
386.5539	0.2843
386.7608	0.2712
386.9676	0.2774
387.1744	0.2666
387.3813	0.2813
387.5881	0.2677
387.7948	0.2786
388.0016	0.2799
388.2084	0.2716
388.4151	0.2751
388.6219	0.2638
388.8286	0.2735
389.0353	0.2776
389.242	0.2758
389.4487	0.2721
389.6553	0.2602
389.862	0.2656
390.0686	0.2762
390.2753	0.2697
390.4819	0.2654
390.6885	0.2701
390.8951	0.2684
391.1016	0.2637
391.3082	0.2665
391.5147	0.2576
391.7213	0.257
391.9278	0.2589
392.1343	0.2599
392.3408	0.2529
392.5473	0.2648
392.7537	0.2672
392.9602	0.2497
393.1666	0.257
393.373	0.2536
393.5794	0.2576
393.7858	0.2563
393.9922	0.2585
394.1986	0.2432
394.4049	0.2451
394.6113	0.253
394.8176	0.255
395.0239	0.2458
395.2302	0.2458
395.4365	0.2544
395.6428	0.2477
395.8491	0.2389
396.0553	0.2431
396.2615	0.2414
396.4678	0.2424
396.674	0.2458
396.8802	0.2396
397.0863	0.2305
397.2925	0.2409
397.4987	0.2336
397.7048	0.2436
397.9109	0.2309
398.117	0.2383
398.3231	0.2339
398.5292	0.2297
398.7353	0.2378
398.9413	0.2414
399.1474	0.235
399.3534	0.2393
399.5594	0.2455
399.7654	0.2364
399.9714	0.2314
400.1774	0.2324
400.3833	0.2306
400.5893	0.2355
400.7952	0.2385
401.0011	0.2263
401.207	0.2339
401.4129	0.2293
401.6188	0.234
401.8247	0.2399
402.0305	0.2328
402.2364	0.2431
402.4422	0.237
402.648	0.2351
402.8538	0.2275
403.0596	0.2364
403.2654	0.2267
403.4711	0.2316
403.6768	0.2301
403.8826	0.2268
404.0883	0.2306
404.294	0.24
404.4997	0.2307
404.7054	0.2359
404.911	0.2356
405.1167	0.2297
405.3223	0.2221
405.5279	0.2284
405.7335	0.2312
405.9391	0.2361
406.1447	0.2357
406.3502	0.2234
406.5558	0.2309
406.7613	0.2259
406.9668	0.2251
407.1724	0.2294
407.3778	0.2356
407.5833	0.2207
407.7888	0.2342
407.9942	0.2279
408.1997	0.2241
408.4051	0.2374
408.6105	0.2367
408.8159	0.2275
409.0213	0.2317
409.2267	0.2331
409.432	0.2249
409.6374	0.2331
409.8427	0.2325
410.048	0.2269
410.2533	0.2269
410.4586	0.2117
410.6639	0.2353
410.8691	0.2168
411.0744	0.2294
411.2796	0.2339
411.4848	0.236
411.69	0.2274
411.8952	0.2264
412.1004	0.2376
412.3056	0.2315
412.5107	0.2322
412.7158	0.2358
412.921	0.2357
413.1261	0.2277
413.3312	0.2302
413.5362	0.2422
413.7413	0.2345
413.9464	0.2286
414.1514	0.2261
414.3564	0.2287
414.5614	0.2239
414.7664	0.2165
414.9714	0.2236
415.1764	0.2296
415.3813	0.2184
415.5863	0.2249
415.7912	0.2185
415.9961	0.2153
416.201	0.2168
416.4059	0.2178
416.6108	0.2247
416.8156	0.2142
417.0205	0.2344
417.2253	0.2212
417.4301	0.2254
417.6349	0.2241
417.8397	0.2185
418.0445	0.2234
418.2492	0.2208
418.454	0.2208
418.6587	0.2261
418.8634	0.2255
419.0681	0.2292
419.2728	0.2154
419.4775	0.2243
419.6822	0.21
419.8868	0.2152
420.0915	0.2196
420.2961	0.2141
420.5007	0.2131
420.7053	0.2139
420.9099	0.2105
421.1144	0.2162
421.319	0.2124
421.5235	0.1997
421.728	0.2261
421.9325	0.2208
422.137	0.2168
422.3415	0.2069
422.546	0.2021
422.7504	0.2078
422.9549	0.2113
423.1593	0.2063
423.3637	0.1996
423.5681	0.2174
423.7725	0.2065
423.9769	0.2078
424.1812	0.1988
424.3856	0.1935
424.5899	0.2017
424.7942	0.1981
424.9985	0.1988
425.2028	0.2051
425.4071	0.2091
425.6113	0.1998
425.8156	0.2038
426.0198	0.205
426.224	0.2008
426.4282	0.1747
426.6324	0.1966
426.8366	0.1941
427.0407	0.1977
