Data from D4ACN5uM420nmA_Absorbance_14-37-07-346.txt Node
Date: Fri Feb 21 14:37:07 GMT 2025
User: LASERRRRR
Spectrometer: FLMT03099
Trigger mode: 0
Integration Time (sec): 1.500000E-2
Scans to average: 1
Electric dark correction enabled: true
Nonlinearity correction enabled: false
Boxcar width: 0
XAxis mode: Wavelengths
Number of Pixels in Spectrum: 3648
>>>>>Begin Spectral Data<<<<<
179.3399	-0.2865
179.5586	-0.2865
179.7771	-0.2865
179.9957	1.6616
180.2143	-0
180.4329	-0.2551
180.6514	-0
180.8699	0.1875
181.0885	-0
181.307	0.1035
181.5255	-0.0337
181.744	-0.1679
181.9625	1.6187
182.181	-0.3262
182.3994	-0.2906
182.6179	0.2469
182.8363	-0
183.0547	-0
183.2732	0.0675
183.4916	0.4222
183.71	0.1663
183.9284	0.2784
184.1467	0.0814
184.3651	-0.0293
184.5835	0.1327
184.8018	0.3096
185.0201	0.1884
185.2385	0.1779
185.4568	0.1829
185.6751	0.2366
185.8934	0.214
186.1117	-0.1959
186.3299	0.1191
186.5482	0.3707
186.7664	0.1723
186.9847	0.0981
187.2029	0.2734
187.4211	0.0337
187.6393	0.2128
187.8575	0.0997
188.0757	0.1819
188.2939	0.3299
188.512	0.2145
188.7302	0.1355
188.9483	0.3954
189.1665	0.6579
189.3846	0.1337
189.6027	0.2807
189.8208	0.1514
190.0389	0.2827
190.257	0.04
190.475	-0.0936
190.6931	0.0067
190.9111	0.1032
191.1292	0.0869
191.3472	0.3385
191.5652	0.1318
191.7832	0.3321
192.0012	0.2039
192.2192	0.1117
192.4371	0.096
192.6551	0.2616
192.873	0.1382
193.091	0.2406
193.3089	0.1411
193.5268	0.1566
193.7447	0.1312
193.9626	0.2072
194.1805	0.3079
194.3984	0.2055
194.6162	0.2402
194.8341	0.2974
195.0519	0.2148
195.2697	0.2321
195.4875	0.2783
195.7054	0.2647
195.9231	0.2359
196.1409	0.3374
196.3587	0.3327
196.5765	0.3126
196.7942	0.2915
197.012	0.2985
197.2297	0.3072
197.4474	0.3827
197.6651	0.2973
197.8828	0.2991
198.1005	0.368
198.3182	0.392
198.5358	0.329
198.7535	0.368
198.9711	0.3434
199.1888	0.3628
199.4064	0.4337
199.624	0.3663
199.8416	0.3939
200.0592	0.4145
200.2767	0.4138
200.4943	0.4122
200.7119	0.39
200.9294	0.3894
201.1469	0.4311
201.3645	0.4677
201.582	0.4478
201.7995	0.4059
202.017	0.3918
202.2344	0.4095
202.4519	0.3978
202.6694	0.3877
202.8868	0.4493
203.1042	0.4045
203.3217	0.3671
203.5391	0.4065
203.7565	0.3592
203.9739	0.3761
204.1913	0.3701
204.4086	0.3617
204.626	0.3979
204.8433	0.383
205.0607	0.3706
205.278	0.338
205.4953	0.3775
205.7126	0.3151
205.9299	0.3323
206.1472	0.3249
206.3644	0.3416
206.5817	0.3428
206.7989	0.3686
207.0162	0.3389
207.2334	0.3288
207.4506	0.3131
207.6678	0.2907
207.885	0.2709
208.1022	0.3205
208.3194	0.2942
208.5365	0.2879
208.7537	0.2953
208.9708	0.2846
209.1879	0.2904
209.405	0.2875
209.6222	0.2935
209.8392	0.2812
210.0563	0.302
210.2734	0.2845
210.4905	0.2886
210.7075	0.2787
210.9245	0.2999
211.1416	0.2646
211.3586	0.2558
211.5756	0.2336
211.7926	0.2851
212.0096	0.2752
212.2265	0.2675
212.4435	0.2589
212.6604	0.2407
212.8774	0.2547
213.0943	0.2574
213.3112	0.2543
213.5281	0.2733
213.745	0.2381
213.9619	0.2444
214.1788	0.2648
214.3956	0.2468
214.6125	0.246
214.8293	0.2481
215.0461	0.2624
215.2629	0.2508
215.4798	0.2416
215.6965	0.2567
215.9133	0.2253
216.1301	0.2498
216.3469	0.2511
216.5636	0.2606
216.7803	0.25
216.9971	0.2486
217.2138	0.2462
217.4305	0.2409
217.6472	0.2509
217.8639	0.26
218.0805	0.2652
218.2972	0.2565
218.5138	0.2379
218.7305	0.264
218.9471	0.2477
219.1637	0.2597
219.3803	0.2724
219.5969	0.2453
219.8135	0.2791
220.0301	0.2551
220.2466	0.2562
220.4632	0.2467
220.6797	0.2503
220.8962	0.2628
221.1127	0.2709
221.3292	0.2598
221.5457	0.2706
221.7622	0.2632
221.9787	0.2796
222.1951	0.2752
222.4116	0.2795
222.628	0.2846
222.8444	0.2805
223.0608	0.2841
223.2772	0.2846
223.4936	0.2857
223.71	0.2838
223.9264	0.291
224.1427	0.2841
224.3591	0.2807
224.5754	0.2953
224.7917	0.2986
225.008	0.2992
225.2243	0.2915
225.4406	0.2998
225.6569	0.3046
225.8732	0.324
226.0894	0.321
226.3057	0.3091
226.5219	0.3129
226.7381	0.3311
226.9543	0.3217
227.1705	0.317
227.3867	0.3183
227.6029	0.3322
227.8191	0.3551
228.0352	0.3384
228.2513	0.3538
228.4675	0.3423
228.6836	0.3418
228.8997	0.3403
229.1158	0.3634
229.3319	0.3637
229.548	0.3607
229.764	0.3511
229.9801	0.3671
230.1961	0.3685
230.4121	0.368
230.6282	0.3861
230.8442	0.3915
231.0602	0.3879
231.2761	0.3764
231.4921	0.3825
231.7081	0.3879
231.924	0.4105
232.14	0.4034
232.3559	0.4009
232.5718	0.4142
232.7877	0.4095
233.0036	0.4132
233.2195	0.4094
233.4353	0.4215
233.6512	0.4171
233.867	0.4237
234.0829	0.4305
234.2987	0.4233
234.5145	0.4334
234.7303	0.4404
234.9461	0.4456
235.1619	0.4412
235.3776	0.4341
235.5934	0.4373
235.8091	0.4443
236.0249	0.449
236.2406	0.4502
236.4563	0.4522
236.672	0.4481
236.8877	0.452
237.1034	0.4493
237.319	0.4542
237.5347	0.4459
237.7503	0.4514
237.966	0.4695
238.1816	0.4572
238.3972	0.4591
238.6128	0.4735
238.8284	0.4575
239.0439	0.4651
239.2595	0.4699
239.475	0.4708
239.6906	0.4563
239.9061	0.4654
240.1216	0.4625
240.3371	0.4589
240.5526	0.4625
240.7681	0.4752
240.9836	0.4644
241.199	0.4622
241.4145	0.4484
241.6299	0.4449
241.8453	0.4441
242.0607	0.4377
242.2761	0.4384
242.4915	0.4308
242.7069	0.4186
242.9223	0.4215
243.1376	0.4164
243.353	0.4005
243.5683	0.3991
243.7836	0.3879
243.9989	0.3732
244.2142	0.3825
244.4295	0.3795
244.6448	0.3748
244.86	0.3541
245.0753	0.3567
245.2905	0.3433
245.5057	0.3394
245.721	0.3366
245.9362	0.3333
246.1514	0.3295
246.3665	0.3121
246.5817	0.3057
246.7969	0.2955
247.012	0.2907
247.2271	0.291
247.4423	0.2864
247.6574	0.2831
247.8725	0.2694
248.0876	0.2772
248.3026	0.2747
248.5177	0.2567
248.7328	0.2517
248.9478	0.2518
249.1628	0.2518
249.3779	0.2487
249.5929	0.2455
249.8079	0.2419
250.0228	0.2355
250.2378	0.2295
250.4528	0.2372
250.6677	0.2253
250.8827	0.2221
251.0976	0.2216
251.3125	0.2235
251.5274	0.2212
251.7423	0.2122
251.9572	0.2108
252.172	0.2121
252.3869	0.2086
252.6017	0.2126
252.8166	0.2079
253.0314	0.2054
253.2462	0.1977
253.461	0.2105
253.6758	0.2021
253.8906	0.1995
254.1053	0.2055
254.3201	0.1961
254.5348	0.1895
254.7496	0.1889
254.9643	0.1969
255.179	0.193
255.3937	0.1947
255.6083	0.1971
255.823	0.1913
256.0377	0.1846
256.2523	0.1904
256.467	0.1915
256.6816	0.1881
256.8962	0.1847
257.1108	0.1918
257.3254	0.1845
257.54	0.1875
257.7545	0.1836
257.9691	0.1919
258.1836	0.1782
258.3981	0.1885
258.6127	0.1776
258.8272	0.1853
259.0417	0.1768
259.2561	0.1835
259.4706	0.1819
259.6851	0.1815
259.8995	0.1799
260.114	0.1834
260.3284	0.1755
260.5428	0.1776
260.7572	0.1844
260.9716	0.187
261.186	0.1794
261.4003	0.1799
261.6147	0.1814
261.829	0.1857
262.0433	0.1789
262.2577	0.177
262.472	0.1826
262.6863	0.1889
262.9005	0.1821
263.1148	0.1815
263.3291	0.1773
263.5433	0.1871
263.7576	0.1853
263.9718	0.1831
264.186	0.185
264.4002	0.1852
264.6144	0.1898
264.8286	0.1902
265.0427	0.1883
265.2569	0.1817
265.471	0.187
265.6851	0.1852
265.8993	0.1782
266.1134	0.1881
266.3275	0.1839
266.5415	0.1832
266.7556	0.1905
266.9697	0.1847
267.1837	0.1856
267.3978	0.1866
267.6118	0.1819
267.8258	0.1792
268.0398	0.1869
268.2538	0.1904
268.4677	0.1791
268.6817	0.1831
268.8957	0.1741
269.1096	0.1821
269.3235	0.1754
269.5374	0.1829
269.7514	0.1835
269.9652	0.1753
270.1791	0.1816
270.393	0.181
270.6068	0.1781
270.8207	0.1776
271.0345	0.1748
271.2483	0.1712
271.4622	0.1787
271.676	0.1732
271.8897	0.1725
272.1035	0.1808
272.3173	0.1779
272.531	0.1784
272.7448	0.1726
272.9585	0.1665
273.1722	0.169
273.3859	0.1771
273.5996	0.1744
273.8133	0.1763
274.0269	0.1711
274.2406	0.1757
274.4542	0.1813
274.6679	0.1748
274.8815	0.1807
275.0951	0.1801
275.3087	0.1795
275.5223	0.1697
275.7358	0.1807
275.9494	0.186
276.1629	0.1819
276.3765	0.1799
276.59	0.1824
276.8035	0.177
277.017	0.186
277.2305	0.1814
277.444	0.1852
277.6574	0.1802
277.8709	0.185
278.0843	0.1832
278.2978	0.1878
278.5112	0.1856
278.7246	0.1838
278.938	0.1796
279.1513	0.1843
279.3647	0.1818
279.5781	0.1825
279.7914	0.1843
280.0047	0.1868
280.2181	0.1823
280.4314	0.1877
280.6447	0.1903
280.8579	0.1803
281.0712	0.1808
281.2845	0.1854
281.4977	0.1862
281.711	0.1858
281.9242	0.1831
282.1374	0.1902
282.3506	0.1891
282.5638	0.1843
282.7769	0.1762
282.9901	0.19
283.2033	0.1905
283.4164	0.1836
283.6295	0.1833
283.8426	0.1878
284.0557	0.1901
284.2688	0.1871
284.4819	0.1854
284.695	0.1893
284.908	0.1883
285.1211	0.1922
285.3341	0.1823
285.5471	0.1916
285.7601	0.1918
285.9731	0.1889
286.1861	0.1936
286.3991	0.1935
286.612	0.1928
286.825	0.1944
287.0379	0.1922
287.2508	0.1944
287.4637	0.1995
287.6766	0.1942
287.8895	0.1917
288.1024	0.1972
288.3152	0.1955
288.5281	0.1923
288.7409	0.1968
288.9538	0.1965
289.1666	0.1923
289.3794	0.1927
289.5922	0.1921
289.8049	0.1945
290.0177	0.1995
290.2304	0.1975
290.4432	0.1952
290.6559	0.2021
290.8686	0.1991
291.0813	0.1988
291.294	0.1957
291.5067	0.1938
291.7194	0.1992
291.932	0.1926
292.1447	0.1962
292.3573	0.1963
292.5699	0.1983
292.7825	0.1937
292.9951	0.1935
293.2077	0.2054
293.4203	0.1941
293.6328	0.1988
293.8454	0.202
294.0579	0.1937
294.2704	0.1999
294.4829	0.1985
294.6954	0.1976
294.9079	0.1936
295.1204	0.1933
295.3328	0.2057
295.5453	0.1987
295.7577	0.2014
295.9701	0.1992
296.1825	0.2008
296.3949	0.1951
296.6073	0.1948
296.8197	0.1988
297.0321	0.2016
297.2444	0.1994
297.4567	0.1983
297.6691	0.1959
297.8814	0.1944
298.0937	0.1988
298.306	0.1967
298.5182	0.2063
298.7305	0.1989
298.9428	0.2028
299.155	0.1911
299.3672	0.1986
299.5794	0.1956
299.7916	0.1968
300.0038	0.2016
300.216	0.1965
300.4282	0.2035
300.6403	0.1995
300.8525	0.1992
301.0646	0.1964
301.2767	0.1966
301.4888	0.1992
301.7009	0.1991
301.913	0.1991
302.125	0.1975
302.3371	0.1963
302.5491	0.2034
302.7612	0.2012
302.9732	0.2041
303.1852	0.2011
303.3972	0.195
303.6092	0.1985
303.8211	0.1922
304.0331	0.1944
304.245	0.1962
304.457	0.1978
304.6689	0.192
304.8808	0.1903
305.0927	0.1928
305.3046	0.1937
305.5164	0.192
305.7283	0.1856
305.9401	0.1819
306.152	0.1888
306.3638	0.1876
306.5756	0.1925
306.7874	0.1833
306.9992	0.1808
307.2109	0.181
307.4227	0.1806
307.6344	0.1796
307.8462	0.174
308.0579	0.1739
308.2696	0.1723
308.4813	0.1732
308.693	0.1737
308.9046	0.1756
309.1163	0.1671
309.328	0.1588
309.5396	0.157
309.7512	0.1577
309.9628	0.1578
310.1744	0.1599
310.386	0.1539
310.5976	0.1555
310.8091	0.1555
311.0207	0.1483
311.2322	0.1486
311.4437	0.1495
311.6552	0.1536
311.8667	0.1475
312.0782	0.1437
312.2897	0.1466
312.5012	0.1436
312.7126	0.1462
312.924	0.1463
313.1355	0.1449
313.3469	0.1405
313.5583	0.1373
313.7696	0.1322
313.981	0.143
314.1924	0.1368
314.4037	0.1384
314.6151	0.1355
314.8264	0.1396
315.0377	0.1363
315.249	0.1346
315.4603	0.1302
315.6716	0.1304
315.8828	0.1369
316.0941	0.1319
316.3053	0.1211
316.5165	0.1313
316.7277	0.1239
316.9389	0.1329
317.1501	0.1321
317.3613	0.1282
317.5724	0.13
317.7836	0.1258
317.9947	0.127
318.2058	0.1302
318.417	0.1302
318.6281	0.126
318.8391	0.1312
319.0502	0.1274
319.2613	0.1268
319.4723	0.1239
319.6834	0.1302
319.8944	0.1247
320.1054	0.1282
320.3164	0.1222
320.5274	0.1245
320.7383	0.1288
320.9493	0.1267
321.1602	0.1272
321.3712	0.1257
321.5821	0.1267
321.793	0.139
322.0039	0.1318
322.2148	0.1323
322.4257	0.1291
322.6365	0.1247
322.8474	0.1265
323.0582	0.1242
323.269	0.1304
323.4798	0.126
323.6906	0.1265
323.9014	0.1265
324.1122	0.1237
324.3229	0.1329
324.5337	0.1293
324.7444	0.129
324.9551	0.1288
325.1658	0.1326
325.3765	0.1286
325.5872	0.1351
325.7979	0.137
326.0085	0.1271
326.2192	0.1314
326.4298	0.1339
326.6404	0.1396
326.851	0.1273
327.0616	0.1358
327.2722	0.131
327.4828	0.1309
327.6933	0.1416
327.9039	0.1326
328.1144	0.1377
328.3249	0.136
328.5354	0.1404
328.7459	0.134
328.9564	0.1332
329.1669	0.1328
329.3773	0.1346
329.5878	0.1338
329.7982	0.1398
330.0086	0.1399
330.219	0.1343
330.4294	0.138
330.6398	0.1378
330.8502	0.1392
331.0605	0.1371
331.2708	0.1353
331.4812	0.1392
331.6915	0.1406
331.9018	0.1437
332.1121	0.146
332.3224	0.1355
332.5326	0.1355
332.7429	0.14
332.9531	0.1458
333.1633	0.1351
333.3735	0.1376
333.5837	0.1356
333.7939	0.136
334.0041	0.1452
334.2143	0.1346
334.4244	0.1437
334.6346	0.1342
334.8447	0.1394
335.0548	0.1417
335.2649	0.1402
335.475	0.1438
335.685	0.1419
335.8951	0.1403
336.1051	0.1435
336.3152	0.1476
336.5252	0.1412
336.7352	0.1404
336.9452	0.1477
337.1552	0.1501
337.3652	0.1389
337.5751	0.1448
337.7851	0.1442
337.995	0.1467
338.2049	0.1442
338.4148	0.1388
338.6247	0.1518
338.8346	0.1483
339.0445	0.1448
339.2543	0.1416
339.4642	0.1442
339.674	0.1448
339.8838	0.1467
340.0936	0.1437
340.3034	0.1418
340.5132	0.1418
340.7229	0.1458
340.9327	0.1493
341.1424	0.1476
341.3522	0.1439
341.5619	0.154
341.7716	0.1535
341.9813	0.1535
342.1909	0.1515
342.4006	0.1521
342.6102	0.1587
342.8199	0.1556
343.0295	0.1513
343.2391	0.1575
343.4487	0.1548
343.6583	0.1643
343.8679	0.1493
344.0774	0.1524
344.287	0.162
344.4965	0.1586
344.706	0.1616
344.9155	0.1559
345.125	0.1663
345.3345	0.1625
345.544	0.1605
345.7534	0.1647
345.9629	0.168
346.1723	0.1606
346.3817	0.1656
346.5911	0.1639
346.8005	0.166
347.0099	0.1633
347.2193	0.1696
347.4286	0.1746
347.638	0.17
347.8473	0.1733
348.0566	0.1715
348.2659	0.1704
348.4752	0.1726
348.6845	0.1746
348.8937	0.1736
349.103	0.1708
349.3122	0.1789
349.5214	0.1776
349.7306	0.1786
349.9398	0.173
350.149	0.1745
350.3582	0.18
350.5674	0.1771
350.7765	0.1799
350.9856	0.17
351.1948	0.1762
351.4039	0.1796
351.613	0.1812
351.822	0.1844
352.0311	0.1801
352.2402	0.1789
352.4492	0.1908
352.6582	0.1826
352.8672	0.1791
353.0762	0.1853
353.2852	0.19
353.4942	0.1877
353.7032	0.1847
353.9121	0.1931
354.1211	0.1914
354.33	0.1956
354.5389	0.183
354.7478	0.1886
354.9567	0.1878
355.1655	0.1939
355.3744	0.1892
355.5833	0.1853
355.7921	0.1954
356.0009	0.1944
356.2097	0.184
356.4185	0.1933
356.6273	0.1933
356.8361	0.1952
357.0448	0.1964
357.2536	0.1955
357.4623	0.1999
357.671	0.1939
357.8797	0.2059
358.0884	0.195
358.2971	0.2001
358.5057	0.2059
358.7144	0.2018
358.923	0.2
359.1316	0.2093
359.3402	0.1991
359.5488	0.2023
359.7574	0.2099
359.966	0.2121
360.1746	0.2098
360.3831	0.2174
360.5916	0.2126
360.8002	0.2149
361.0087	0.2132
361.2172	0.2124
361.4256	0.2123
361.6341	0.2181
361.8426	0.215
362.051	0.2252
362.2594	0.2128
362.4678	0.2171
362.6762	0.2179
362.8846	0.2203
363.093	0.2241
363.3014	0.2273
363.5097	0.2222
363.718	0.2268
363.9264	0.2273
364.1347	0.2235
364.343	0.2287
364.5513	0.2322
364.7595	0.2386
364.9678	0.2306
365.176	0.2315
365.3842	0.2399
365.5925	0.2342
365.8007	0.2347
366.0089	0.247
366.217	0.2385
366.4252	0.237
366.6333	0.2435
366.8415	0.2409
367.0496	0.2492
367.2577	0.2399
367.4658	0.2399
367.6739	0.2354
367.882	0.2532
368.09	0.2364
368.2981	0.247
368.5061	0.2474
368.7141	0.2455
368.9221	0.2607
369.1301	0.248
369.3381	0.2543
369.5461	0.2517
369.754	0.257
369.962	0.2573
370.1699	0.2547
370.3778	0.2667
370.5857	0.259
370.7936	0.2648
371.0015	0.2638
371.2093	0.2614
371.4172	0.26
371.625	0.2583
371.8328	0.2616
372.0406	0.2728
372.2484	0.2762
372.4562	0.2722
372.664	0.2688
372.8717	0.2712
373.0795	0.2772
373.2872	0.2787
373.4949	0.2693
373.7026	0.2759
373.9103	0.2648
374.118	0.2722
374.3256	0.2812
374.5333	0.2806
374.7409	0.2706
374.9485	0.2749
375.1561	0.2819
375.3637	0.2764
375.5713	0.2875
375.7789	0.2775
375.9864	0.2786
376.194	0.289
376.4015	0.2841
376.609	0.2861
376.8165	0.2932
377.024	0.2856
377.2315	0.2878
377.4389	0.2781
377.6464	0.2962
377.8538	0.2879
378.0612	0.2926
378.2686	0.2914
378.476	0.3013
378.6834	0.2919
378.8908	0.2911
379.0981	0.2948
379.3055	0.2959
379.5128	0.2979
379.7201	0.3048
379.9274	0.3011
380.1347	0.2951
380.342	0.2978
380.5492	0.2993
380.7565	0.2944
380.9637	0.2943
381.1709	0.2885
381.3781	0.3033
381.5853	0.2997
381.7925	0.2952
381.9997	0.3023
382.2068	0.3026
382.4139	0.3004
382.6211	0.3095
382.8282	0.3164
383.0353	0.3125
383.2424	0.3108
383.4494	0.3121
383.6565	0.3096
383.8635	0.3139
384.0706	0.3148
384.2776	0.3152
384.4846	0.3133
384.6916	0.3068
384.8986	0.312
385.1055	0.3143
385.3125	0.3148
385.5194	0.314
385.7263	0.2995
385.9333	0.3165
386.1402	0.3168
386.347	0.3105
386.5539	0.318
386.7608	0.3057
386.9676	0.3087
387.1744	0.3163
387.3813	0.3193
387.5881	0.305
387.7948	0.3141
388.0016	0.3196
388.2084	0.3098
388.4151	0.3095
388.6219	0.3028
388.8286	0.3081
389.0353	0.3158
389.242	0.3131
389.4487	0.3136
389.6553	0.2965
389.862	0.3014
390.0686	0.3085
390.2753	0.3074
390.4819	0.3114
390.6885	0.2996
390.8951	0.3023
391.1016	0.2931
391.3082	0.3069
391.5147	0.291
391.7213	0.2934
391.9278	0.2886
392.1343	0.3033
392.3408	0.2943
392.5473	0.2986
392.7537	0.2876
392.9602	0.2864
393.1666	0.3035
393.373	0.2884
393.5794	0.2875
393.7858	0.2952
393.9922	0.2917
394.1986	0.2822
394.4049	0.2813
394.6113	0.2851
394.8176	0.2809
395.0239	0.2841
395.2302	0.2829
395.4365	0.2871
395.6428	0.2777
395.8491	0.2717
396.0553	0.2696
396.2615	0.2788
396.4678	0.2755
396.674	0.273
396.8802	0.2707
397.0863	0.2676
397.2925	0.2748
397.4987	0.2698
397.7048	0.2692
397.9109	0.262
398.117	0.2704
398.3231	0.266
398.5292	0.2583
398.7353	0.2695
398.9413	0.2675
399.1474	0.2625
399.3534	0.2716
399.5594	0.267
399.7654	0.2619
399.9714	0.2708
400.1774	0.2629
400.3833	0.2657
400.5893	0.2651
400.7952	0.2762
401.0011	0.2662
401.207	0.2588
401.4129	0.2652
401.6188	0.2618
401.8247	0.2691
402.0305	0.2624
402.2364	0.2729
402.4422	0.2672
402.648	0.2676
402.8538	0.2687
403.0596	0.2739
403.2654	0.2616
403.4711	0.2704
403.6768	0.2689
403.8826	0.2669
404.0883	0.2649
404.294	0.2712
404.4997	0.2568
404.7054	0.2675
404.911	0.2701
405.1167	0.2653
405.3223	0.2656
405.5279	0.2633
405.7335	0.2641
405.9391	0.2653
406.1447	0.2723
406.3502	0.2625
406.5558	0.2617
406.7613	0.2602
406.9668	0.2614
407.1724	0.2721
407.3778	0.2724
407.5833	0.2601
407.7888	0.2749
407.9942	0.2579
408.1997	0.2704
408.4051	0.2552
408.6105	0.2618
408.8159	0.2626
409.0213	0.273
409.2267	0.2778
409.432	0.2567
409.6374	0.2622
409.8427	0.2737
410.048	0.2664
410.2533	0.262
410.4586	0.2653
410.6639	0.2681
410.8691	0.2535
411.0744	0.2606
411.2796	0.267
411.4848	0.265
411.69	0.2582
411.8952	0.2705
412.1004	0.2618
412.3056	0.2565
412.5107	0.2621
412.7158	0.2669
412.921	0.2642
413.1261	0.2613
413.3312	0.2609
413.5362	0.264
413.7413	0.2622
413.9464	0.2496
414.1514	0.2623
414.3564	0.2527
414.5614	0.2573
414.7664	0.2496
414.9714	0.2599
415.1764	0.2644
415.3813	0.249
415.5863	0.2703
415.7912	0.2577
415.9961	0.2538
416.201	0.2571
416.4059	0.2594
416.6108	0.2538
416.8156	0.267
417.0205	0.2676
417.2253	0.2433
417.4301	0.2623
417.6349	0.2501
417.8397	0.256
418.0445	0.2529
418.2492	0.253
418.454	0.2574
418.6587	0.2516
418.8634	0.2609
419.0681	0.2554
419.2728	0.2512
419.4775	0.2625
419.6822	0.2555
419.8868	0.2515
420.0915	0.2531
420.2961	0.2431
420.5007	0.2519
420.7053	0.2545
420.9099	0.2507
421.1144	0.2511
421.319	0.2387
421.5235	0.2446
421.728	0.252
421.9325	0.2457
422.137	0.2405
422.3415	0.2367
422.546	0.2377
422.7504	0.2424
422.9549	0.2429
423.1593	0.2334
423.3637	0.2358
423.5681	0.2329
423.7725	0.2374
423.9769	0.237
424.1812	0.2284
424.3856	0.2327
424.5899	0.2291
424.7942	0.2285
424.9985	0.235
425.2028	0.2322
425.4071	0.2327
425.6113	0.2359
425.8156	0.2239
426.0198	0.2221
426.224	0.2307
426.4282	0.2094
426.6324	0.2281
