Data from MonoPyChalIsomerACN10uM420nmA_Absorbance_15-09-56-134.txt Node
Date: Fri Jul 05 15:09:56 BST 2024
User: LASERRRRR
Spectrometer: FLMT03099
Trigger mode: 0
Integration Time (sec): 1.000000E-1
Scans to average: 1
Electric dark correction enabled: true
Nonlinearity correction enabled: false
Boxcar width: 0
XAxis mode: Wavelengths
Number of Pixels in Spectrum: 3648
>>>>>Begin Spectral Data<<<<<
179.3399	0.1184
179.5586	0.1184
179.7771	0.1184
179.9957	0.6508
180.2143	-0
180.4329	0.0926
180.6514	-0
180.8699	0.2617
181.0885	0.5368
181.307	0.2976
181.5255	-0
181.744	-0.1506
181.9625	-0
182.181	-0.9505
182.3994	-0
182.6179	-0
182.8363	-0
183.0547	-0.1072
183.2732	-0.0047
183.4916	0.0313
183.71	0.0901
183.9284	-0.038
184.1467	-0.106
184.3651	-0.0868
184.5835	0.0622
184.8018	-0.0644
185.0201	0.2483
185.2385	0.1085
185.4568	0.2138
185.6751	0.1918
185.8934	-0.0361
186.1117	-0.0433
186.3299	-0.0042
186.5482	0.3124
186.7664	-0.0459
186.9847	-0.0946
187.2029	0.2249
187.4211	0.1402
187.6393	0.4187
187.8575	-0.0184
188.0757	0.396
188.2939	0.03
188.512	0.0233
188.7302	0.186
188.9483	0.0459
189.1665	0.1302
189.3846	-0.2323
189.6027	0.5913
189.8208	0.1909
190.0389	0.1043
190.257	0.1548
190.475	-0.0501
190.6931	0.1394
190.9111	0.593
191.1292	0.3279
191.3472	0.3774
191.5652	0.2363
191.7832	0.1805
192.0012	0.263
192.2192	0.3213
192.4371	0.4867
192.6551	0.5074
192.873	0.5094
193.091	0.3882
193.3089	0.4927
193.5268	0.5714
193.7447	0.6158
193.9626	0.5081
194.1805	0.6456
194.3984	0.6681
194.6162	0.4509
194.8341	0.5087
195.0519	0.6075
195.2697	0.6433
195.4875	0.5698
195.7054	0.7658
195.9231	0.5329
196.1409	0.4729
196.3587	0.5878
196.5765	0.6799
196.7942	0.6342
197.012	0.5788
197.2297	0.5197
197.4474	0.8378
197.6651	0.4709
197.8828	0.5265
198.1005	0.5459
198.3182	0.532
198.5358	0.7651
198.7535	0.6549
198.9711	0.5209
199.1888	0.589
199.4064	0.7037
199.624	0.5101
199.8416	0.5872
200.0592	0.7316
200.2767	0.6735
200.4943	0.794
200.7119	0.5975
200.9294	0.5994
201.1469	0.5462
201.3645	0.6049
201.582	0.5438
201.7995	0.7251
202.017	0.6616
202.2344	0.6298
202.4519	0.8496
202.6694	0.6513
202.8868	0.6992
203.1042	0.7428
203.3217	0.5767
203.5391	0.7042
203.7565	0.5833
203.9739	0.5463
204.1913	0.5724
204.4086	0.5834
204.626	0.5997
204.8433	0.7412
205.0607	0.5536
205.278	0.7963
205.4953	0.6652
205.7126	0.6871
205.9299	0.6928
206.1472	0.7466
206.3644	0.6037
206.5817	0.7112
206.7989	0.7383
207.0162	0.6527
207.2334	0.7209
207.4506	0.6402
207.6678	0.6488
207.885	0.7524
208.1022	0.7122
208.3194	0.6741
208.5365	0.6772
208.7537	0.6829
208.9708	0.5747
209.1879	0.6463
209.405	0.6537
209.6222	0.6842
209.8392	0.6837
210.0563	0.5489
210.2734	0.6529
210.4905	0.6518
210.7075	0.6306
210.9245	0.5338
211.1416	0.7119
211.3586	0.6068
211.5756	0.6101
211.7926	0.5697
212.0096	0.6741
212.2265	0.5577
212.4435	0.5933
212.6604	0.618
212.8774	0.6517
213.0943	0.6231
213.3112	0.5575
213.5281	0.5403
213.745	0.5129
213.9619	0.5724
214.1788	0.4737
214.3956	0.4856
214.6125	0.5359
214.8293	0.4249
215.0461	0.5315
215.2629	0.4514
215.4798	0.4828
215.6965	0.3939
215.9133	0.4468
216.1301	0.4383
216.3469	0.4358
216.5636	0.4353
216.7803	0.3928
216.9971	0.391
217.2138	0.3741
217.4305	0.375
217.6472	0.3393
217.8639	0.3742
218.0805	0.3491
218.2972	0.3165
218.5138	0.3312
218.7305	0.3026
218.9471	0.3169
219.1637	0.2957
219.3803	0.276
219.5969	0.2655
219.8135	0.2523
220.0301	0.2871
220.2466	0.2714
220.4632	0.2637
220.6797	0.2485
220.8962	0.2453
221.1127	0.2428
221.3292	0.2529
221.5457	0.2398
221.7622	0.2215
221.9787	0.2578
222.1951	0.2441
222.4116	0.248
222.628	0.2471
222.8444	0.2282
223.0608	0.247
223.2772	0.2567
223.4936	0.2428
223.71	0.2625
223.9264	0.2613
224.1427	0.2487
224.3591	0.252
224.5754	0.2534
224.7917	0.2565
225.008	0.258
225.2243	0.2416
225.4406	0.2855
225.6569	0.2722
225.8732	0.2604
226.0894	0.2703
226.3057	0.2576
226.5219	0.2893
226.7381	0.2611
226.9543	0.2934
227.1705	0.2754
227.3867	0.2731
227.6029	0.2851
227.8191	0.2928
228.0352	0.2871
228.2513	0.325
228.4675	0.3022
228.6836	0.3019
228.8997	0.2979
229.1158	0.2989
229.3319	0.3091
229.548	0.3066
229.764	0.3261
229.9801	0.3183
230.1961	0.3108
230.4121	0.3147
230.6282	0.3404
230.8442	0.3111
231.0602	0.3365
231.2761	0.3347
231.4921	0.3386
231.7081	0.3481
231.924	0.3465
232.14	0.3491
232.3559	0.342
232.5718	0.3573
232.7877	0.3649
233.0036	0.3596
233.2195	0.3591
233.4353	0.3637
233.6512	0.3538
233.867	0.3671
234.0829	0.3577
234.2987	0.3465
234.5145	0.3922
234.7303	0.3704
234.9461	0.3913
235.1619	0.3641
235.3776	0.3966
235.5934	0.3763
235.8091	0.3652
236.0249	0.3954
236.2406	0.3852
236.4563	0.3889
236.672	0.3793
236.8877	0.3809
237.1034	0.3784
237.319	0.3962
237.5347	0.4043
237.7503	0.3714
237.966	0.3979
238.1816	0.399
238.3972	0.4133
238.6128	0.3947
238.8284	0.3836
239.0439	0.4021
239.2595	0.3914
239.475	0.4135
239.6906	0.4124
239.9061	0.3964
240.1216	0.4238
240.3371	0.41
240.5526	0.3952
240.7681	0.415
240.9836	0.4058
241.199	0.415
241.4145	0.3961
241.6299	0.3928
241.8453	0.3914
242.0607	0.3852
242.2761	0.389
242.4915	0.3791
242.7069	0.3777
242.9223	0.3766
243.1376	0.3621
243.353	0.363
243.5683	0.3698
243.7836	0.3506
243.9989	0.3447
244.2142	0.3294
244.4295	0.3386
244.6448	0.3314
244.86	0.3179
245.0753	0.3184
245.2905	0.3146
245.5057	0.292
245.721	0.2966
245.9362	0.2806
246.1514	0.2869
246.3665	0.2852
246.5817	0.2767
246.7969	0.2708
247.012	0.2707
247.2271	0.2538
247.4423	0.2584
247.6574	0.2608
247.8725	0.2656
248.0876	0.2423
248.3026	0.2422
248.5177	0.2347
248.7328	0.2439
248.9478	0.2234
249.1628	0.2394
249.3779	0.2354
249.5929	0.2183
249.8079	0.235
250.0228	0.2026
250.2378	0.2345
250.4528	0.2175
250.6677	0.202
250.8827	0.2104
251.0976	0.2029
251.3125	0.2072
251.5274	0.1937
251.7423	0.1989
251.9572	0.1933
252.172	0.1951
252.3869	0.1959
252.6017	0.1921
252.8166	0.1839
253.0314	0.1709
253.2462	0.178
253.461	0.1884
253.6758	0.179
253.8906	0.1878
254.1053	0.1718
254.3201	0.1751
254.5348	0.1955
254.7496	0.185
254.9643	0.1707
255.179	0.1736
255.3937	0.1678
255.6083	0.174
255.823	0.1701
256.0377	0.1611
256.2523	0.1722
256.467	0.1681
256.6816	0.1989
256.8962	0.1715
257.1108	0.1733
257.3254	0.1761
257.54	0.173
257.7545	0.1707
257.9691	0.187
258.1836	0.1706
258.3981	0.1863
258.6127	0.1829
258.8272	0.1716
259.0417	0.1654
259.2561	0.1653
259.4706	0.1672
259.6851	0.1706
259.8995	0.1745
260.114	0.1772
260.3284	0.1643
260.5428	0.1605
260.7572	0.1763
260.9716	0.1776
261.186	0.178
261.4003	0.1657
261.6147	0.1762
261.829	0.1734
262.0433	0.167
262.2577	0.1685
262.472	0.1663
262.6863	0.1633
262.9005	0.1679
263.1148	0.1746
263.3291	0.1539
263.5433	0.1756
263.7576	0.1691
263.9718	0.1685
264.186	0.1749
264.4002	0.1634
264.6144	0.1706
264.8286	0.1813
265.0427	0.1735
265.2569	0.1752
265.471	0.1696
265.6851	0.1747
265.8993	0.1669
266.1134	0.163
266.3275	0.168
266.5415	0.1683
266.7556	0.1743
266.9697	0.1707
267.1837	0.1684
267.3978	0.1682
267.6118	0.1806
267.8258	0.1891
268.0398	0.1666
268.2538	0.178
268.4677	0.1883
268.6817	0.1685
268.8957	0.1849
269.1096	0.1717
269.3235	0.1877
269.5374	0.1644
269.7514	0.1654
269.9652	0.1649
270.1791	0.1752
270.393	0.1624
270.6068	0.1603
270.8207	0.1661
271.0345	0.1658
271.2483	0.177
271.4622	0.1729
271.676	0.1834
271.8897	0.155
272.1035	0.1531
272.3173	0.1783
272.531	0.1631
272.7448	0.1546
272.9585	0.1679
273.1722	0.162
273.3859	0.1636
273.5996	0.1565
273.8133	0.1619
274.0269	0.1555
274.2406	0.163
274.4542	0.172
274.6679	0.1603
274.8815	0.1751
275.0951	0.1825
275.3087	0.1785
275.5223	0.1732
275.7358	0.1783
275.9494	0.1724
276.1629	0.1583
276.3765	0.1718
276.59	0.1841
276.8035	0.1659
277.017	0.1794
277.2305	0.1652
277.444	0.1796
277.6574	0.1569
277.8709	0.1776
278.0843	0.1643
278.2978	0.1618
278.5112	0.1751
278.7246	0.1608
278.938	0.1819
279.1513	0.1815
279.3647	0.1833
279.5781	0.1649
279.7914	0.1716
280.0047	0.1811
280.2181	0.1757
280.4314	0.1714
280.6447	0.178
280.8579	0.1695
281.0712	0.1815
281.2845	0.1797
281.4977	0.1761
281.711	0.1721
281.9242	0.1695
282.1374	0.175
282.3506	0.1701
282.5638	0.167
282.7769	0.1761
282.9901	0.1671
283.2033	0.1759
283.4164	0.172
283.6295	0.1696
283.8426	0.1582
284.0557	0.1711
284.2688	0.1846
284.4819	0.1724
284.695	0.1626
284.908	0.1862
285.1211	0.1753
285.3341	0.1678
285.5471	0.1761
285.7601	0.155
285.9731	0.1589
286.1861	0.1496
286.3991	0.1772
286.612	0.1721
286.825	0.1675
287.0379	0.1639
287.2508	0.1555
287.4637	0.1689
287.6766	0.1587
287.8895	0.1699
288.1024	0.1688
288.3152	0.1565
288.5281	0.1688
288.7409	0.1638
288.9538	0.1601
289.1666	0.1559
289.3794	0.1598
289.5922	0.1571
289.8049	0.1646
290.0177	0.1599
290.2304	0.1568
290.4432	0.1512
290.6559	0.1574
290.8686	0.1631
291.0813	0.1544
291.294	0.1545
291.5067	0.1587
291.7194	0.1574
291.932	0.1726
292.1447	0.1492
292.3573	0.1431
292.5699	0.1609
292.7825	0.1504
292.9951	0.153
293.2077	0.158
293.4203	0.155
293.6328	0.147
293.8454	0.1615
294.0579	0.1509
294.2704	0.163
294.4829	0.1401
294.6954	0.1517
294.9079	0.1535
295.1204	0.1491
295.3328	0.1463
295.5453	0.1497
295.7577	0.1552
295.9701	0.1402
296.1825	0.1556
296.3949	0.143
296.6073	0.1579
296.8197	0.139
297.0321	0.1642
297.2444	0.1357
297.4567	0.1507
297.6691	0.1368
297.8814	0.1468
298.0937	0.1449
298.306	0.1622
298.5182	0.1506
298.7305	0.1592
298.9428	0.1425
299.155	0.1466
299.3672	0.1391
299.5794	0.1387
299.7916	0.1533
300.0038	0.1637
300.216	0.1493
300.4282	0.154
300.6403	0.1392
300.8525	0.1529
301.0646	0.1455
301.2767	0.1566
301.4888	0.1491
301.7009	0.1411
301.913	0.1428
302.125	0.1509
302.3371	0.1464
302.5491	0.1418
302.7612	0.1601
302.9732	0.155
303.1852	0.1506
303.3972	0.154
303.6092	0.1441
303.8211	0.1454
304.0331	0.1508
304.245	0.1414
304.457	0.1401
304.6689	0.1432
304.8808	0.15
305.0927	0.1404
305.3046	0.1399
305.5164	0.1501
305.7283	0.1444
305.9401	0.1307
306.152	0.1319
306.3638	0.1415
306.5756	0.1326
306.7874	0.1404
306.9992	0.1425
307.2109	0.1441
307.4227	0.1244
307.6344	0.1268
307.8462	0.127
308.0579	0.1359
308.2696	0.1394
308.4813	0.1353
308.693	0.1255
308.9046	0.1334
309.1163	0.1172
309.328	0.1216
309.5396	0.118
309.7512	0.1155
309.9628	0.1111
310.1744	0.1157
310.386	0.1239
310.5976	0.1222
310.8091	0.1207
311.0207	0.1198
311.2322	0.1351
311.4437	0.1113
311.6552	0.1083
311.8667	0.1117
312.0782	0.1036
312.2897	0.114
312.5012	0.1165
312.7126	0.1141
312.924	0.1146
313.1355	0.1275
313.3469	0.1159
313.5583	0.1237
313.7696	0.1132
313.981	0.1146
314.1924	0.1249
314.4037	0.1058
314.6151	0.1233
314.8264	0.094
315.0377	0.1065
315.249	0.1146
315.4603	0.1211
315.6716	0.1068
315.8828	0.102
316.0941	0.112
316.3053	0.105
316.5165	0.1039
316.7277	0.11
316.9389	0.1263
317.1501	0.1125
317.3613	0.121
317.5724	0.1022
317.7836	0.12
317.9947	0.1082
318.2058	0.1069
318.417	0.0997
318.6281	0.0967
318.8391	0.1075
319.0502	0.1072
319.2613	0.1098
319.4723	0.1214
319.6834	0.1064
319.8944	0.1254
320.1054	0.1127
320.3164	0.1125
320.5274	0.1119
320.7383	0.1064
320.9493	0.1036
321.1602	0.1209
321.3712	0.0955
321.5821	0.119
321.793	0.1107
322.0039	0.118
322.2148	0.1095
322.4257	0.1245
322.6365	0.1142
322.8474	0.1278
323.0582	0.1189
323.269	0.1267
323.4798	0.1305
323.6906	0.1173
323.9014	0.1163
324.1122	0.1241
324.3229	0.1137
324.5337	0.1168
324.7444	0.1097
324.9551	0.1401
325.1658	0.1194
325.3765	0.1314
325.5872	0.122
325.7979	0.1128
326.0085	0.1097
326.2192	0.1206
326.4298	0.1209
326.6404	0.1104
326.851	0.1185
327.0616	0.1146
327.2722	0.12
327.4828	0.1337
327.6933	0.1058
327.9039	0.1256
328.1144	0.1263
328.3249	0.1299
328.5354	0.1151
328.7459	0.1134
328.9564	0.1213
329.1669	0.1197
329.3773	0.1233
329.5878	0.1177
329.7982	0.1156
330.0086	0.1158
330.219	0.1273
330.4294	0.1151
330.6398	0.1159
330.8502	0.1107
331.0605	0.1316
331.2708	0.1207
331.4812	0.1302
331.6915	0.1287
331.9018	0.1247
332.1121	0.1181
332.3224	0.1193
332.5326	0.1316
332.7429	0.1301
332.9531	0.1291
333.1633	0.1235
333.3735	0.125
333.5837	0.121
333.7939	0.1161
334.0041	0.1356
334.2143	0.1307
334.4244	0.1343
334.6346	0.1051
334.8447	0.1366
335.0548	0.1241
335.2649	0.1142
335.475	0.1364
335.685	0.1279
335.8951	0.1304
336.1051	0.1395
336.3152	0.1282
336.5252	0.1329
336.7352	0.1241
336.9452	0.1399
337.1552	0.1417
337.3652	0.1283
337.5751	0.1182
337.7851	0.128
337.995	0.1132
338.2049	0.1323
338.4148	0.1358
338.6247	0.1262
338.8346	0.1245
339.0445	0.13
339.2543	0.1221
339.4642	0.1353
339.674	0.13
339.8838	0.1298
340.0936	0.1344
340.3034	0.1461
340.5132	0.1448
340.7229	0.1398
340.9327	0.1308
341.1424	0.1248
341.3522	0.1475
341.5619	0.1297
341.7716	0.1359
341.9813	0.1378
342.1909	0.1194
342.4006	0.1259
342.6102	0.1373
342.8199	0.1401
343.0295	0.1263
343.2391	0.138
343.4487	0.1473
343.6583	0.1245
343.8679	0.1386
344.0774	0.1448
344.287	0.1356
344.4965	0.1467
344.706	0.1429
344.9155	0.1323
345.125	0.1316
345.3345	0.1509
345.544	0.1337
345.7534	0.1451
345.9629	0.1375
346.1723	0.1415
346.3817	0.1294
346.5911	0.1357
346.8005	0.1508
347.0099	0.1431
347.2193	0.1379
347.4286	0.1401
347.638	0.1461
347.8473	0.1397
348.0566	0.1569
348.2659	0.1505
348.4752	0.1498
348.6845	0.1449
348.8937	0.1355
349.103	0.1495
349.3122	0.1353
349.5214	0.1364
349.7306	0.1527
349.9398	0.1489
350.149	0.1416
350.3582	0.1351
350.5674	0.1662
350.7765	0.1552
350.9856	0.1571
351.1948	0.1446
351.4039	0.1425
351.613	0.1447
351.822	0.1461
352.0311	0.1538
352.2402	0.1526
352.4492	0.1683
352.6582	0.1506
352.8672	0.1463
353.0762	0.1437
353.2852	0.1391
353.4942	0.1441
353.7032	0.1428
353.9121	0.1524
354.1211	0.1526
354.33	0.1607
354.5389	0.1544
354.7478	0.1577
354.9567	0.1644
355.1655	0.1424
355.3744	0.1566
355.5833	0.1655
355.7921	0.1703
356.0009	0.147
356.2097	0.1775
356.4185	0.1596
356.6273	0.175
356.8361	0.1596
357.0448	0.161
357.2536	0.1407
357.4623	0.1524
357.671	0.1663
357.8797	0.1644
358.0884	0.1669
358.2971	0.1592
358.5057	0.1713
358.7144	0.1639
358.923	0.1613
359.1316	0.1625
359.3402	0.161
359.5488	0.1715
359.7574	0.1544
359.966	0.1916
360.1746	0.1711
360.3831	0.1632
360.5916	0.1685
360.8002	0.1653
361.0087	0.1794
361.2172	0.1735
361.4256	0.175
361.6341	0.1812
361.8426	0.1759
362.051	0.1709
362.2594	0.1731
362.4678	0.1691
362.6762	0.1959
362.8846	0.1976
363.093	0.169
363.3014	0.1644
363.5097	0.1588
363.718	0.1884
363.9264	0.1738
364.1347	0.1744
364.343	0.1851
364.5513	0.1823
364.7595	0.1915
364.9678	0.179
365.176	0.1942
365.3842	0.1843
365.5925	0.1772
365.8007	0.1851
366.0089	0.1796
366.217	0.1849
366.4252	0.1853
366.6333	0.2053
366.8415	0.1909
367.0496	0.1746
367.2577	0.192
367.4658	0.196
367.6739	0.1969
367.882	0.2042
368.09	0.1848
368.2981	0.184
368.5061	0.1873
368.7141	0.19
368.9221	0.201
369.1301	0.187
369.3381	0.1963
369.5461	0.1943
369.754	0.1896
369.962	0.1951
370.1699	0.1969
370.3778	0.2057
370.5857	0.1829
370.7936	0.1831
371.0015	0.2014
371.2093	0.2022
371.4172	0.1865
371.625	0.183
371.8328	0.1965
372.0406	0.1896
372.2484	0.2039
372.4562	0.181
372.664	0.1877
372.8717	0.1935
373.0795	0.1695
373.2872	0.2013
373.4949	0.1931
373.7026	0.2008
373.9103	0.2048
374.118	0.1921
374.3256	0.2041
374.5333	0.1911
374.7409	0.2026
374.9485	0.2225
375.1561	0.1973
375.3637	0.2099
375.5713	0.2059
375.7789	0.2074
375.9864	0.1977
376.194	0.1893
376.4015	0.2023
376.609	0.2002
376.8165	0.1991
377.024	0.1946
377.2315	0.1978
377.4389	0.2098
377.6464	0.2127
377.8538	0.1951
378.0612	0.1857
378.2686	0.2023
378.476	0.215
378.6834	0.204
378.8908	0.2017
379.0981	0.2031
379.3055	0.2196
379.5128	0.1991
379.7201	0.2134
379.9274	0.1968
380.1347	0.2055
380.342	0.2245
380.5492	0.2197
380.7565	0.1978
380.9637	0.2046
381.1709	0.2023
381.3781	0.2105
381.5853	0.2078
381.7925	0.2122
381.9997	0.2234
382.2068	0.2229
382.4139	0.2098
382.6211	0.1953
382.8282	0.2035
383.0353	0.2217
383.2424	0.2015
383.4494	0.2203
383.6565	0.2088
383.8635	0.1932
384.0706	0.2014
384.2776	0.2088
384.4846	0.2062
384.6916	0.2033
384.8986	0.2136
385.1055	0.2139
385.3125	0.2012
385.5194	0.1932
385.7263	0.2191
385.9333	0.2068
386.1402	0.2039
386.347	0.2182
386.5539	0.1998
386.7608	0.2102
386.9676	0.1995
387.1744	0.1985
387.3813	0.1921
387.5881	0.2023
387.7948	0.1972
388.0016	0.199
388.2084	0.2041
388.4151	0.1937
388.6219	0.2084
388.8286	0.186
389.0353	0.2173
389.242	0.1945
389.4487	0.201
389.6553	0.1862
389.862	0.1845
390.0686	0.1851
390.2753	0.1936
390.4819	0.203
390.6885	0.1919
390.8951	0.1928
391.1016	0.1976
391.3082	0.1866
391.5147	0.1841
391.7213	0.1832
391.9278	0.1877
392.1343	0.1829
392.3408	0.1867
392.5473	0.181
392.7537	0.1807
392.9602	0.1832
393.1666	0.1823
393.373	0.1772
393.5794	0.1873
393.7858	0.1762
393.9922	0.1807
394.1986	0.1933
394.4049	0.187
394.6113	0.1824
394.8176	0.157
395.0239	0.1849
395.2302	0.1817
395.4365	0.1682
395.6428	0.1675
395.8491	0.1685
396.0553	0.185
396.2615	0.1774
396.4678	0.153
396.674	0.1621
396.8802	0.1811
397.0863	0.1876
397.2925	0.1612
397.4987	0.1692
397.7048	0.1649
397.9109	0.1675
398.117	0.1566
398.3231	0.1698
398.5292	0.1706
398.7353	0.1747
398.9413	0.163
399.1474	0.1618
399.3534	0.1594
399.5594	0.1471
399.7654	0.1698
399.9714	0.1651
400.1774	0.1653
400.3833	0.1522
400.5893	0.1669
400.7952	0.1611
401.0011	0.1597
401.207	0.178
401.4129	0.174
401.6188	0.1749
401.8247	0.1719
402.0305	0.1508
402.2364	0.1484
402.4422	0.1669
402.648	0.1575
402.8538	0.1672
403.0596	0.1672
403.2654	0.1692
403.4711	0.157
403.6768	0.159
403.8826	0.1698
404.0883	0.16
404.294	0.1673
404.4997	0.1473
404.7054	0.1603
404.911	0.1537
405.1167	0.1606
405.3223	0.1599
405.5279	0.1741
405.7335	0.1573
405.9391	0.167
406.1447	0.1515
406.3502	0.1749
406.5558	0.1643
406.7613	0.1705
406.9668	0.1622
407.1724	0.1506
407.3778	0.1639
407.5833	0.159
407.7888	0.1434
407.9942	0.1876
408.1997	0.1498
408.4051	0.1562
408.6105	0.1696
408.8159	0.1551
409.0213	0.1638
409.2267	0.1692
409.432	0.1409
409.6374	0.1739
409.8427	0.1529
410.048	0.1636
410.2533	0.1509
410.4586	0.1534
410.6639	0.1409
410.8691	0.1518
411.0744	0.1427
411.2796	0.168
411.4848	0.154
411.69	0.1475
411.8952	0.1789
412.1004	0.1347
412.3056	0.1717
412.5107	0.1488
412.7158	0.1518
412.921	0.1555
413.1261	0.1558
413.3312	0.165
413.5362	0.1522
413.7413	0.1474
413.9464	0.1459
414.1514	0.1385
414.3564	0.1415
414.5614	0.1364
414.7664	0.1581
414.9714	0.1561
415.1764	0.1476
415.3813	0.1487
415.5863	0.1452
415.7912	0.1494
415.9961	0.1399
416.201	0.1489
416.4059	0.1486
416.6108	0.1455
416.8156	0.1537
417.0205	0.1391
417.2253	0.1388
417.4301	0.1537
417.6349	0.1356
417.8397	0.1604
418.0445	0.1591
418.2492	0.1409
418.454	0.1548
418.6587	0.1342
418.8634	0.1466
419.0681	0.1452
419.2728	0.1341
419.4775	0.137
419.6822	0.1534
419.8868	0.1224
420.0915	0.1451
420.2961	0.1357
420.5007	0.1123
420.7053	0.142
420.9099	0.1418
421.1144	0.1536
421.319	0.1318
421.5235	0.145
421.728	0.1415
421.9325	0.1469
422.137	0.1514
422.3415	0.1287
422.546	0.1328
422.7504	0.1386
422.9549	0.133
423.1593	0.1376
423.3637	0.1378
423.5681	0.1378
423.7725	0.1073
423.9769	0.1135
424.1812	0.1339
424.3856	0.1404
424.5899	0.129
424.7942	0.1226
424.9985	0.1284
425.2028	0.1067
425.4071	0.1464
425.6113	0.1003
425.8156	0.1214
426.0198	0.1289
426.224	0.1272
426.4282	0.1195
426.6324	0.1174
