Data from MonoPyChalIsomerACN10uM420nmA_Absorbance_15-09-54-035.txt Node
Date: Fri Jul 05 15:09:54 BST 2024
User: LASERRRRR
Spectrometer: FLMT03099
Trigger mode: 0
Integration Time (sec): 1.000000E-1
Scans to average: 1
Electric dark correction enabled: true
Nonlinearity correction enabled: false
Boxcar width: 0
XAxis mode: Wavelengths
Number of Pixels in Spectrum: 3648
>>>>>Begin Spectral Data<<<<<
179.3399	-0.4079
179.5586	-0.4079
179.7771	-0.4079
179.9957	-0
180.2143	-0
180.4329	0.3247
180.6514	-0
180.8699	-0
181.0885	0.0263
181.307	0.3176
181.5255	-0.5375
181.744	-0.2821
181.9625	-0.2882
182.181	-0.2571
182.3994	0.0853
182.6179	-0.033
182.8363	-0
183.0547	-0.1677
183.2732	0.0522
183.4916	0.1232
183.71	0.097
183.9284	0.0616
184.1467	-0.0351
184.3651	-0.0929
184.5835	-0.0697
184.8018	0.0498
185.0201	-0.1026
185.2385	-0.0988
185.4568	0.3026
185.6751	0.2141
185.8934	0.5514
186.1117	-0.087
186.3299	0.0083
186.5482	-0.0456
186.7664	-0.0526
186.9847	-0.0781
187.2029	0.0278
187.4211	-0.0024
187.6393	0.1229
187.8575	0.0796
188.0757	0.2739
188.2939	0.0897
188.512	-0.1291
188.7302	0.0134
188.9483	0.028
189.1665	0.1078
189.3846	0.1371
189.6027	0.5221
189.8208	0.2106
190.0389	-0.0329
190.257	0.0284
190.475	0.1044
190.6931	0.1412
190.9111	0.3382
191.1292	0.166
191.3472	0.4859
191.5652	0.3949
191.7832	0.1222
192.0012	0.4867
192.2192	0.3934
192.4371	0.4779
192.6551	0.219
192.873	0.531
193.091	0.2747
193.3089	0.5681
193.5268	0.4795
193.7447	0.6672
193.9626	0.4112
194.1805	0.6234
194.3984	0.7226
194.6162	0.6268
194.8341	0.5967
195.0519	0.5271
195.2697	0.7399
195.4875	0.6234
195.7054	0.5839
195.9231	0.4374
196.1409	0.6251
196.3587	0.6183
196.5765	0.6286
196.7942	0.5187
197.012	0.6318
197.2297	0.6812
197.4474	0.8627
197.6651	0.4971
197.8828	0.5276
198.1005	0.6514
198.3182	0.5108
198.5358	0.7984
198.7535	0.5615
198.9711	0.5041
199.1888	0.5539
199.4064	0.6943
199.624	0.4783
199.8416	0.6839
200.0592	0.6324
200.2767	0.6379
200.4943	0.6529
200.7119	0.7747
200.9294	0.5979
201.1469	0.4515
201.3645	0.5898
201.582	0.565
201.7995	0.6212
202.017	0.5712
202.2344	0.6047
202.4519	0.7774
202.6694	0.6797
202.8868	0.5975
203.1042	0.6301
203.3217	0.7062
203.5391	0.6477
203.7565	0.5597
203.9739	0.7087
204.1913	0.5952
204.4086	0.6078
204.626	0.7549
204.8433	0.6614
205.0607	0.6363
205.278	0.7137
205.4953	0.61
205.7126	0.5521
205.9299	0.7521
206.1472	0.653
206.3644	0.6133
206.5817	0.6549
206.7989	0.6578
207.0162	0.6587
207.2334	0.6598
207.4506	0.6939
207.6678	0.6915
207.885	0.7332
208.1022	0.6364
208.3194	0.6748
208.5365	0.6148
208.7537	0.5908
208.9708	0.5161
209.1879	0.6344
209.405	0.7185
209.6222	0.685
209.8392	0.6319
210.0563	0.6723
210.2734	0.646
210.4905	0.6569
210.7075	0.673
210.9245	0.6322
211.1416	0.7058
211.3586	0.6491
211.5756	0.6299
211.7926	0.6134
212.0096	0.5901
212.2265	0.531
212.4435	0.5572
212.6604	0.5418
212.8774	0.632
213.0943	0.633
213.3112	0.5349
213.5281	0.5191
213.745	0.5221
213.9619	0.5825
214.1788	0.4668
214.3956	0.4713
214.6125	0.4592
214.8293	0.4636
215.0461	0.4689
215.2629	0.501
215.4798	0.4898
215.6965	0.4094
215.9133	0.4254
216.1301	0.3902
216.3469	0.4367
216.5636	0.4268
216.7803	0.3918
216.9971	0.4176
217.2138	0.3659
217.4305	0.3655
217.6472	0.3806
217.8639	0.3798
218.0805	0.3311
218.2972	0.3446
218.5138	0.3182
218.7305	0.3586
218.9471	0.2983
219.1637	0.2768
219.3803	0.2967
219.5969	0.2953
219.8135	0.2291
220.0301	0.2964
220.2466	0.2505
220.4632	0.2602
220.6797	0.2361
220.8962	0.2472
221.1127	0.2618
221.3292	0.2356
221.5457	0.2453
221.7622	0.2305
221.9787	0.2573
222.1951	0.2371
222.4116	0.2513
222.628	0.2394
222.8444	0.2563
223.0608	0.2514
223.2772	0.2269
223.4936	0.2645
223.71	0.2436
223.9264	0.2747
224.1427	0.2527
224.3591	0.2542
224.5754	0.2676
224.7917	0.2833
225.008	0.2538
225.2243	0.2573
225.4406	0.2731
225.6569	0.2634
225.8732	0.2662
226.0894	0.2549
226.3057	0.274
226.5219	0.2888
226.7381	0.2656
226.9543	0.2958
227.1705	0.2741
227.3867	0.2741
227.6029	0.2843
227.8191	0.297
228.0352	0.3031
228.2513	0.3093
228.4675	0.3009
228.6836	0.2885
228.8997	0.3016
229.1158	0.3074
229.3319	0.3045
229.548	0.3086
229.764	0.3253
229.9801	0.3234
230.1961	0.3284
230.4121	0.3375
230.6282	0.3345
230.8442	0.3258
231.0602	0.3468
231.2761	0.3484
231.4921	0.3497
231.7081	0.3501
231.924	0.3579
232.14	0.3667
232.3559	0.3416
232.5718	0.3742
232.7877	0.3719
233.0036	0.3459
233.2195	0.3567
233.4353	0.3583
233.6512	0.3707
233.867	0.3634
234.0829	0.3467
234.2987	0.3583
234.5145	0.3619
234.7303	0.3732
234.9461	0.4139
235.1619	0.3794
235.3776	0.3895
235.5934	0.3887
235.8091	0.3621
236.0249	0.3847
236.2406	0.3801
236.4563	0.3852
236.672	0.3863
236.8877	0.3931
237.1034	0.4199
237.319	0.3709
237.5347	0.4081
237.7503	0.4022
237.966	0.3999
238.1816	0.4237
238.3972	0.4056
238.6128	0.382
238.8284	0.4005
239.0439	0.4114
239.2595	0.3888
239.475	0.4106
239.6906	0.4158
239.9061	0.4242
240.1216	0.4089
240.3371	0.4018
240.5526	0.4021
240.7681	0.4068
240.9836	0.3884
241.199	0.4003
241.4145	0.3962
241.6299	0.3931
241.8453	0.378
242.0607	0.3983
242.2761	0.3752
242.4915	0.3728
242.7069	0.3927
242.9223	0.3647
243.1376	0.3631
243.353	0.364
243.5683	0.3609
243.7836	0.3487
243.9989	0.3461
244.2142	0.3225
244.4295	0.3267
244.6448	0.3348
244.86	0.3135
245.0753	0.3136
245.2905	0.3152
245.5057	0.3096
245.721	0.2944
245.9362	0.2912
246.1514	0.2868
246.3665	0.2804
246.5817	0.2665
246.7969	0.2723
247.012	0.2608
247.2271	0.2618
247.4423	0.2681
247.6574	0.2696
247.8725	0.2558
248.0876	0.2357
248.3026	0.2499
248.5177	0.2389
248.7328	0.2317
248.9478	0.2244
249.1628	0.2307
249.3779	0.2296
249.5929	0.2307
249.8079	0.2232
250.0228	0.2054
250.2378	0.221
250.4528	0.206
250.6677	0.1879
250.8827	0.2166
251.0976	0.205
251.3125	0.2027
251.5274	0.1868
251.7423	0.195
251.9572	0.1856
252.172	0.1863
252.3869	0.1859
252.6017	0.1969
252.8166	0.1816
253.0314	0.1772
253.2462	0.1868
253.461	0.1823
253.6758	0.1687
253.8906	0.1828
254.1053	0.1665
254.3201	0.1697
254.5348	0.1779
254.7496	0.1996
254.9643	0.1897
255.179	0.1674
255.3937	0.1675
255.6083	0.1786
255.823	0.1777
256.0377	0.1707
256.2523	0.1811
256.467	0.1629
256.6816	0.1806
256.8962	0.171
257.1108	0.1657
257.3254	0.1707
257.54	0.1659
257.7545	0.1836
257.9691	0.1675
258.1836	0.1677
258.3981	0.1775
258.6127	0.1833
258.8272	0.1623
259.0417	0.1685
259.2561	0.1639
259.4706	0.1693
259.6851	0.1776
259.8995	0.1668
260.114	0.1692
260.3284	0.1727
260.5428	0.1629
260.7572	0.1626
260.9716	0.1736
261.186	0.1666
261.4003	0.1599
261.6147	0.1795
261.829	0.1668
262.0433	0.1664
262.2577	0.1728
262.472	0.1717
262.6863	0.1665
262.9005	0.1825
263.1148	0.1726
263.3291	0.1491
263.5433	0.1784
263.7576	0.1728
263.9718	0.1781
264.186	0.1648
264.4002	0.1734
264.6144	0.1691
264.8286	0.1708
265.0427	0.1741
265.2569	0.1666
265.471	0.1648
265.6851	0.1597
265.8993	0.1671
266.1134	0.1511
266.3275	0.1582
266.5415	0.1727
266.7556	0.1974
266.9697	0.167
267.1837	0.1653
267.3978	0.1698
267.6118	0.1846
267.8258	0.1785
268.0398	0.1662
268.2538	0.1778
268.4677	0.1683
268.6817	0.1624
268.8957	0.177
269.1096	0.1729
269.3235	0.1796
269.5374	0.1663
269.7514	0.1713
269.9652	0.1547
270.1791	0.1677
270.393	0.157
270.6068	0.1602
270.8207	0.1486
271.0345	0.159
271.2483	0.1664
271.4622	0.1559
271.676	0.1679
271.8897	0.1598
272.1035	0.1566
272.3173	0.1606
272.531	0.1726
272.7448	0.1632
272.9585	0.1583
273.1722	0.161
273.3859	0.1729
273.5996	0.1618
273.8133	0.163
274.0269	0.1654
274.2406	0.1636
274.4542	0.1652
274.6679	0.1564
274.8815	0.1592
275.0951	0.1598
275.3087	0.1615
275.5223	0.1657
275.7358	0.1742
275.9494	0.1635
276.1629	0.1521
276.3765	0.162
276.59	0.1639
276.8035	0.1505
277.017	0.1576
277.2305	0.1589
277.444	0.1726
277.6574	0.1715
277.8709	0.1558
278.0843	0.1499
278.2978	0.1544
278.5112	0.161
278.7246	0.1609
278.938	0.1712
279.1513	0.1681
279.3647	0.1802
279.5781	0.1546
279.7914	0.1739
280.0047	0.1698
280.2181	0.165
280.4314	0.166
280.6447	0.1728
280.8579	0.1698
281.0712	0.1753
281.2845	0.1682
281.4977	0.1597
281.711	0.1541
281.9242	0.161
282.1374	0.1786
282.3506	0.156
282.5638	0.1821
282.7769	0.1606
282.9901	0.17
283.2033	0.1671
283.4164	0.1742
283.6295	0.1614
283.8426	0.166
284.0557	0.1774
284.2688	0.1746
284.4819	0.1592
284.695	0.1582
284.908	0.1754
285.1211	0.1566
285.3341	0.1626
285.5471	0.1665
285.7601	0.1594
285.9731	0.1541
286.1861	0.1563
286.3991	0.1794
286.612	0.1645
286.825	0.1611
287.0379	0.1737
287.2508	0.1598
287.4637	0.1752
287.6766	0.1534
287.8895	0.1753
288.1024	0.1718
288.3152	0.1685
288.5281	0.1618
288.7409	0.1725
288.9538	0.1594
289.1666	0.1603
289.3794	0.1669
289.5922	0.1643
289.8049	0.1696
290.0177	0.1568
290.2304	0.1597
290.4432	0.1632
290.6559	0.1489
290.8686	0.1619
291.0813	0.1718
291.294	0.1545
291.5067	0.1593
291.7194	0.1572
291.932	0.1627
292.1447	0.1618
292.3573	0.1479
292.5699	0.1616
292.7825	0.1668
292.9951	0.1587
293.2077	0.1562
293.4203	0.1538
293.6328	0.1529
293.8454	0.1516
294.0579	0.1594
294.2704	0.1494
294.4829	0.141
294.6954	0.1534
294.9079	0.1591
295.1204	0.1576
295.3328	0.1537
295.5453	0.1562
295.7577	0.15
295.9701	0.143
296.1825	0.1631
296.3949	0.1496
296.6073	0.1522
296.8197	0.1456
297.0321	0.1598
297.2444	0.1492
297.4567	0.1601
297.6691	0.1562
297.8814	0.1568
298.0937	0.1561
298.306	0.1672
298.5182	0.1521
298.7305	0.1571
298.9428	0.144
299.155	0.1579
299.3672	0.1464
299.5794	0.1563
299.7916	0.1501
300.0038	0.1615
300.216	0.1635
300.4282	0.152
300.6403	0.1447
300.8525	0.1585
301.0646	0.1439
301.2767	0.1582
301.4888	0.1595
301.7009	0.1509
301.913	0.1612
302.125	0.1548
302.3371	0.1541
302.5491	0.1548
302.7612	0.1576
302.9732	0.1558
303.1852	0.1585
303.3972	0.1444
303.6092	0.1557
303.8211	0.145
304.0331	0.1404
304.245	0.1466
304.457	0.1501
304.6689	0.143
304.8808	0.155
305.0927	0.1479
305.3046	0.1559
305.5164	0.1601
305.7283	0.1482
305.9401	0.1481
306.152	0.1464
306.3638	0.1461
306.5756	0.1431
306.7874	0.1557
306.9992	0.1443
307.2109	0.1408
307.4227	0.1247
307.6344	0.1442
307.8462	0.1373
308.0579	0.1397
308.2696	0.142
308.4813	0.1252
308.693	0.1211
308.9046	0.1328
309.1163	0.1242
309.328	0.1232
309.5396	0.123
309.7512	0.1251
309.9628	0.1253
310.1744	0.125
310.386	0.1154
310.5976	0.1205
310.8091	0.1173
311.0207	0.119
311.2322	0.1278
311.4437	0.1088
311.6552	0.1235
311.8667	0.1162
312.0782	0.101
312.2897	0.1117
312.5012	0.1241
312.7126	0.1103
312.924	0.1094
313.1355	0.1169
313.3469	0.1157
313.5583	0.1201
313.7696	0.0974
313.981	0.1094
314.1924	0.1057
314.4037	0.1123
314.6151	0.116
314.8264	0.1062
315.0377	0.1097
315.249	0.1114
315.4603	0.1168
315.6716	0.1077
315.8828	0.0997
316.0941	0.1103
316.3053	0.1054
316.5165	0.1054
316.7277	0.1005
316.9389	0.1155
317.1501	0.1113
317.3613	0.101
317.5724	0.0961
317.7836	0.1153
317.9947	0.1046
318.2058	0.1059
318.417	0.1012
318.6281	0.0963
318.8391	0.1017
319.0502	0.1046
319.2613	0.1129
319.4723	0.1162
319.6834	0.1227
319.8944	0.0917
320.1054	0.1194
320.3164	0.1085
320.5274	0.0932
320.7383	0.1032
320.9493	0.1077
321.1602	0.1096
321.3712	0.103
321.5821	0.1092
321.793	0.1067
322.0039	0.1057
322.2148	0.11
322.4257	0.1106
322.6365	0.1154
322.8474	0.1122
323.0582	0.1134
323.269	0.1157
323.4798	0.1143
323.6906	0.1099
323.9014	0.1146
324.1122	0.1121
324.3229	0.1034
324.5337	0.1232
324.7444	0.1086
324.9551	0.1291
325.1658	0.1195
325.3765	0.1173
325.5872	0.1068
325.7979	0.1137
326.0085	0.1032
326.2192	0.1257
326.4298	0.1178
326.6404	0.1132
326.851	0.1131
327.0616	0.102
327.2722	0.1159
327.4828	0.1235
327.6933	0.1129
327.9039	0.1184
328.1144	0.1258
328.3249	0.115
328.5354	0.1114
328.7459	0.1138
328.9564	0.0996
329.1669	0.117
329.3773	0.1171
329.5878	0.1195
329.7982	0.1081
330.0086	0.1189
330.219	0.1161
330.4294	0.112
330.6398	0.1161
330.8502	0.1056
331.0605	0.1282
331.2708	0.1119
331.4812	0.1298
331.6915	0.1184
331.9018	0.1319
332.1121	0.115
332.3224	0.1115
332.5326	0.127
332.7429	0.1108
332.9531	0.1283
333.1633	0.1233
333.3735	0.1141
333.5837	0.1142
333.7939	0.1106
334.0041	0.1229
334.2143	0.1293
334.4244	0.1137
334.6346	0.1027
334.8447	0.1283
335.0548	0.122
335.2649	0.1046
335.475	0.1379
335.685	0.1145
335.8951	0.1249
336.1051	0.1152
336.3152	0.1276
336.5252	0.1107
336.7352	0.128
336.9452	0.1347
337.1552	0.1178
337.3652	0.1075
337.5751	0.1164
337.7851	0.1306
337.995	0.1115
338.2049	0.1231
338.4148	0.1197
338.6247	0.1328
338.8346	0.1305
339.0445	0.1333
339.2543	0.1291
339.4642	0.1253
339.674	0.1261
339.8838	0.1226
340.0936	0.1178
340.3034	0.131
340.5132	0.1278
340.7229	0.1345
340.9327	0.1172
341.1424	0.1166
341.3522	0.1452
341.5619	0.1379
341.7716	0.1294
341.9813	0.1297
342.1909	0.1284
342.4006	0.1384
342.6102	0.1418
342.8199	0.1383
343.0295	0.1367
343.2391	0.1304
343.4487	0.1428
343.6583	0.1309
343.8679	0.1327
344.0774	0.1332
344.287	0.1284
344.4965	0.1256
344.706	0.1357
344.9155	0.1366
345.125	0.1342
345.3345	0.1374
345.544	0.1456
345.7534	0.135
345.9629	0.1286
346.1723	0.1435
346.3817	0.1324
346.5911	0.1434
346.8005	0.1425
347.0099	0.142
347.2193	0.1448
347.4286	0.1309
347.638	0.1459
347.8473	0.1361
348.0566	0.1354
348.2659	0.1517
348.4752	0.1491
348.6845	0.135
348.8937	0.151
349.103	0.1503
349.3122	0.134
349.5214	0.13
349.7306	0.1438
349.9398	0.145
350.149	0.153
350.3582	0.1402
350.5674	0.1548
350.7765	0.1559
350.9856	0.1434
351.1948	0.1366
351.4039	0.1368
351.613	0.1368
351.822	0.1434
352.0311	0.1527
352.2402	0.154
352.4492	0.149
352.6582	0.1686
352.8672	0.1497
353.0762	0.1606
353.2852	0.1503
353.4942	0.1362
353.7032	0.1587
353.9121	0.152
354.1211	0.161
354.33	0.1598
354.5389	0.1513
354.7478	0.1516
354.9567	0.1459
355.1655	0.1433
355.3744	0.1455
355.5833	0.1646
355.7921	0.1738
356.0009	0.1594
356.2097	0.176
356.4185	0.1636
356.6273	0.1604
356.8361	0.1645
357.0448	0.1651
357.2536	0.1663
357.4623	0.1631
357.671	0.1681
357.8797	0.1556
358.0884	0.1501
358.2971	0.1666
358.5057	0.1536
358.7144	0.1763
358.923	0.1655
359.1316	0.1653
359.3402	0.1655
359.5488	0.1641
359.7574	0.1546
359.966	0.1725
360.1746	0.1754
360.3831	0.1772
360.5916	0.1615
360.8002	0.1553
361.0087	0.1784
361.2172	0.1849
361.4256	0.1713
361.6341	0.1875
361.8426	0.1779
362.051	0.1735
362.2594	0.1784
362.4678	0.1768
362.6762	0.2001
362.8846	0.1843
363.093	0.1693
363.3014	0.1689
363.5097	0.1695
363.718	0.1737
363.9264	0.1898
364.1347	0.1692
364.343	0.1863
364.5513	0.1892
364.7595	0.1783
364.9678	0.1946
365.176	0.1807
365.3842	0.1702
365.5925	0.1725
365.8007	0.2007
366.0089	0.1827
366.217	0.1836
366.4252	0.2009
366.6333	0.2106
366.8415	0.1999
367.0496	0.1761
367.2577	0.1841
367.4658	0.2017
367.6739	0.2025
367.882	0.1909
368.09	0.1821
368.2981	0.2101
368.5061	0.1764
368.7141	0.2132
368.9221	0.1977
369.1301	0.187
369.3381	0.1967
369.5461	0.1946
369.754	0.1913
369.962	0.2065
370.1699	0.207
370.3778	0.1973
370.5857	0.1951
370.7936	0.1871
371.0015	0.1918
371.2093	0.1991
371.4172	0.2094
371.625	0.1914
371.8328	0.1939
372.0406	0.2106
372.2484	0.1925
372.4562	0.2119
372.664	0.2024
372.8717	0.2063
373.0795	0.1799
373.2872	0.2006
373.4949	0.2148
373.7026	0.2107
373.9103	0.2103
374.118	0.2101
374.3256	0.2074
374.5333	0.1906
374.7409	0.2046
374.9485	0.2249
375.1561	0.204
375.3637	0.2106
375.5713	0.2197
375.7789	0.2089
375.9864	0.2074
376.194	0.2058
376.4015	0.2156
376.609	0.2295
376.8165	0.2144
377.024	0.1937
377.2315	0.1944
377.4389	0.2152
377.6464	0.2125
377.8538	0.2145
378.0612	0.2082
378.2686	0.2069
378.476	0.2307
378.6834	0.2177
378.8908	0.2079
379.0981	0.2096
379.3055	0.2291
379.5128	0.2185
379.7201	0.2062
379.9274	0.2275
380.1347	0.2142
380.342	0.2392
380.5492	0.2088
380.7565	0.2312
380.9637	0.2191
381.1709	0.2073
381.3781	0.214
381.5853	0.2289
381.7925	0.2198
381.9997	0.2352
382.2068	0.2244
382.4139	0.2188
382.6211	0.2024
382.8282	0.2215
383.0353	0.2067
383.2424	0.2304
383.4494	0.2239
383.6565	0.2089
383.8635	0.2159
384.0706	0.2238
384.2776	0.2191
384.4846	0.2164
384.6916	0.2238
384.8986	0.2207
385.1055	0.2303
385.3125	0.2314
385.5194	0.2078
385.7263	0.227
385.9333	0.2189
386.1402	0.2056
386.347	0.2277
386.5539	0.2062
386.7608	0.2202
386.9676	0.202
387.1744	0.2232
387.3813	0.2013
387.5881	0.2238
387.7948	0.2167
388.0016	0.2009
388.2084	0.2063
388.4151	0.2179
388.6219	0.2236
388.8286	0.2073
389.0353	0.2257
389.242	0.2265
389.4487	0.2017
389.6553	0.21
389.862	0.1982
390.0686	0.2046
390.2753	0.2208
390.4819	0.2098
390.6885	0.1867
390.8951	0.2172
391.1016	0.2032
391.3082	0.2063
391.5147	0.2058
391.7213	0.2004
391.9278	0.1992
392.1343	0.2034
392.3408	0.195
392.5473	0.1958
392.7537	0.195
392.9602	0.1991
393.1666	0.1986
393.373	0.1975
393.5794	0.2009
393.7858	0.1879
393.9922	0.1745
394.1986	0.1958
394.4049	0.1977
394.6113	0.1778
394.8176	0.1778
395.0239	0.1753
395.2302	0.1829
395.4365	0.1938
395.6428	0.1907
395.8491	0.1884
396.0553	0.1834
396.2615	0.193
396.4678	0.1845
396.674	0.1576
396.8802	0.1891
397.0863	0.2038
397.2925	0.173
397.4987	0.1772
397.7048	0.1766
397.9109	0.1802
398.117	0.1714
398.3231	0.179
398.5292	0.1894
398.7353	0.1877
398.9413	0.1791
399.1474	0.1807
399.3534	0.1835
399.5594	0.1613
399.7654	0.1766
399.9714	0.1858
400.1774	0.1799
400.3833	0.169
400.5893	0.1668
400.7952	0.1808
401.0011	0.1664
401.207	0.1852
401.4129	0.1814
401.6188	0.1894
401.8247	0.1559
402.0305	0.1798
402.2364	0.1862
402.4422	0.1966
402.648	0.179
402.8538	0.1885
403.0596	0.1783
403.2654	0.1804
403.4711	0.1617
403.6768	0.1868
403.8826	0.1756
404.0883	0.1812
404.294	0.1837
404.4997	0.1853
404.7054	0.1781
404.911	0.1661
405.1167	0.1709
405.3223	0.1838
405.5279	0.1851
405.7335	0.2
405.9391	0.1763
406.1447	0.162
406.3502	0.183
406.5558	0.1568
406.7613	0.1637
406.9668	0.1906
407.1724	0.1756
407.3778	0.1653
407.5833	0.1796
407.7888	0.1747
407.9942	0.185
408.1997	0.1669
408.4051	0.1554
408.6105	0.1816
408.8159	0.1678
409.0213	0.1542
409.2267	0.1678
409.432	0.1724
409.6374	0.178
409.8427	0.1602
410.048	0.1648
410.2533	0.1766
410.4586	0.1572
410.6639	0.1598
410.8691	0.1684
411.0744	0.1608
411.2796	0.1672
411.4848	0.1703
411.69	0.1666
411.8952	0.1837
412.1004	0.164
412.3056	0.1775
412.5107	0.1668
412.7158	0.1773
412.921	0.1598
413.1261	0.1679
413.3312	0.1671
413.5362	0.1807
413.7413	0.1568
413.9464	0.1682
414.1514	0.1735
414.3564	0.1545
414.5614	0.1681
414.7664	0.1575
414.9714	0.1575
415.1764	0.1766
415.3813	0.161
415.5863	0.1705
415.7912	0.169
415.9961	0.1783
416.201	0.1673
416.4059	0.1664
416.6108	0.1665
416.8156	0.1636
417.0205	0.1598
417.2253	0.1511
417.4301	0.188
417.6349	0.1618
417.8397	0.1495
418.0445	0.1614
418.2492	0.1842
418.454	0.1622
418.6587	0.1633
418.8634	0.1534
419.0681	0.1817
419.2728	0.1592
419.4775	0.1664
419.6822	0.1399
419.8868	0.1406
420.0915	0.1479
420.2961	0.1473
420.5007	0.1514
420.7053	0.1605
420.9099	0.1537
421.1144	0.15
421.319	0.1591
421.5235	0.1485
421.728	0.1421
421.9325	0.1406
422.137	0.1646
422.3415	0.1583
422.546	0.1551
422.7504	0.1432
422.9549	0.1547
423.1593	0.1465
423.3637	0.154
423.5681	0.1388
423.7725	0.1412
423.9769	0.1397
424.1812	0.1259
424.3856	0.1325
424.5899	0.148
424.7942	0.1377
424.9985	0.1567
425.2028	0.1397
425.4071	0.1452
425.6113	0.1307
425.8156	0.1411
426.0198	0.1453
426.224	0.1234
