Data from MonoPyChalIsomerACN10uM420nmA_Absorbance_15-09-57-434.txt Node
Date: Fri Jul 05 15:09:57 BST 2024
User: LASERRRRR
Spectrometer: FLMT03099
Trigger mode: 0
Integration Time (sec): 1.000000E-1
Scans to average: 1
Electric dark correction enabled: true
Nonlinearity correction enabled: false
Boxcar width: 0
XAxis mode: Wavelengths
Number of Pixels in Spectrum: 3648
>>>>>Begin Spectral Data<<<<<
179.3399	-0.1979
179.5586	-0.1979
179.7771	-0.1979
179.9957	0.1177
180.2143	-0
180.4329	-0
180.6514	0.7435
180.8699	-0
181.0885	0.4857
181.307	0.1677
181.5255	-0.9348
181.744	-0
181.9625	-0
182.181	-0
182.3994	-0
182.6179	-0
182.8363	0.0559
183.0547	-0.3293
183.2732	-0.168
183.4916	0.2996
183.71	0.3448
183.9284	0.0501
184.1467	0.1169
184.3651	-0.0942
184.5835	-0.1148
184.8018	0.1394
185.0201	0.4841
185.2385	-0.1121
185.4568	0.0823
185.6751	-0.0391
185.8934	0.6027
186.1117	0.0267
186.3299	0.0299
186.5482	0.1168
186.7664	-0.0624
186.9847	0.0135
187.2029	0.0704
187.4211	0.1538
187.6393	0.1884
187.8575	0.0366
188.0757	0.1187
188.2939	0.1715
188.512	0.6456
188.7302	-0.0342
188.9483	-0
189.1665	0.1649
189.3846	0.1863
189.6027	0.1652
189.8208	0.1957
190.0389	-0.0002
190.257	0.0534
190.475	0.1804
190.6931	0.3699
190.9111	0.5406
191.1292	0.2295
191.3472	0.5701
191.5652	0.2734
191.7832	0.3749
192.0012	0.596
192.2192	0.4919
192.4371	0.4343
192.6551	0.2962
192.873	0.3553
193.091	0.3328
193.3089	0.3382
193.5268	0.3458
193.7447	0.5364
193.9626	0.4276
194.1805	0.8976
194.3984	0.8379
194.6162	0.5933
194.8341	0.5499
195.0519	0.631
195.2697	0.8957
195.4875	0.8444
195.7054	0.5785
195.9231	0.6533
196.1409	0.5798
196.3587	0.7737
196.5765	0.6891
196.7942	0.626
197.012	0.5791
197.2297	0.6796
197.4474	0.7607
197.6651	0.6246
197.8828	0.5872
198.1005	0.7815
198.3182	0.5528
198.5358	0.7611
198.7535	0.6732
198.9711	0.5211
199.1888	0.7059
199.4064	0.9827
199.624	0.6822
199.8416	0.634
200.0592	0.5575
200.2767	0.817
200.4943	0.7903
200.7119	0.6938
200.9294	0.6812
201.1469	0.5972
201.3645	0.6926
201.582	0.6507
201.7995	0.5735
202.017	0.7779
202.2344	0.5925
202.4519	0.6532
202.6694	0.5899
202.8868	0.6142
203.1042	0.7219
203.3217	0.7976
203.5391	0.6005
203.7565	0.6614
203.9739	0.6036
204.1913	0.6237
204.4086	0.6964
204.626	0.8683
204.8433	0.6912
205.0607	0.6566
205.278	0.8251
205.4953	0.6766
205.7126	0.6313
205.9299	0.7864
206.1472	0.6737
206.3644	0.6519
206.5817	0.7202
206.7989	0.7967
207.0162	0.6762
207.2334	0.6881
207.4506	0.7668
207.6678	0.7144
207.885	0.6909
208.1022	0.6896
208.3194	0.6436
208.5365	0.6956
208.7537	0.6114
208.9708	0.5341
209.1879	0.6711
209.405	0.6487
209.6222	0.6808
209.8392	0.6451
210.0563	0.7029
210.2734	0.641
210.4905	0.636
210.7075	0.6741
210.9245	0.619
211.1416	0.6904
211.3586	0.5905
211.5756	0.5846
211.7926	0.6625
212.0096	0.6286
212.2265	0.5994
212.4435	0.6147
212.6604	0.5787
212.8774	0.5761
213.0943	0.6373
213.3112	0.5808
213.5281	0.5482
213.745	0.4808
213.9619	0.5196
214.1788	0.4794
214.3956	0.5087
214.6125	0.4597
214.8293	0.4702
215.0461	0.5007
215.2629	0.4677
215.4798	0.5095
215.6965	0.4425
215.9133	0.4399
216.1301	0.4324
216.3469	0.4231
216.5636	0.4303
216.7803	0.4045
216.9971	0.3785
217.2138	0.3838
217.4305	0.3844
217.6472	0.3408
217.8639	0.3938
218.0805	0.3682
218.2972	0.321
218.5138	0.3097
218.7305	0.3256
218.9471	0.3094
219.1637	0.3156
219.3803	0.2776
219.5969	0.2795
219.8135	0.241
220.0301	0.2565
220.2466	0.2526
220.4632	0.235
220.6797	0.2391
220.8962	0.2467
221.1127	0.2405
221.3292	0.2515
221.5457	0.2547
221.7622	0.2409
221.9787	0.2517
222.1951	0.2473
222.4116	0.2609
222.628	0.2307
222.8444	0.26
223.0608	0.2572
223.2772	0.2549
223.4936	0.2666
223.71	0.259
223.9264	0.2485
224.1427	0.2493
224.3591	0.2424
224.5754	0.2739
224.7917	0.2559
225.008	0.2759
225.2243	0.2455
225.4406	0.2701
225.6569	0.2487
225.8732	0.2746
226.0894	0.2596
226.3057	0.2537
226.5219	0.2778
226.7381	0.2777
226.9543	0.2655
227.1705	0.2852
227.3867	0.2615
227.6029	0.27
227.8191	0.2879
228.0352	0.3098
228.2513	0.331
228.4675	0.3017
228.6836	0.3055
228.8997	0.2907
229.1158	0.3236
229.3319	0.315
229.548	0.2912
229.764	0.311
229.9801	0.3307
230.1961	0.3193
230.4121	0.3236
230.6282	0.3185
230.8442	0.3224
231.0602	0.353
231.2761	0.3528
231.4921	0.3488
231.7081	0.3604
231.924	0.3383
232.14	0.3532
232.3559	0.3396
232.5718	0.3593
232.7877	0.3576
233.0036	0.3429
233.2195	0.3467
233.4353	0.3637
233.6512	0.3531
233.867	0.3669
234.0829	0.3742
234.2987	0.3617
234.5145	0.3823
234.7303	0.3574
234.9461	0.3939
235.1619	0.3723
235.3776	0.3632
235.5934	0.3827
235.8091	0.3652
236.0249	0.3623
236.2406	0.3852
236.4563	0.3624
236.672	0.4102
236.8877	0.3858
237.1034	0.3724
237.319	0.3938
237.5347	0.4043
237.7503	0.3815
237.966	0.3998
238.1816	0.4222
238.3972	0.3824
238.6128	0.3852
238.8284	0.4102
239.0439	0.3957
239.2595	0.4105
239.475	0.4321
239.6906	0.4214
239.9061	0.4014
240.1216	0.4072
240.3371	0.393
240.5526	0.3919
240.7681	0.4179
240.9836	0.4014
241.199	0.4147
241.4145	0.3987
241.6299	0.3865
241.8453	0.3963
242.0607	0.3906
242.2761	0.3807
242.4915	0.3858
242.7069	0.3922
242.9223	0.3735
243.1376	0.3902
243.353	0.3909
243.5683	0.3584
243.7836	0.3493
243.9989	0.3644
244.2142	0.354
244.4295	0.344
244.6448	0.3441
244.86	0.316
245.0753	0.3097
245.2905	0.3101
245.5057	0.2935
245.721	0.3143
245.9362	0.2825
246.1514	0.3059
246.3665	0.279
246.5817	0.2961
246.7969	0.2827
247.012	0.2661
247.2271	0.2521
247.4423	0.2754
247.6574	0.2642
247.8725	0.2571
248.0876	0.2492
248.3026	0.246
248.5177	0.2372
248.7328	0.2356
248.9478	0.2285
249.1628	0.2398
249.3779	0.2452
249.5929	0.2267
249.8079	0.2358
250.0228	0.2125
250.2378	0.2265
250.4528	0.2247
250.6677	0.1973
250.8827	0.2052
251.0976	0.2213
251.3125	0.2135
251.5274	0.1915
251.7423	0.1934
251.9572	0.2051
252.172	0.1896
252.3869	0.1936
252.6017	0.1748
252.8166	0.1819
253.0314	0.1797
253.2462	0.1913
253.461	0.1961
253.6758	0.1907
253.8906	0.1884
254.1053	0.1865
254.3201	0.1783
254.5348	0.1869
254.7496	0.1839
254.9643	0.1844
255.179	0.1898
255.3937	0.1656
255.6083	0.1791
255.823	0.1758
256.0377	0.177
256.2523	0.1865
256.467	0.1641
256.6816	0.1767
256.8962	0.185
257.1108	0.1784
257.3254	0.1752
257.54	0.1812
257.7545	0.1751
257.9691	0.1813
258.1836	0.1694
258.3981	0.1753
258.6127	0.1816
258.8272	0.1652
259.0417	0.178
259.2561	0.1601
259.4706	0.1675
259.6851	0.1763
259.8995	0.1756
260.114	0.177
260.3284	0.1782
260.5428	0.1794
260.7572	0.1715
260.9716	0.1895
261.186	0.1639
261.4003	0.1599
261.6147	0.1758
261.829	0.1725
262.0433	0.1787
262.2577	0.17
262.472	0.1785
262.6863	0.1755
262.9005	0.1785
263.1148	0.1681
263.3291	0.1528
263.5433	0.1701
263.7576	0.169
263.9718	0.1738
264.186	0.1723
264.4002	0.169
264.6144	0.16
264.8286	0.1889
265.0427	0.171
265.2569	0.1651
265.471	0.1674
265.6851	0.1749
265.8993	0.1683
266.1134	0.1723
266.3275	0.1656
266.5415	0.1654
266.7556	0.1918
266.9697	0.1784
267.1837	0.1765
267.3978	0.1805
267.6118	0.1871
267.8258	0.1818
268.0398	0.1753
268.2538	0.1801
268.4677	0.1796
268.6817	0.1636
268.8957	0.182
269.1096	0.1836
269.3235	0.1933
269.5374	0.1724
269.7514	0.1852
269.9652	0.1783
270.1791	0.1661
270.393	0.1698
270.6068	0.168
270.8207	0.1601
271.0345	0.1622
271.2483	0.1713
271.4622	0.16
271.676	0.1775
271.8897	0.1603
272.1035	0.1709
272.3173	0.1842
272.531	0.1701
272.7448	0.1672
272.9585	0.1702
273.1722	0.1784
273.3859	0.1811
273.5996	0.1672
273.8133	0.1658
274.0269	0.1651
274.2406	0.162
274.4542	0.1727
274.6679	0.1631
274.8815	0.171
275.0951	0.1836
275.3087	0.1834
275.5223	0.1838
275.7358	0.1873
275.9494	0.1784
276.1629	0.1694
276.3765	0.168
276.59	0.1724
276.8035	0.1816
277.017	0.1947
277.2305	0.1654
277.444	0.1846
277.6574	0.1613
277.8709	0.1789
278.0843	0.1644
278.2978	0.1743
278.5112	0.1645
278.7246	0.1735
278.938	0.1896
279.1513	0.1912
279.3647	0.1857
279.5781	0.1746
279.7914	0.1794
280.0047	0.1899
280.2181	0.1779
280.4314	0.1829
280.6447	0.1717
280.8579	0.182
281.0712	0.1889
281.2845	0.191
281.4977	0.1757
281.711	0.1661
281.9242	0.1707
282.1374	0.1963
282.3506	0.17
282.5638	0.1747
282.7769	0.1806
282.9901	0.1783
283.2033	0.1789
283.4164	0.1859
283.6295	0.1659
283.8426	0.1639
284.0557	0.1786
284.2688	0.1806
284.4819	0.1721
284.695	0.1796
284.908	0.1773
285.1211	0.1642
285.3341	0.1705
285.5471	0.1823
285.7601	0.1682
285.9731	0.1654
286.1861	0.1598
286.3991	0.1826
286.612	0.1828
286.825	0.1631
287.0379	0.1621
287.2508	0.1528
287.4637	0.1715
287.6766	0.1572
287.8895	0.1743
288.1024	0.1849
288.3152	0.1652
288.5281	0.1612
288.7409	0.1771
288.9538	0.1617
289.1666	0.1492
289.3794	0.1574
289.5922	0.1417
289.8049	0.1585
290.0177	0.1524
290.2304	0.1529
290.4432	0.1637
290.6559	0.1567
290.8686	0.1622
291.0813	0.1516
291.294	0.1545
291.5067	0.1702
291.7194	0.1646
291.932	0.1606
292.1447	0.1595
292.3573	0.1468
292.5699	0.1477
292.7825	0.1609
292.9951	0.1451
293.2077	0.1523
293.4203	0.1559
293.6328	0.137
293.8454	0.159
294.0579	0.1489
294.2704	0.143
294.4829	0.1413
294.6954	0.1502
294.9079	0.1498
295.1204	0.1461
295.3328	0.1438
295.5453	0.1437
295.7577	0.1495
295.9701	0.139
296.1825	0.1478
296.3949	0.1461
296.6073	0.1456
296.8197	0.1362
297.0321	0.158
297.2444	0.1362
297.4567	0.1459
297.6691	0.1491
297.8814	0.1422
298.0937	0.1418
298.306	0.1526
298.5182	0.1449
298.7305	0.1475
298.9428	0.1331
299.155	0.1503
299.3672	0.1518
299.5794	0.1527
299.7916	0.1376
300.0038	0.1542
300.216	0.1483
300.4282	0.1491
300.6403	0.1403
300.8525	0.1568
301.0646	0.1363
301.2767	0.1525
301.4888	0.1442
301.7009	0.1459
301.913	0.1486
302.125	0.1483
302.3371	0.1353
302.5491	0.1484
302.7612	0.1509
302.9732	0.1503
303.1852	0.1465
303.3972	0.1385
303.6092	0.1397
303.8211	0.14
304.0331	0.141
304.245	0.1398
304.457	0.1343
304.6689	0.1373
304.8808	0.1465
305.0927	0.1374
305.3046	0.1345
305.5164	0.1501
305.7283	0.1323
305.9401	0.1397
306.152	0.1377
306.3638	0.1411
306.5756	0.1394
306.7874	0.1359
306.9992	0.1461
307.2109	0.1356
307.4227	0.1133
307.6344	0.1276
307.8462	0.1296
308.0579	0.1232
308.2696	0.1276
308.4813	0.1314
308.693	0.1207
308.9046	0.1323
309.1163	0.1226
309.328	0.1183
309.5396	0.1118
309.7512	0.1272
309.9628	0.1273
310.1744	0.1138
310.386	0.1125
310.5976	0.12
310.8091	0.1191
311.0207	0.1201
311.2322	0.1157
311.4437	0.1171
311.6552	0.1184
311.8667	0.1218
312.0782	0.1113
312.2897	0.1069
312.5012	0.1187
312.7126	0.1125
312.924	0.1133
313.1355	0.1186
313.3469	0.1057
313.5583	0.1218
313.7696	0.1192
313.981	0.1111
314.1924	0.1122
314.4037	0.1175
314.6151	0.1202
314.8264	0.1083
315.0377	0.1086
315.249	0.1095
315.4603	0.1185
315.6716	0.1126
315.8828	0.1089
316.0941	0.1149
316.3053	0.1197
316.5165	0.1049
316.7277	0.1074
316.9389	0.1226
317.1501	0.1235
317.3613	0.1142
317.5724	0.104
317.7836	0.1124
317.9947	0.1109
318.2058	0.1094
318.417	0.1145
318.6281	0.1121
318.8391	0.107
319.0502	0.1078
319.2613	0.1187
319.4723	0.1236
319.6834	0.1285
319.8944	0.1159
320.1054	0.1255
320.3164	0.1204
320.5274	0.1029
320.7383	0.1134
320.9493	0.1141
321.1602	0.128
321.3712	0.11
321.5821	0.1241
321.793	0.1175
322.0039	0.1202
322.2148	0.1108
322.4257	0.1198
322.6365	0.1206
322.8474	0.1278
323.0582	0.1151
323.269	0.1169
323.4798	0.1344
323.6906	0.1233
323.9014	0.1255
324.1122	0.133
324.3229	0.1187
324.5337	0.1348
324.7444	0.1188
324.9551	0.1357
325.1658	0.1258
325.3765	0.1246
325.5872	0.1233
325.7979	0.1223
326.0085	0.126
326.2192	0.1276
326.4298	0.1285
326.6404	0.1245
326.851	0.1247
327.0616	0.121
327.2722	0.1301
327.4828	0.1368
327.6933	0.1296
327.9039	0.1297
328.1144	0.1447
328.3249	0.1307
328.5354	0.1088
328.7459	0.1307
328.9564	0.1169
329.1669	0.1285
329.3773	0.1274
329.5878	0.1211
329.7982	0.1321
330.0086	0.1234
330.219	0.1294
330.4294	0.1172
330.6398	0.123
330.8502	0.1226
331.0605	0.1267
331.2708	0.1264
331.4812	0.1374
331.6915	0.1271
331.9018	0.1247
332.1121	0.1137
332.3224	0.1322
332.5326	0.1292
332.7429	0.1133
332.9531	0.1371
333.1633	0.1338
333.3735	0.1357
333.5837	0.1311
333.7939	0.1207
334.0041	0.1421
334.2143	0.1345
334.4244	0.1405
334.6346	0.1204
334.8447	0.1464
335.0548	0.1237
335.2649	0.1129
335.475	0.1445
335.685	0.1207
335.8951	0.1381
336.1051	0.1235
336.3152	0.1431
336.5252	0.1281
336.7352	0.1324
336.9452	0.1359
337.1552	0.129
337.3652	0.1312
337.5751	0.1316
337.7851	0.1321
337.995	0.1206
338.2049	0.1304
338.4148	0.1233
338.6247	0.1348
338.8346	0.1296
339.0445	0.1296
339.2543	0.1302
339.4642	0.1238
339.674	0.139
339.8838	0.1226
340.0936	0.1274
340.3034	0.1401
340.5132	0.1419
340.7229	0.1179
340.9327	0.14
341.1424	0.1399
341.3522	0.1501
341.5619	0.1487
341.7716	0.1375
341.9813	0.1483
342.1909	0.1269
342.4006	0.1488
342.6102	0.1576
342.8199	0.1458
343.0295	0.1539
343.2391	0.1449
343.4487	0.1532
343.6583	0.1395
343.8679	0.1424
344.0774	0.1451
344.287	0.1468
344.4965	0.1425
344.706	0.1426
344.9155	0.139
345.125	0.1461
345.3345	0.1509
345.544	0.1458
345.7534	0.1515
345.9629	0.1403
346.1723	0.1455
346.3817	0.1347
346.5911	0.1488
346.8005	0.1533
347.0099	0.1498
347.2193	0.1489
347.4286	0.1363
347.638	0.1562
347.8473	0.1474
348.0566	0.1536
348.2659	0.161
348.4752	0.1518
348.6845	0.1391
348.8937	0.1446
349.103	0.1458
349.3122	0.1426
349.5214	0.1535
349.7306	0.1599
349.9398	0.1483
350.149	0.1499
350.3582	0.1485
350.5674	0.1611
350.7765	0.1527
350.9856	0.1598
351.1948	0.1538
351.4039	0.148
351.613	0.1408
351.822	0.1536
352.0311	0.1521
352.2402	0.145
352.4492	0.1489
352.6582	0.1596
352.8672	0.161
353.0762	0.1512
353.2852	0.1557
353.4942	0.1377
353.7032	0.16
353.9121	0.1561
354.1211	0.1602
354.33	0.1722
354.5389	0.1525
354.7478	0.16
354.9567	0.1656
355.1655	0.153
355.3744	0.1492
355.5833	0.1587
355.7921	0.171
356.0009	0.1639
356.2097	0.1674
356.4185	0.1596
356.6273	0.1682
356.8361	0.1715
357.0448	0.1633
357.2536	0.1586
357.4623	0.1645
357.671	0.1648
357.8797	0.1652
358.0884	0.161
358.2971	0.1576
358.5057	0.1597
358.7144	0.1685
358.923	0.1634
359.1316	0.1623
359.3402	0.1685
359.5488	0.175
359.7574	0.1633
359.966	0.1753
360.1746	0.1641
360.3831	0.1708
360.5916	0.17
360.8002	0.1651
361.0087	0.1944
361.2172	0.1791
361.4256	0.1728
361.6341	0.1876
361.8426	0.1705
362.051	0.1743
362.2594	0.1691
362.4678	0.1705
362.6762	0.1968
362.8846	0.1864
363.093	0.1685
363.3014	0.1683
363.5097	0.179
363.718	0.1905
363.9264	0.1761
364.1347	0.1697
364.343	0.1696
364.5513	0.1825
364.7595	0.1806
364.9678	0.1823
365.176	0.1858
365.3842	0.186
365.5925	0.1728
365.8007	0.182
366.0089	0.1796
366.217	0.1642
366.4252	0.1895
366.6333	0.1992
366.8415	0.1811
367.0496	0.1894
367.2577	0.1958
367.4658	0.1993
367.6739	0.196
367.882	0.2003
368.09	0.1837
368.2981	0.1935
368.5061	0.1719
368.7141	0.1923
368.9221	0.1915
369.1301	0.1907
369.3381	0.1819
369.5461	0.1898
369.754	0.1894
369.962	0.2019
370.1699	0.1826
370.3778	0.1848
370.5857	0.1785
370.7936	0.1741
371.0015	0.1913
371.2093	0.2012
371.4172	0.198
371.625	0.1773
371.8328	0.1818
372.0406	0.1828
372.2484	0.1957
372.4562	0.1898
372.664	0.1881
372.8717	0.2017
373.0795	0.1718
373.2872	0.1798
373.4949	0.2027
373.7026	0.1908
373.9103	0.209
374.118	0.1959
374.3256	0.1851
374.5333	0.1863
374.7409	0.1958
374.9485	0.2131
375.1561	0.1898
375.3637	0.2042
375.5713	0.1813
375.7789	0.1982
375.9864	0.2059
376.194	0.1754
376.4015	0.2009
376.609	0.2125
376.8165	0.2019
377.024	0.1956
377.2315	0.1825
377.4389	0.1925
377.6464	0.2036
377.8538	0.1983
378.0612	0.1888
378.2686	0.2059
378.476	0.2182
378.6834	0.2044
378.8908	0.1953
379.0981	0.2003
379.3055	0.1941
379.5128	0.1985
379.7201	0.2039
379.9274	0.1974
380.1347	0.1913
380.342	0.2126
380.5492	0.2069
380.7565	0.2046
380.9637	0.2036
381.1709	0.1915
381.3781	0.1871
381.5853	0.207
381.7925	0.2091
381.9997	0.2067
382.2068	0.2167
382.4139	0.1857
382.6211	0.2
382.8282	0.1965
383.0353	0.198
383.2424	0.1956
383.4494	0.2119
383.6565	0.2026
383.8635	0.1945
384.0706	0.1989
384.2776	0.2045
384.4846	0.1999
384.6916	0.2012
384.8986	0.2029
385.1055	0.2077
385.3125	0.2081
385.5194	0.1821
385.7263	0.2075
385.9333	0.189
386.1402	0.19
386.347	0.182
386.5539	0.1814
386.7608	0.1915
386.9676	0.1749
387.1744	0.2045
387.3813	0.1936
387.5881	0.1973
387.7948	0.1974
388.0016	0.2006
388.2084	0.1959
388.4151	0.1714
388.6219	0.2008
388.8286	0.1858
389.0353	0.1978
389.242	0.1996
389.4487	0.1885
389.6553	0.1849
389.862	0.177
390.0686	0.1896
390.2753	0.1876
390.4819	0.1811
390.6885	0.1616
390.8951	0.1818
391.1016	0.1889
391.3082	0.1676
391.5147	0.1779
391.7213	0.1854
391.9278	0.1724
392.1343	0.1798
392.3408	0.1779
392.5473	0.1942
392.7537	0.1676
392.9602	0.1745
393.1666	0.1686
393.373	0.1807
393.5794	0.1855
393.7858	0.1687
393.9922	0.1569
394.1986	0.1799
394.4049	0.1613
394.6113	0.1674
394.8176	0.1597
395.0239	0.1779
395.2302	0.1707
395.4365	0.1678
395.6428	0.1751
395.8491	0.1654
396.0553	0.1571
396.2615	0.1615
396.4678	0.1637
396.674	0.1619
396.8802	0.1618
397.0863	0.1888
397.2925	0.1501
397.4987	0.156
397.7048	0.1592
397.9109	0.1517
398.117	0.1422
398.3231	0.1573
398.5292	0.1544
398.7353	0.1702
398.9413	0.1606
399.1474	0.1571
399.3534	0.1643
399.5594	0.1541
399.7654	0.1762
399.9714	0.1596
400.1774	0.1629
400.3833	0.1522
400.5893	0.1573
400.7952	0.1567
401.0011	0.168
401.207	0.161
401.4129	0.1609
401.6188	0.1637
401.8247	0.1598
402.0305	0.1368
402.2364	0.1583
402.4422	0.1557
402.648	0.1562
402.8538	0.1734
403.0596	0.1467
403.2654	0.157
403.4711	0.161
403.6768	0.1557
403.8826	0.1706
404.0883	0.1698
404.294	0.1647
404.4997	0.1408
404.7054	0.1581
404.911	0.1539
405.1167	0.1492
405.3223	0.1694
405.5279	0.1671
405.7335	0.1778
405.9391	0.1741
406.1447	0.1426
406.3502	0.1653
406.5558	0.1519
406.7613	0.1563
406.9668	0.1533
407.1724	0.1356
407.3778	0.1617
407.5833	0.1472
407.7888	0.1391
407.9942	0.16
408.1997	0.1464
408.4051	0.1405
408.6105	0.1507
408.8159	0.1475
409.0213	0.1432
409.2267	0.1673
409.432	0.1503
409.6374	0.1691
409.8427	0.1531
410.048	0.1536
410.2533	0.1352
410.4586	0.1488
410.6639	0.1392
410.8691	0.1353
411.0744	0.147
411.2796	0.1492
411.4848	0.1455
411.69	0.1508
411.8952	0.1549
412.1004	0.1389
412.3056	0.1394
412.5107	0.1494
412.7158	0.1514
412.921	0.1414
413.1261	0.136
413.3312	0.1381
413.5362	0.1361
413.7413	0.1478
413.9464	0.1335
414.1514	0.1392
414.3564	0.1488
414.5614	0.1289
414.7664	0.1337
414.9714	0.1333
415.1764	0.1323
415.3813	0.1523
415.5863	0.1471
415.7912	0.1417
415.9961	0.1448
416.201	0.1483
416.4059	0.1533
416.6108	0.1391
416.8156	0.1487
417.0205	0.1346
417.2253	0.145
417.4301	0.1538
417.6349	0.1463
417.8397	0.1357
418.0445	0.1148
418.2492	0.1462
418.454	0.1164
418.6587	0.1347
418.8634	0.1374
419.0681	0.1369
419.2728	0.1307
419.4775	0.1344
419.6822	0.1329
419.8868	0.1177
420.0915	0.1424
420.2961	0.1252
420.5007	0.1248
420.7053	0.1444
420.9099	0.1312
421.1144	0.1293
421.319	0.1167
421.5235	0.131
421.728	0.1267
421.9325	0.1244
422.137	0.1242
422.3415	0.1381
422.546	0.1156
422.7504	0.1341
422.9549	0.1284
423.1593	0.1229
423.3637	0.1418
423.5681	0.1165
423.7725	0.1173
423.9769	0.1212
424.1812	0.117
424.3856	0.1255
424.5899	0.1318
424.7942	0.1311
424.9985	0.131
425.2028	0.1222
425.4071	0.145
425.6113	0.1144
425.8156	0.1314
426.0198	0.1236
426.224	0.1087
426.4282	0.1117
426.6324	0.1082
