Data from MonoPyChalIsomerACN10uM420nmA_Absorbance_15-09-48-535.txt Node
Date: Fri Jul 05 15:09:48 BST 2024
User: LASERRRRR
Spectrometer: FLMT03099
Trigger mode: 0
Integration Time (sec): 1.000000E-1
Scans to average: 1
Electric dark correction enabled: true
Nonlinearity correction enabled: false
Boxcar width: 0
XAxis mode: Wavelengths
Number of Pixels in Spectrum: 3648
>>>>>Begin Spectral Data<<<<<
179.3399	-0.1118
179.5586	-0.1118
179.7771	-0.1118
179.9957	0.3158
180.2143	-0
180.4329	0.337
180.6514	-0
180.8699	-0
181.0885	-0.261
181.307	0.2303
181.5255	-0.89
181.744	-0
181.9625	-0.1693
182.181	-0.5979
182.3994	-0
182.6179	-0.0656
182.8363	-0.1732
183.0547	-0.3316
183.2732	0.0273
183.4916	0.2393
183.71	0.4376
183.9284	0.1339
184.1467	-0.1773
184.3651	-0.0719
184.5835	-0.1228
184.8018	-0.1164
185.0201	0.2294
185.2385	-0.085
185.4568	0.4791
185.6751	0.0796
185.8934	0.301
186.1117	-0.0053
186.3299	0.0404
186.5482	0.021
186.7664	-0.0916
186.9847	0.0832
187.2029	0.0431
187.4211	0.0819
187.6393	-0.0277
187.8575	-0.1069
188.0757	0.3665
188.2939	0.1471
188.512	-0.1504
188.7302	0.0879
188.9483	0.2947
189.1665	0.191
189.3846	0.109
189.6027	0.1585
189.8208	0.1812
190.0389	0.032
190.257	0.1755
190.475	0.311
190.6931	0.3109
190.9111	0.4014
191.1292	0.1178
191.3472	0.3233
191.5652	0.3524
191.7832	0.1638
192.0012	0.457
192.2192	0.4796
192.4371	0.4635
192.6551	0.1904
192.873	0.4807
193.091	0.3872
193.3089	0.6889
193.5268	0.3446
193.7447	0.725
193.9626	0.5481
194.1805	0.6194
194.3984	0.6789
194.6162	0.5669
194.8341	0.5795
195.0519	0.51
195.2697	0.6769
195.4875	0.6509
195.7054	0.4238
195.9231	0.6705
196.1409	0.6863
196.3587	0.7203
196.5765	0.6377
196.7942	0.5544
197.012	0.561
197.2297	0.5893
197.4474	0.5335
197.6651	0.4467
197.8828	0.4867
198.1005	0.6065
198.3182	0.7226
198.5358	0.654
198.7535	0.7435
198.9711	0.5781
199.1888	0.6488
199.4064	0.8652
199.624	0.677
199.8416	0.615
200.0592	0.6657
200.2767	0.5605
200.4943	0.7333
200.7119	0.851
200.9294	0.5911
201.1469	0.6857
201.3645	0.5277
201.582	0.5896
201.7995	0.6477
202.017	0.6328
202.2344	0.5785
202.4519	0.7182
202.6694	0.6506
202.8868	0.6479
203.1042	0.687
203.3217	0.7308
203.5391	0.6791
203.7565	0.7119
203.9739	0.7955
204.1913	0.6499
204.4086	0.6335
204.626	0.6963
204.8433	0.6435
205.0607	0.5903
205.278	0.6464
205.4953	0.6691
205.7126	0.6713
205.9299	0.7968
206.1472	0.8171
206.3644	0.6378
206.5817	0.6874
206.7989	0.677
207.0162	0.6774
207.2334	0.6386
207.4506	0.7157
207.6678	0.6519
207.885	0.6786
208.1022	0.6799
208.3194	0.7441
208.5365	0.661
208.7537	0.6741
208.9708	0.5705
209.1879	0.6196
209.405	0.7292
209.6222	0.7431
209.8392	0.6091
210.0563	0.6121
210.2734	0.6603
210.4905	0.6948
210.7075	0.603
210.9245	0.6075
211.1416	0.685
211.3586	0.6729
211.5756	0.6073
211.7926	0.662
212.0096	0.6504
212.2265	0.5574
212.4435	0.5533
212.6604	0.6381
212.8774	0.5946
213.0943	0.5517
213.3112	0.5054
213.5281	0.5538
213.745	0.5493
213.9619	0.4982
214.1788	0.4767
214.3956	0.4989
214.6125	0.4782
214.8293	0.4905
215.0461	0.4762
215.2629	0.5075
215.4798	0.4782
215.6965	0.4799
215.9133	0.4996
216.1301	0.4206
216.3469	0.4791
216.5636	0.4159
216.7803	0.3969
216.9971	0.4309
217.2138	0.3568
217.4305	0.3916
217.6472	0.3595
217.8639	0.4043
218.0805	0.3579
218.2972	0.3372
218.5138	0.3381
218.7305	0.3364
218.9471	0.3397
219.1637	0.3043
219.3803	0.2885
219.5969	0.3158
219.8135	0.2742
220.0301	0.318
220.2466	0.2954
220.4632	0.2524
220.6797	0.2456
220.8962	0.2382
221.1127	0.2512
221.3292	0.2724
221.5457	0.2574
221.7622	0.2454
221.9787	0.2697
222.1951	0.2475
222.4116	0.2595
222.628	0.265
222.8444	0.2657
223.0608	0.2427
223.2772	0.2542
223.4936	0.2668
223.71	0.2696
223.9264	0.2646
224.1427	0.2735
224.3591	0.2489
224.5754	0.2611
224.7917	0.2778
225.008	0.2633
225.2243	0.2689
225.4406	0.2954
225.6569	0.286
225.8732	0.2711
226.0894	0.2775
226.3057	0.286
226.5219	0.297
226.7381	0.2811
226.9543	0.3053
227.1705	0.2931
227.3867	0.2816
227.6029	0.3085
227.8191	0.3075
228.0352	0.3288
228.2513	0.3121
228.4675	0.3062
228.6836	0.2983
228.8997	0.3166
229.1158	0.3114
229.3319	0.301
229.548	0.337
229.764	0.3363
229.9801	0.3355
230.1961	0.322
230.4121	0.3591
230.6282	0.3372
230.8442	0.3261
231.0602	0.3654
231.2761	0.3578
231.4921	0.351
231.7081	0.3447
231.924	0.3486
232.14	0.3724
232.3559	0.334
232.5718	0.372
232.7877	0.3594
233.0036	0.3551
233.2195	0.3628
233.4353	0.3606
233.6512	0.3669
233.867	0.3737
234.0829	0.3747
234.2987	0.3705
234.5145	0.3761
234.7303	0.3708
234.9461	0.388
235.1619	0.3664
235.3776	0.3865
235.5934	0.3945
235.8091	0.3707
236.0249	0.3959
236.2406	0.3957
236.4563	0.3893
236.672	0.4073
236.8877	0.4084
237.1034	0.3909
237.319	0.407
237.5347	0.4088
237.7503	0.4084
237.966	0.4209
238.1816	0.421
238.3972	0.4186
238.6128	0.3962
238.8284	0.4164
239.0439	0.4208
239.2595	0.4102
239.475	0.4334
239.6906	0.4361
239.9061	0.3978
240.1216	0.4105
240.3371	0.405
240.5526	0.4212
240.7681	0.4207
240.9836	0.3833
241.199	0.3981
241.4145	0.4055
241.6299	0.3869
241.8453	0.3868
242.0607	0.4042
242.2761	0.3461
242.4915	0.3621
242.7069	0.3654
242.9223	0.3484
243.1376	0.3591
243.353	0.3441
243.5683	0.3352
243.7836	0.328
243.9989	0.3254
244.2142	0.3041
244.4295	0.3177
244.6448	0.3004
244.86	0.2997
245.0753	0.288
245.2905	0.2806
245.5057	0.2751
245.721	0.2725
245.9362	0.2766
246.1514	0.2697
246.3665	0.2483
246.5817	0.2666
246.7969	0.2456
247.012	0.233
247.2271	0.2316
247.4423	0.2507
247.6574	0.2352
247.8725	0.2357
248.0876	0.2277
248.3026	0.2353
248.5177	0.2208
248.7328	0.2139
248.9478	0.2028
249.1628	0.21
249.3779	0.2277
249.5929	0.1989
249.8079	0.2025
250.0228	0.1985
250.2378	0.2005
250.4528	0.2055
250.6677	0.1859
250.8827	0.1846
251.0976	0.1946
251.3125	0.1858
251.5274	0.1601
251.7423	0.1868
251.9572	0.2001
252.172	0.1856
252.3869	0.1908
252.6017	0.1918
252.8166	0.1805
253.0314	0.1639
253.2462	0.1671
253.461	0.1859
253.6758	0.1766
253.8906	0.1775
254.1053	0.1651
254.3201	0.1643
254.5348	0.1899
254.7496	0.1843
254.9643	0.171
255.179	0.166
255.3937	0.1702
255.6083	0.1849
255.823	0.1684
256.0377	0.1718
256.2523	0.1708
256.467	0.147
256.6816	0.175
256.8962	0.1778
257.1108	0.1655
257.3254	0.1884
257.54	0.1686
257.7545	0.1771
257.9691	0.1764
258.1836	0.1789
258.3981	0.1859
258.6127	0.1843
258.8272	0.1643
259.0417	0.1647
259.2561	0.1702
259.4706	0.1677
259.6851	0.1737
259.8995	0.1683
260.114	0.1776
260.3284	0.1606
260.5428	0.1654
260.7572	0.1749
260.9716	0.178
261.186	0.1585
261.4003	0.1521
261.6147	0.1702
261.829	0.1696
262.0433	0.1619
262.2577	0.1676
262.472	0.1721
262.6863	0.1693
262.9005	0.163
263.1148	0.1659
263.3291	0.159
263.5433	0.1693
263.7576	0.1672
263.9718	0.1693
264.186	0.1642
264.4002	0.1653
264.6144	0.1646
264.8286	0.1795
265.0427	0.1618
265.2569	0.1654
265.471	0.17
265.6851	0.1603
265.8993	0.1577
266.1134	0.1603
266.3275	0.164
266.5415	0.1553
266.7556	0.1695
266.9697	0.172
267.1837	0.1678
267.3978	0.1664
267.6118	0.1586
267.8258	0.1819
268.0398	0.1443
268.2538	0.1608
268.4677	0.1575
268.6817	0.1577
268.8957	0.1639
269.1096	0.1567
269.3235	0.1726
269.5374	0.1524
269.7514	0.1562
269.9652	0.1443
270.1791	0.1475
270.393	0.1433
270.6068	0.1516
270.8207	0.1641
271.0345	0.1456
271.2483	0.1487
271.4622	0.1566
271.676	0.1542
271.8897	0.134
272.1035	0.1374
272.3173	0.1502
272.531	0.1396
272.7448	0.1296
272.9585	0.133
273.1722	0.1419
273.3859	0.1546
273.5996	0.1295
273.8133	0.1385
274.0269	0.1294
274.2406	0.1334
274.4542	0.1341
274.6679	0.1304
274.8815	0.139
275.0951	0.1481
275.3087	0.1469
275.5223	0.1342
275.7358	0.144
275.9494	0.1433
276.1629	0.1428
276.3765	0.1363
276.59	0.1473
276.8035	0.1332
277.017	0.1423
277.2305	0.137
277.444	0.142
277.6574	0.1405
277.8709	0.1439
278.0843	0.1356
278.2978	0.1353
278.5112	0.1351
278.7246	0.1493
278.938	0.1463
279.1513	0.1417
279.3647	0.1621
279.5781	0.1441
279.7914	0.1409
280.0047	0.1535
280.2181	0.1451
280.4314	0.1478
280.6447	0.1547
280.8579	0.1418
281.0712	0.1581
281.2845	0.1533
281.4977	0.1376
281.711	0.154
281.9242	0.1413
282.1374	0.1459
282.3506	0.1452
282.5638	0.1556
282.7769	0.1438
282.9901	0.1515
283.2033	0.1554
283.4164	0.1555
283.6295	0.1586
283.8426	0.1572
284.0557	0.1569
284.2688	0.1563
284.4819	0.151
284.695	0.1592
284.908	0.1575
285.1211	0.1438
285.3341	0.1511
285.5471	0.1551
285.7601	0.1512
285.9731	0.147
286.1861	0.1493
286.3991	0.168
286.612	0.168
286.825	0.1743
287.0379	0.1701
287.2508	0.1611
287.4637	0.1657
287.6766	0.1588
287.8895	0.1679
288.1024	0.1864
288.3152	0.1682
288.5281	0.157
288.7409	0.1695
288.9538	0.1778
289.1666	0.1657
289.3794	0.1727
289.5922	0.156
289.8049	0.1717
290.0177	0.1754
290.2304	0.1661
290.4432	0.1668
290.6559	0.1602
290.8686	0.1764
291.0813	0.1657
291.294	0.1748
291.5067	0.1723
291.7194	0.175
291.932	0.1863
292.1447	0.163
292.3573	0.1678
292.5699	0.1784
292.7825	0.1787
292.9951	0.1716
293.2077	0.1597
293.4203	0.1741
293.6328	0.1582
293.8454	0.1723
294.0579	0.1648
294.2704	0.1635
294.4829	0.1607
294.6954	0.1719
294.9079	0.1812
295.1204	0.1711
295.3328	0.1713
295.5453	0.1817
295.7577	0.1837
295.9701	0.1671
296.1825	0.1753
296.3949	0.1696
296.6073	0.1711
296.8197	0.1739
297.0321	0.1882
297.2444	0.1679
297.4567	0.1804
297.6691	0.1755
297.8814	0.1676
298.0937	0.1789
298.306	0.1789
298.5182	0.1691
298.7305	0.1784
298.9428	0.1654
299.155	0.1797
299.3672	0.1703
299.5794	0.1684
299.7916	0.173
300.0038	0.1761
300.216	0.179
300.4282	0.173
300.6403	0.1749
300.8525	0.1818
301.0646	0.176
301.2767	0.1816
301.4888	0.1709
301.7009	0.1738
301.913	0.1782
302.125	0.176
302.3371	0.1632
302.5491	0.1781
302.7612	0.1823
302.9732	0.1716
303.1852	0.175
303.3972	0.1709
303.6092	0.1651
303.8211	0.1662
304.0331	0.1628
304.245	0.1655
304.457	0.1753
304.6689	0.1584
304.8808	0.1685
305.0927	0.16
305.3046	0.1729
305.5164	0.1664
305.7283	0.1588
305.9401	0.1544
306.152	0.1539
306.3638	0.1615
306.5756	0.1559
306.7874	0.1587
306.9992	0.1522
307.2109	0.1475
307.4227	0.1353
307.6344	0.1531
307.8462	0.1406
308.0579	0.1389
308.2696	0.1392
308.4813	0.1429
308.693	0.1425
308.9046	0.1381
309.1163	0.1329
309.328	0.1358
309.5396	0.1257
309.7512	0.1286
309.9628	0.1284
310.1744	0.1191
310.386	0.1244
310.5976	0.1136
310.8091	0.1129
311.0207	0.1198
311.2322	0.114
311.4437	0.1185
311.6552	0.1191
311.8667	0.1178
312.0782	0.106
312.2897	0.1073
312.5012	0.1126
312.7126	0.1094
312.924	0.1066
313.1355	0.1147
313.3469	0.0962
313.5583	0.1072
313.7696	0.1023
313.981	0.1156
314.1924	0.1068
314.4037	0.1025
314.6151	0.1102
314.8264	0.0965
315.0377	0.0969
315.249	0.1069
315.4603	0.1124
315.6716	0.1006
315.8828	0.0983
316.0941	0.0943
316.3053	0.0945
316.5165	0.0867
316.7277	0.0928
316.9389	0.0949
317.1501	0.088
317.3613	0.0915
317.5724	0.0831
317.7836	0.0988
317.9947	0.0921
318.2058	0.0856
318.417	0.0959
318.6281	0.081
318.8391	0.1016
319.0502	0.0782
319.2613	0.0949
319.4723	0.0926
319.6834	0.1073
319.8944	0.093
320.1054	0.1023
320.3164	0.087
320.5274	0.0897
320.7383	0.0925
320.9493	0.0957
321.1602	0.1026
321.3712	0.0761
321.5821	0.0977
321.793	0.0946
322.0039	0.0886
322.2148	0.0919
322.4257	0.087
322.6365	0.103
322.8474	0.108
323.0582	0.0999
323.269	0.0944
323.4798	0.1016
323.6906	0.0943
323.9014	0.1013
324.1122	0.103
324.3229	0.0902
324.5337	0.0993
324.7444	0.0883
324.9551	0.1139
325.1658	0.0905
325.3765	0.0955
325.5872	0.0982
325.7979	0.0923
326.0085	0.0937
326.2192	0.0999
326.4298	0.0972
326.6404	0.0877
326.851	0.0998
327.0616	0.0859
327.2722	0.1092
327.4828	0.1029
327.6933	0.0911
327.9039	0.1032
328.1144	0.1034
328.3249	0.1046
328.5354	0.0903
328.7459	0.0934
328.9564	0.0919
329.1669	0.1084
329.3773	0.0959
329.5878	0.0971
329.7982	0.0966
330.0086	0.0926
330.219	0.1041
330.4294	0.1033
330.6398	0.0933
330.8502	0.0965
331.0605	0.1065
331.2708	0.0978
331.4812	0.0993
331.6915	0.103
331.9018	0.1049
332.1121	0.0919
332.3224	0.0971
332.5326	0.1042
332.7429	0.1069
332.9531	0.119
333.1633	0.0992
333.3735	0.1019
333.5837	0.104
333.7939	0.0989
334.0041	0.1134
334.2143	0.1023
334.4244	0.106
334.6346	0.0812
334.8447	0.1184
335.0548	0.0966
335.2649	0.0969
335.475	0.1088
335.685	0.0937
335.8951	0.1106
336.1051	0.1052
336.3152	0.1092
336.5252	0.1048
336.7352	0.1089
336.9452	0.1106
337.1552	0.1033
337.3652	0.1052
337.5751	0.1091
337.7851	0.1111
337.995	0.1044
338.2049	0.1041
338.4148	0.1154
338.6247	0.1167
338.8346	0.1063
339.0445	0.0941
339.2543	0.1121
339.4642	0.1112
339.674	0.1069
339.8838	0.1068
340.0936	0.103
340.3034	0.1152
340.5132	0.1039
340.7229	0.1009
340.9327	0.1065
341.1424	0.1173
341.3522	0.1219
341.5619	0.1024
341.7716	0.1152
341.9813	0.1343
342.1909	0.1107
342.4006	0.1215
342.6102	0.1268
342.8199	0.1274
343.0295	0.121
343.2391	0.1163
343.4487	0.1172
343.6583	0.1139
343.8679	0.1158
344.0774	0.118
344.287	0.1233
344.4965	0.1222
344.706	0.1202
344.9155	0.1178
345.125	0.1202
345.3345	0.1182
345.544	0.1184
345.7534	0.1106
345.9629	0.1202
346.1723	0.1183
346.3817	0.1165
346.5911	0.1153
346.8005	0.1324
347.0099	0.1274
347.2193	0.1291
347.4286	0.1235
347.638	0.1308
347.8473	0.1332
348.0566	0.1188
348.2659	0.127
348.4752	0.1135
348.6845	0.1183
348.8937	0.1243
349.103	0.1527
349.3122	0.1141
349.5214	0.1241
349.7306	0.1345
349.9398	0.1335
350.149	0.1339
350.3582	0.1282
350.5674	0.1381
350.7765	0.133
350.9856	0.1315
351.1948	0.129
351.4039	0.1268
351.613	0.127
351.822	0.1379
352.0311	0.1366
352.2402	0.1368
352.4492	0.1372
352.6582	0.1489
352.8672	0.1434
353.0762	0.1446
353.2852	0.1539
353.4942	0.1417
353.7032	0.1495
353.9121	0.1402
354.1211	0.1478
354.33	0.1462
354.5389	0.1437
354.7478	0.1453
354.9567	0.1371
355.1655	0.137
355.3744	0.1418
355.5833	0.1632
355.7921	0.1699
356.0009	0.1499
356.2097	0.1628
356.4185	0.1649
356.6273	0.1659
356.8361	0.1524
357.0448	0.1608
357.2536	0.1422
357.4623	0.1645
357.671	0.1614
357.8797	0.1655
358.0884	0.1665
358.2971	0.1752
358.5057	0.1618
358.7144	0.1753
358.923	0.1682
359.1316	0.1677
359.3402	0.1807
359.5488	0.1592
359.7574	0.1663
359.966	0.1732
360.1746	0.1757
360.3831	0.1937
360.5916	0.1582
360.8002	0.1704
361.0087	0.1874
361.2172	0.1693
361.4256	0.1678
361.6341	0.19
361.8426	0.1788
362.051	0.1955
362.2594	0.1846
362.4678	0.17
362.6762	0.2105
362.8846	0.1961
363.093	0.179
363.3014	0.1894
363.5097	0.1714
363.718	0.1839
363.9264	0.1957
364.1347	0.1829
364.343	0.1938
364.5513	0.2103
364.7595	0.1971
364.9678	0.1866
365.176	0.193
365.3842	0.1854
365.5925	0.2006
365.8007	0.1975
366.0089	0.2029
366.217	0.2006
366.4252	0.225
366.6333	0.2177
366.8415	0.2044
367.0496	0.1874
367.2577	0.2176
367.4658	0.2225
367.6739	0.2204
367.882	0.2299
368.09	0.2011
368.2981	0.2159
368.5061	0.2237
368.7141	0.2239
368.9221	0.2379
369.1301	0.2289
369.3381	0.2224
369.5461	0.2085
369.754	0.2141
369.962	0.2285
370.1699	0.2247
370.3778	0.2218
370.5857	0.2075
370.7936	0.208
371.0015	0.2109
371.2093	0.2281
371.4172	0.2516
371.625	0.2215
371.8328	0.224
372.0406	0.2359
372.2484	0.2308
372.4562	0.2323
372.664	0.2408
372.8717	0.2365
373.0795	0.2102
373.2872	0.2222
373.4949	0.2437
373.7026	0.2427
373.9103	0.2482
374.118	0.2644
374.3256	0.2353
374.5333	0.245
374.7409	0.2391
374.9485	0.2616
375.1561	0.2464
375.3637	0.2448
375.5713	0.2497
375.7789	0.2426
375.9864	0.2407
376.194	0.2355
376.4015	0.2557
376.609	0.2679
376.8165	0.2573
377.024	0.2426
377.2315	0.2412
377.4389	0.2551
377.6464	0.2638
377.8538	0.2419
378.0612	0.2505
378.2686	0.271
378.476	0.282
378.6834	0.2473
378.8908	0.2551
379.0981	0.2802
379.3055	0.2509
379.5128	0.2399
379.7201	0.2696
379.9274	0.2487
380.1347	0.2694
380.342	0.2897
380.5492	0.2596
380.7565	0.252
380.9637	0.2787
381.1709	0.2711
381.3781	0.2669
381.5853	0.2729
381.7925	0.2628
381.9997	0.2694
382.2068	0.2881
382.4139	0.2924
382.6211	0.2671
382.8282	0.2665
383.0353	0.283
383.2424	0.2752
383.4494	0.2848
383.6565	0.2722
383.8635	0.2724
384.0706	0.2738
384.2776	0.286
384.4846	0.2827
384.6916	0.2764
384.8986	0.2837
385.1055	0.2774
385.3125	0.2893
385.5194	0.2595
385.7263	0.2839
385.9333	0.268
386.1402	0.2727
386.347	0.2789
386.5539	0.2597
386.7608	0.2729
386.9676	0.2766
387.1744	0.2705
387.3813	0.263
387.5881	0.2742
387.7948	0.2742
388.0016	0.267
388.2084	0.2587
388.4151	0.2855
388.6219	0.2824
388.8286	0.2719
389.0353	0.2853
389.242	0.2811
389.4487	0.2599
389.6553	0.2681
389.862	0.2407
390.0686	0.2531
390.2753	0.2577
390.4819	0.262
390.6885	0.2646
390.8951	0.2671
391.1016	0.2711
391.3082	0.2487
391.5147	0.2784
391.7213	0.2638
391.9278	0.2509
392.1343	0.2545
392.3408	0.266
392.5473	0.2608
392.7537	0.2573
392.9602	0.2424
393.1666	0.2576
393.373	0.2383
393.5794	0.248
393.7858	0.242
393.9922	0.2489
394.1986	0.2575
394.4049	0.2516
394.6113	0.2298
394.8176	0.2299
395.0239	0.2298
395.2302	0.2347
395.4365	0.25
395.6428	0.2382
395.8491	0.2295
396.0553	0.2306
396.2615	0.2374
396.4678	0.2508
396.674	0.2296
396.8802	0.2236
397.0863	0.2674
397.2925	0.2209
397.4987	0.2224
397.7048	0.2346
397.9109	0.241
398.117	0.2177
398.3231	0.2281
398.5292	0.245
398.7353	0.2524
398.9413	0.2195
399.1474	0.2434
399.3534	0.2411
399.5594	0.2129
399.7654	0.2335
399.9714	0.2482
400.1774	0.2372
400.3833	0.2369
400.5893	0.2345
400.7952	0.2229
401.0011	0.2325
401.207	0.2445
401.4129	0.2312
401.6188	0.2371
401.8247	0.2246
402.0305	0.2173
402.2364	0.2223
402.4422	0.2387
402.648	0.2492
402.8538	0.2323
403.0596	0.2274
403.2654	0.2502
403.4711	0.2327
403.6768	0.2554
403.8826	0.2504
404.0883	0.2169
404.294	0.2413
404.4997	0.2286
404.7054	0.2455
404.911	0.2228
405.1167	0.232
405.3223	0.2438
405.5279	0.2524
405.7335	0.2413
405.9391	0.2426
406.1447	0.2214
406.3502	0.2434
406.5558	0.2216
406.7613	0.2328
406.9668	0.2288
407.1724	0.2425
407.3778	0.24
407.5833	0.2231
407.7888	0.229
407.9942	0.2474
408.1997	0.2248
408.4051	0.2372
408.6105	0.2417
408.8159	0.2124
409.0213	0.2146
409.2267	0.244
409.432	0.2198
409.6374	0.2403
409.8427	0.2397
410.048	0.2278
410.2533	0.2057
410.4586	0.2273
410.6639	0.2035
410.8691	0.2118
411.0744	0.2276
411.2796	0.2318
411.4848	0.2464
411.69	0.2441
411.8952	0.2477
412.1004	0.2228
412.3056	0.239
412.5107	0.223
412.7158	0.2459
412.921	0.224
413.1261	0.2251
413.3312	0.2234
413.5362	0.2316
413.7413	0.212
413.9464	0.2206
414.1514	0.2271
414.3564	0.2289
414.5614	0.207
414.7664	0.2269
414.9714	0.228
415.1764	0.2401
415.3813	0.2235
415.5863	0.2191
415.7912	0.2249
415.9961	0.2138
416.201	0.2315
416.4059	0.2337
416.6108	0.2176
416.8156	0.2283
417.0205	0.2225
417.2253	0.2132
417.4301	0.2147
417.6349	0.2171
417.8397	0.2251
418.0445	0.23
418.2492	0.2345
418.454	0.2156
418.6587	0.2305
418.8634	0.227
419.0681	0.2087
419.2728	0.2128
419.4775	0.2168
419.6822	0.2131
419.8868	0.209
420.0915	0.2169
420.2961	0.2116
420.5007	0.1915
420.7053	0.2113
420.9099	0.2129
421.1144	0.2201
421.319	0.2035
421.5235	0.2254
421.728	0.2248
421.9325	0.21
422.137	0.2122
422.3415	0.2093
422.546	0.2123
422.7504	0.1983
422.9549	0.22
423.1593	0.1938
423.3637	0.2064
423.5681	0.2029
423.7725	0.1899
423.9769	0.1936
424.1812	0.1922
424.3856	0.2014
424.5899	0.2141
424.7942	0.1998
424.9985	0.2048
425.2028	0.1752
425.4071	0.2088
425.6113	0.1879
425.8156	0.1887
426.0198	0.2003
426.224	0.1858
426.4282	0.1924
426.6324	0.176
