Data from MonoPyChalIsomerACN10uM420nmA_Absorbance_15-09-57-834.txt Node
Date: Fri Jul 05 15:09:57 BST 2024
User: LASERRRRR
Spectrometer: FLMT03099
Trigger mode: 0
Integration Time (sec): 1.000000E-1
Scans to average: 1
Electric dark correction enabled: true
Nonlinearity correction enabled: false
Boxcar width: 0
XAxis mode: Wavelengths
Number of Pixels in Spectrum: 3648
>>>>>Begin Spectral Data<<<<<
179.3399	-0.0941
179.5586	-0.0941
179.7771	-0.0941
179.9957	1.1559
180.2143	-0
180.4329	-0
180.6514	-0
180.8699	-0
181.0885	-0
181.307	0.1924
181.5255	-0.7012
181.744	-0.7997
181.9625	-0
182.181	-0
182.3994	0.0206
182.6179	-0
182.8363	0.0097
183.0547	0.5663
183.2732	0.0388
183.4916	0.0381
183.71	0.1019
183.9284	0.202
184.1467	-0.0869
184.3651	-0.1227
184.5835	0.1323
184.8018	-0.0209
185.0201	0.0476
185.2385	-0.2062
185.4568	-0.0843
185.6751	0.4795
185.8934	0.3883
186.1117	0.0401
186.3299	-0.0997
186.5482	0.0148
186.7664	-0.1829
186.9847	0.1097
187.2029	-0.0121
187.4211	0.0923
187.6393	0.2252
187.8575	-0.1846
188.0757	0.1316
188.2939	0.0735
188.512	0.355
188.7302	0.0512
188.9483	-0.1105
189.1665	0.1403
189.3846	-0.0888
189.6027	0.1669
189.8208	0.2199
190.0389	-0.0022
190.257	0.0316
190.475	0.2583
190.6931	0.0524
190.9111	0.332
191.1292	0.2038
191.3472	0.6808
191.5652	0.2441
191.7832	0.3126
192.0012	0.4311
192.2192	0.5697
192.4371	0.3223
192.6551	0.2259
192.873	0.5784
193.091	0.2913
193.3089	0.5303
193.5268	0.4599
193.7447	0.5127
193.9626	0.5917
194.1805	0.6746
194.3984	0.8231
194.6162	0.417
194.8341	0.4622
195.0519	0.5197
195.2697	0.5779
195.4875	0.7778
195.7054	0.5564
195.9231	0.6737
196.1409	0.5854
196.3587	0.5299
196.5765	0.5324
196.7942	0.4929
197.012	0.6398
197.2297	0.6156
197.4474	0.6527
197.6651	0.5028
197.8828	0.6449
198.1005	0.6514
198.3182	0.595
198.5358	0.6238
198.7535	0.7335
198.9711	0.5151
199.1888	0.544
199.4064	0.7816
199.624	0.5952
199.8416	0.5589
200.0592	0.7217
200.2767	0.7599
200.4943	0.7957
200.7119	0.7824
200.9294	0.6581
201.1469	0.608
201.3645	0.6323
201.582	0.5936
201.7995	0.6555
202.017	0.5572
202.2344	0.6211
202.4519	0.8635
202.6694	0.6524
202.8868	0.7705
203.1042	0.8003
203.3217	0.7329
203.5391	0.7082
203.7565	0.5821
203.9739	0.6772
204.1913	0.6408
204.4086	0.6826
204.626	0.6841
204.8433	0.7081
205.0607	0.6342
205.278	0.7012
205.4953	0.5966
205.7126	0.6129
205.9299	0.7734
206.1472	0.7668
206.3644	0.7535
206.5817	0.7078
206.7989	0.7436
207.0162	0.6517
207.2334	0.6598
207.4506	0.6197
207.6678	0.6392
207.885	0.5607
208.1022	0.6049
208.3194	0.6349
208.5365	0.7075
208.7537	0.6836
208.9708	0.6833
209.1879	0.5972
209.405	0.7754
209.6222	0.7089
209.8392	0.5654
210.0563	0.6324
210.2734	0.7022
210.4905	0.6736
210.7075	0.6602
210.9245	0.5915
211.1416	0.691
211.3586	0.6022
211.5756	0.6259
211.7926	0.6159
212.0096	0.5889
212.2265	0.5485
212.4435	0.588
212.6604	0.6862
212.8774	0.5853
213.0943	0.6044
213.3112	0.574
213.5281	0.5265
213.745	0.5141
213.9619	0.5143
214.1788	0.5253
214.3956	0.4753
214.6125	0.4494
214.8293	0.4659
215.0461	0.5085
215.2629	0.4566
215.4798	0.4943
215.6965	0.429
215.9133	0.4576
216.1301	0.4109
216.3469	0.4171
216.5636	0.4305
216.7803	0.4329
216.9971	0.432
217.2138	0.4097
217.4305	0.3633
217.6472	0.3439
217.8639	0.394
218.0805	0.3366
218.2972	0.3365
218.5138	0.3125
218.7305	0.3119
218.9471	0.3017
219.1637	0.2873
219.3803	0.2863
219.5969	0.2847
219.8135	0.2577
220.0301	0.2605
220.2466	0.2773
220.4632	0.2605
220.6797	0.2389
220.8962	0.2434
221.1127	0.2607
221.3292	0.2363
221.5457	0.2597
221.7622	0.2588
221.9787	0.2547
222.1951	0.2547
222.4116	0.2488
222.628	0.2515
222.8444	0.2469
223.0608	0.2601
223.2772	0.2581
223.4936	0.2555
223.71	0.2472
223.9264	0.2651
224.1427	0.2573
224.3591	0.2451
224.5754	0.2489
224.7917	0.2508
225.008	0.2721
225.2243	0.2498
225.4406	0.2748
225.6569	0.2588
225.8732	0.2536
226.0894	0.2574
226.3057	0.2652
226.5219	0.2897
226.7381	0.2698
226.9543	0.2643
227.1705	0.2819
227.3867	0.2993
227.6029	0.2925
227.8191	0.2902
228.0352	0.2861
228.2513	0.2933
228.4675	0.3039
228.6836	0.3252
228.8997	0.2827
229.1158	0.3009
229.3319	0.302
229.548	0.3019
229.764	0.3418
229.9801	0.3055
230.1961	0.3058
230.4121	0.3229
230.6282	0.3269
230.8442	0.3483
231.0602	0.3422
231.2761	0.3492
231.4921	0.3455
231.7081	0.3402
231.924	0.3411
232.14	0.3609
232.3559	0.3287
232.5718	0.3572
232.7877	0.3426
233.0036	0.3486
233.2195	0.35
233.4353	0.3728
233.6512	0.3674
233.867	0.3541
234.0829	0.3552
234.2987	0.3602
234.5145	0.3903
234.7303	0.3654
234.9461	0.3781
235.1619	0.3885
235.3776	0.381
235.5934	0.3734
235.8091	0.365
236.0249	0.3742
236.2406	0.3938
236.4563	0.3857
236.672	0.3972
236.8877	0.3859
237.1034	0.3875
237.319	0.3913
237.5347	0.3888
237.7503	0.4028
237.966	0.3967
238.1816	0.4126
238.3972	0.3996
238.6128	0.3914
238.8284	0.3981
239.0439	0.4194
239.2595	0.3992
239.475	0.409
239.6906	0.4112
239.9061	0.414
240.1216	0.405
240.3371	0.4127
240.5526	0.4013
240.7681	0.4275
240.9836	0.4156
241.199	0.425
241.4145	0.3967
241.6299	0.3796
241.8453	0.3944
242.0607	0.3963
242.2761	0.3858
242.4915	0.3655
242.7069	0.3769
242.9223	0.3851
243.1376	0.3836
243.353	0.3785
243.5683	0.3609
243.7836	0.3487
243.9989	0.3727
244.2142	0.328
244.4295	0.3538
244.6448	0.3371
244.86	0.3221
245.0753	0.3278
245.2905	0.3174
245.5057	0.3044
245.721	0.3094
245.9362	0.2905
246.1514	0.294
246.3665	0.2897
246.5817	0.278
246.7969	0.2647
247.012	0.2818
247.2271	0.2609
247.4423	0.2556
247.6574	0.2693
247.8725	0.2732
248.0876	0.2651
248.3026	0.2582
248.5177	0.2483
248.7328	0.2482
248.9478	0.2287
249.1628	0.2307
249.3779	0.2338
249.5929	0.2155
249.8079	0.2386
250.0228	0.2276
250.2378	0.2204
250.4528	0.2149
250.6677	0.2027
250.8827	0.2063
251.0976	0.2107
251.3125	0.2117
251.5274	0.1923
251.7423	0.2059
251.9572	0.193
252.172	0.1958
252.3869	0.1942
252.6017	0.1925
252.8166	0.1846
253.0314	0.1812
253.2462	0.1888
253.461	0.1848
253.6758	0.1858
253.8906	0.1892
254.1053	0.1762
254.3201	0.1869
254.5348	0.189
254.7496	0.1871
254.9643	0.169
255.179	0.1738
255.3937	0.178
255.6083	0.1754
255.823	0.1847
256.0377	0.1786
256.2523	0.1723
256.467	0.1593
256.6816	0.1873
256.8962	0.1565
257.1108	0.1638
257.3254	0.184
257.54	0.1674
257.7545	0.1711
257.9691	0.1728
258.1836	0.1704
258.3981	0.1878
258.6127	0.1862
258.8272	0.1646
259.0417	0.1809
259.2561	0.1733
259.4706	0.1749
259.6851	0.1676
259.8995	0.1717
260.114	0.1719
260.3284	0.1813
260.5428	0.1581
260.7572	0.1863
260.9716	0.1782
261.186	0.1686
261.4003	0.1722
261.6147	0.1749
261.829	0.1764
262.0433	0.1765
262.2577	0.1789
262.472	0.1773
262.6863	0.1644
262.9005	0.1735
263.1148	0.162
263.3291	0.1482
263.5433	0.1833
263.7576	0.1756
263.9718	0.1813
264.186	0.1673
264.4002	0.1648
264.6144	0.1663
264.8286	0.1661
265.0427	0.1818
265.2569	0.165
265.471	0.1651
265.6851	0.1629
265.8993	0.1695
266.1134	0.1557
266.3275	0.1648
266.5415	0.1719
266.7556	0.186
266.9697	0.1827
267.1837	0.1795
267.3978	0.1759
267.6118	0.1866
267.8258	0.1811
268.0398	0.1672
268.2538	0.1724
268.4677	0.1839
268.6817	0.1721
268.8957	0.1898
269.1096	0.1955
269.3235	0.1821
269.5374	0.1753
269.7514	0.176
269.9652	0.1796
270.1791	0.1704
270.393	0.1715
270.6068	0.1764
270.8207	0.1773
271.0345	0.1747
271.2483	0.1802
271.4622	0.1726
271.676	0.182
271.8897	0.1561
272.1035	0.174
272.3173	0.1718
272.531	0.1688
272.7448	0.1702
272.9585	0.1616
273.1722	0.1742
273.3859	0.1811
273.5996	0.1707
273.8133	0.1729
274.0269	0.1809
274.2406	0.1639
274.4542	0.1705
274.6679	0.1711
274.8815	0.1777
275.0951	0.1754
275.3087	0.1855
275.5223	0.1794
275.7358	0.1834
275.9494	0.1774
276.1629	0.1789
276.3765	0.1633
276.59	0.1754
276.8035	0.1792
277.017	0.1727
277.2305	0.1736
277.444	0.169
277.6574	0.1727
277.8709	0.1726
278.0843	0.1625
278.2978	0.1674
278.5112	0.177
278.7246	0.1766
278.938	0.1805
279.1513	0.1907
279.3647	0.183
279.5781	0.1854
279.7914	0.1877
280.0047	0.1718
280.2181	0.1827
280.4314	0.1786
280.6447	0.179
280.8579	0.1779
281.0712	0.1875
281.2845	0.1805
281.4977	0.1769
281.711	0.1735
281.9242	0.1708
282.1374	0.1844
282.3506	0.1746
282.5638	0.1885
282.7769	0.1904
282.9901	0.1722
283.2033	0.1738
283.4164	0.1882
283.6295	0.176
283.8426	0.1548
284.0557	0.1666
284.2688	0.1876
284.4819	0.1821
284.695	0.173
284.908	0.1739
285.1211	0.1665
285.3341	0.1744
285.5471	0.1759
285.7601	0.1704
285.9731	0.1505
286.1861	0.1674
286.3991	0.1744
286.612	0.1729
286.825	0.1637
287.0379	0.1615
287.2508	0.156
287.4637	0.1734
287.6766	0.1631
287.8895	0.1691
288.1024	0.1724
288.3152	0.1636
288.5281	0.1557
288.7409	0.1725
288.9538	0.1656
289.1666	0.1564
289.3794	0.1708
289.5922	0.1541
289.8049	0.1595
290.0177	0.1509
290.2304	0.1428
290.4432	0.1637
290.6559	0.1567
290.8686	0.1641
291.0813	0.1547
291.294	0.1566
291.5067	0.1649
291.7194	0.1521
291.932	0.1703
292.1447	0.157
292.3573	0.1448
292.5699	0.1507
292.7825	0.1492
292.9951	0.1442
293.2077	0.152
293.4203	0.1495
293.6328	0.1334
293.8454	0.1537
294.0579	0.1426
294.2704	0.135
294.4829	0.1396
294.6954	0.1493
294.9079	0.1517
295.1204	0.1409
295.3328	0.1444
295.5453	0.1433
295.7577	0.1509
295.9701	0.1406
296.1825	0.1535
296.3949	0.1454
296.6073	0.1367
296.8197	0.1371
297.0321	0.1536
297.2444	0.1331
297.4567	0.1433
297.6691	0.1518
297.8814	0.1446
298.0937	0.1371
298.306	0.1451
298.5182	0.1391
298.7305	0.1544
298.9428	0.1369
299.155	0.1499
299.3672	0.1447
299.5794	0.1466
299.7916	0.1431
300.0038	0.1537
300.216	0.1477
300.4282	0.1531
300.6403	0.1402
300.8525	0.1553
301.0646	0.143
301.2767	0.1387
301.4888	0.1338
301.7009	0.1431
301.913	0.1367
302.125	0.1494
302.3371	0.1417
302.5491	0.1468
302.7612	0.1519
302.9732	0.152
303.1852	0.1458
303.3972	0.1304
303.6092	0.1329
303.8211	0.1449
304.0331	0.1408
304.245	0.1348
304.457	0.1423
304.6689	0.1259
304.8808	0.1517
305.0927	0.1323
305.3046	0.1311
305.5164	0.137
305.7283	0.1347
305.9401	0.1359
306.152	0.1323
306.3638	0.1497
306.5756	0.1318
306.7874	0.1335
306.9992	0.1427
307.2109	0.1365
307.4227	0.1132
307.6344	0.145
307.8462	0.1312
308.0579	0.1393
308.2696	0.1348
308.4813	0.1304
308.693	0.1325
308.9046	0.1321
309.1163	0.1202
309.328	0.1294
309.5396	0.1297
309.7512	0.1254
309.9628	0.1262
310.1744	0.1173
310.386	0.1191
310.5976	0.1231
310.8091	0.114
311.0207	0.1152
311.2322	0.1314
311.4437	0.1052
311.6552	0.1194
311.8667	0.1211
312.0782	0.1115
312.2897	0.1028
312.5012	0.1197
312.7126	0.1173
312.924	0.1088
313.1355	0.1171
313.3469	0.1199
313.5583	0.1202
313.7696	0.1117
313.981	0.1209
314.1924	0.1088
314.4037	0.1219
314.6151	0.1318
314.8264	0.1048
315.0377	0.117
315.249	0.108
315.4603	0.1151
315.6716	0.1171
315.8828	0.111
316.0941	0.1189
316.3053	0.1047
316.5165	0.1058
316.7277	0.108
316.9389	0.1132
317.1501	0.1064
317.3613	0.1167
317.5724	0.1077
317.7836	0.122
317.9947	0.1052
318.2058	0.1183
318.417	0.1094
318.6281	0.1094
318.8391	0.1109
319.0502	0.1132
319.2613	0.1237
319.4723	0.1317
319.6834	0.1168
319.8944	0.1029
320.1054	0.1213
320.3164	0.1122
320.5274	0.1098
320.7383	0.1212
320.9493	0.1155
321.1602	0.1205
321.3712	0.1117
321.5821	0.1216
321.793	0.1205
322.0039	0.1182
322.2148	0.107
322.4257	0.1249
322.6365	0.1278
322.8474	0.1185
323.0582	0.1185
323.269	0.1145
323.4798	0.129
323.6906	0.1244
323.9014	0.1271
324.1122	0.117
324.3229	0.1151
324.5337	0.123
324.7444	0.1117
324.9551	0.1291
325.1658	0.1181
325.3765	0.134
325.5872	0.1162
325.7979	0.1287
326.0085	0.1232
326.2192	0.123
326.4298	0.1236
326.6404	0.1174
326.851	0.1223
327.0616	0.1129
327.2722	0.138
327.4828	0.135
327.6933	0.1257
327.9039	0.1264
328.1144	0.1325
328.3249	0.1344
328.5354	0.1187
328.7459	0.1338
328.9564	0.1137
329.1669	0.1229
329.3773	0.131
329.5878	0.1291
329.7982	0.1229
330.0086	0.1194
330.219	0.1369
330.4294	0.1159
330.6398	0.1236
330.8502	0.1256
331.0605	0.1384
331.2708	0.1248
331.4812	0.1357
331.6915	0.1291
331.9018	0.1216
332.1121	0.1217
332.3224	0.1257
332.5326	0.1284
332.7429	0.128
332.9531	0.1391
333.1633	0.1167
333.3735	0.1393
333.5837	0.1297
333.7939	0.1212
334.0041	0.1325
334.2143	0.1324
334.4244	0.1132
334.6346	0.1156
334.8447	0.1294
335.0548	0.126
335.2649	0.1235
335.475	0.1298
335.685	0.1246
335.8951	0.1371
336.1051	0.1341
336.3152	0.1352
336.5252	0.1253
336.7352	0.1342
336.9452	0.1253
337.1552	0.138
337.3652	0.1389
337.5751	0.1284
337.7851	0.1362
337.995	0.1248
338.2049	0.1442
338.4148	0.1317
338.6247	0.1398
338.8346	0.124
339.0445	0.1302
339.2543	0.1368
339.4642	0.1376
339.674	0.1304
339.8838	0.1251
340.0936	0.1261
340.3034	0.1452
340.5132	0.1422
340.7229	0.1496
340.9327	0.1301
341.1424	0.1215
341.3522	0.1507
341.5619	0.152
341.7716	0.1406
341.9813	0.147
342.1909	0.1403
342.4006	0.1471
342.6102	0.1373
342.8199	0.1425
343.0295	0.1391
343.2391	0.1404
343.4487	0.1509
343.6583	0.133
343.8679	0.143
344.0774	0.1469
344.287	0.1547
344.4965	0.1492
344.706	0.1428
344.9155	0.1556
345.125	0.141
345.3345	0.144
345.544	0.1513
345.7534	0.1374
345.9629	0.1514
346.1723	0.143
346.3817	0.1557
346.5911	0.1456
346.8005	0.1605
347.0099	0.1519
347.2193	0.1543
347.4286	0.143
347.638	0.1461
347.8473	0.1596
348.0566	0.1614
348.2659	0.1469
348.4752	0.1519
348.6845	0.1355
348.8937	0.1428
349.103	0.1588
349.3122	0.1482
349.5214	0.1429
349.7306	0.1493
349.9398	0.1441
350.149	0.1469
350.3582	0.1399
350.5674	0.1602
350.7765	0.1477
350.9856	0.1637
351.1948	0.1515
351.4039	0.1534
351.613	0.1407
351.822	0.1516
352.0311	0.15
352.2402	0.1586
352.4492	0.1542
352.6582	0.1602
352.8672	0.1447
353.0762	0.1667
353.2852	0.1649
353.4942	0.1479
353.7032	0.1512
353.9121	0.161
354.1211	0.1615
354.33	0.1587
354.5389	0.1559
354.7478	0.1518
354.9567	0.1648
355.1655	0.1484
355.3744	0.1562
355.5833	0.1561
355.7921	0.1755
356.0009	0.1668
356.2097	0.1832
356.4185	0.1743
356.6273	0.1694
356.8361	0.1673
357.0448	0.1583
357.2536	0.155
357.4623	0.158
357.671	0.1647
357.8797	0.1631
358.0884	0.1635
358.2971	0.1671
358.5057	0.1614
358.7144	0.1818
358.923	0.1638
359.1316	0.1692
359.3402	0.174
359.5488	0.1693
359.7574	0.1565
359.966	0.1674
360.1746	0.176
360.3831	0.1629
360.5916	0.1603
360.8002	0.1518
361.0087	0.1711
361.2172	0.1858
361.4256	0.1703
361.6341	0.1969
361.8426	0.1655
362.051	0.1753
362.2594	0.1635
362.4678	0.1787
362.6762	0.2026
362.8846	0.1836
363.093	0.1582
363.3014	0.1861
363.5097	0.1756
363.718	0.1821
363.9264	0.1698
364.1347	0.1517
364.343	0.1761
364.5513	0.1924
364.7595	0.1841
364.9678	0.1841
365.176	0.1772
365.3842	0.1802
365.5925	0.168
365.8007	0.179
366.0089	0.1889
366.217	0.1714
366.4252	0.1874
366.6333	0.192
366.8415	0.1778
367.0496	0.1741
367.2577	0.1971
367.4658	0.1957
367.6739	0.188
367.882	0.1887
368.09	0.1904
368.2981	0.1857
368.5061	0.1845
368.7141	0.1927
368.9221	0.1954
369.1301	0.1885
369.3381	0.1886
369.5461	0.1882
369.754	0.1852
369.962	0.1854
370.1699	0.2002
370.3778	0.1906
370.5857	0.169
370.7936	0.1893
371.0015	0.1877
371.2093	0.1971
371.4172	0.1831
371.625	0.1877
371.8328	0.1886
372.0406	0.1979
372.2484	0.2
372.4562	0.1878
372.664	0.1992
372.8717	0.2007
373.0795	0.1587
373.2872	0.1884
373.4949	0.1766
373.7026	0.192
373.9103	0.1937
374.118	0.1888
374.3256	0.1865
374.5333	0.1882
374.7409	0.1773
374.9485	0.2037
375.1561	0.1787
375.3637	0.2003
375.5713	0.1969
375.7789	0.1944
375.9864	0.1988
376.194	0.1884
376.4015	0.199
376.609	0.2007
376.8165	0.1835
377.024	0.1992
377.2315	0.1748
377.4389	0.1967
377.6464	0.2019
377.8538	0.1901
378.0612	0.1886
378.2686	0.1962
378.476	0.2143
378.6834	0.1951
378.8908	0.2066
379.0981	0.2164
379.3055	0.209
379.5128	0.1862
379.7201	0.2019
379.9274	0.1977
380.1347	0.2065
380.342	0.2019
380.5492	0.1843
380.7565	0.1948
380.9637	0.1927
381.1709	0.1867
381.3781	0.1973
381.5853	0.1982
381.7925	0.1894
381.9997	0.2062
382.2068	0.2002
382.4139	0.2169
382.6211	0.1863
382.8282	0.1956
383.0353	0.187
383.2424	0.1959
383.4494	0.2081
383.6565	0.1985
383.8635	0.1826
384.0706	0.1898
384.2776	0.183
384.4846	0.1951
384.6916	0.2155
384.8986	0.1955
385.1055	0.2036
385.3125	0.1958
385.5194	0.1683
385.7263	0.2038
385.9333	0.203
386.1402	0.1905
386.347	0.1732
386.5539	0.1769
386.7608	0.1989
386.9676	0.1815
387.1744	0.1924
387.3813	0.1722
387.5881	0.1984
387.7948	0.1814
388.0016	0.1801
388.2084	0.189
388.4151	0.1742
388.6219	0.1993
388.8286	0.1783
389.0353	0.1985
389.242	0.2025
389.4487	0.188
389.6553	0.1807
389.862	0.1734
390.0686	0.1759
390.2753	0.198
390.4819	0.1834
390.6885	0.1782
390.8951	0.1836
391.1016	0.1749
391.3082	0.1791
391.5147	0.1769
391.7213	0.1713
391.9278	0.1696
392.1343	0.173
392.3408	0.1726
392.5473	0.1662
392.7537	0.1666
392.9602	0.1701
393.1666	0.1762
393.373	0.1668
393.5794	0.1917
393.7858	0.1716
393.9922	0.16
394.1986	0.1818
394.4049	0.1721
394.6113	0.1544
394.8176	0.1569
395.0239	0.1647
395.2302	0.1555
395.4365	0.1456
395.6428	0.1705
395.8491	0.1459
396.0553	0.1711
396.2615	0.1669
396.4678	0.1797
396.674	0.1412
396.8802	0.1542
397.0863	0.189
397.2925	0.1511
397.4987	0.1551
397.7048	0.1495
397.9109	0.1566
398.117	0.1475
398.3231	0.1558
398.5292	0.1686
398.7353	0.1646
398.9413	0.1408
399.1474	0.1517
399.3534	0.1511
399.5594	0.1455
399.7654	0.1726
399.9714	0.1694
400.1774	0.1643
400.3833	0.1363
400.5893	0.1707
400.7952	0.1461
401.0011	0.1438
401.207	0.1631
401.4129	0.1457
401.6188	0.1611
401.8247	0.1739
402.0305	0.1434
402.2364	0.149
402.4422	0.1515
402.648	0.1552
402.8538	0.1553
403.0596	0.1409
403.2654	0.1627
403.4711	0.1588
403.6768	0.1568
403.8826	0.1754
404.0883	0.1387
404.294	0.1636
404.4997	0.1588
404.7054	0.1506
404.911	0.1388
405.1167	0.164
405.3223	0.1555
405.5279	0.154
405.7335	0.1586
405.9391	0.1728
406.1447	0.1565
406.3502	0.161
406.5558	0.1572
406.7613	0.1645
406.9668	0.1598
407.1724	0.1285
407.3778	0.1463
407.5833	0.1587
407.7888	0.1335
407.9942	0.1655
408.1997	0.1476
408.4051	0.1501
408.6105	0.1536
408.8159	0.1519
409.0213	0.1402
409.2267	0.1524
409.432	0.1463
409.6374	0.1509
409.8427	0.1383
410.048	0.1485
410.2533	0.1317
410.4586	0.1489
410.6639	0.1373
410.8691	0.1346
411.0744	0.1402
411.2796	0.1378
411.4848	0.1344
411.69	0.1435
411.8952	0.1644
412.1004	0.1333
412.3056	0.1606
412.5107	0.1271
412.7158	0.1465
412.921	0.1279
413.1261	0.131
413.3312	0.143
413.5362	0.1474
413.7413	0.1509
413.9464	0.1454
414.1514	0.1225
414.3564	0.1422
414.5614	0.1194
414.7664	0.1413
414.9714	0.1535
415.1764	0.1415
415.3813	0.1419
415.5863	0.137
415.7912	0.1442
415.9961	0.1306
416.201	0.1404
416.4059	0.1289
416.6108	0.1298
416.8156	0.1488
417.0205	0.1278
417.2253	0.1132
417.4301	0.1479
417.6349	0.1357
417.8397	0.1406
418.0445	0.1456
418.2492	0.1346
418.454	0.1401
418.6587	0.1368
418.8634	0.1317
419.0681	0.1319
419.2728	0.1255
419.4775	0.1194
419.6822	0.1162
419.8868	0.1108
420.0915	0.1342
420.2961	0.1061
420.5007	0.1235
420.7053	0.1246
420.9099	0.1341
421.1144	0.1396
421.319	0.1081
421.5235	0.1369
421.728	0.1219
421.9325	0.1269
422.137	0.13
422.3415	0.1321
422.546	0.1308
422.7504	0.1393
422.9549	0.1394
423.1593	0.1163
423.3637	0.1233
423.5681	0.128
423.7725	0.1066
423.9769	0.1093
424.1812	0.1056
424.3856	0.1162
424.5899	0.1177
424.7942	0.1225
424.9985	0.1207
425.2028	0.1124
425.4071	0.1473
425.6113	0.0951
425.8156	0.1203
426.0198	0.1069
426.224	0.1012
426.4282	0.1085
