Data from MonoPyChalIsomerACN10uM420nmA_Absorbance_15-09-50-135.txt Node
Date: Fri Jul 05 15:09:50 BST 2024
User: LASERRRRR
Spectrometer: FLMT03099
Trigger mode: 0
Integration Time (sec): 1.000000E-1
Scans to average: 1
Electric dark correction enabled: true
Nonlinearity correction enabled: false
Boxcar width: 0
XAxis mode: Wavelengths
Number of Pixels in Spectrum: 3648
>>>>>Begin Spectral Data<<<<<
179.3399	0.0934
179.5586	0.0934
179.7771	0.0934
179.9957	0.1161
180.2143	-0
180.4329	-0
180.6514	-0
180.8699	0.1648
181.0885	0.0148
181.307	0.2119
181.5255	-0.8251
181.744	-0.1115
181.9625	-0
182.181	-0.5195
182.3994	-0
182.6179	-0
182.8363	0.421
183.0547	-0.3424
183.2732	0.1698
183.4916	0.0089
183.71	0.0496
183.9284	0.1305
184.1467	-0.0924
184.3651	-0.0702
184.5835	0.0427
184.8018	0.0882
185.0201	-0.0505
185.2385	-0.0617
185.4568	0.1439
185.6751	0.2722
185.8934	0.1758
186.1117	0.035
186.3299	0.1211
186.5482	-0.1401
186.7664	-0.109
186.9847	-0.1085
187.2029	0.1109
187.4211	-0.0216
187.6393	0.1973
187.8575	0.006
188.0757	0.3559
188.2939	0.1125
188.512	0.0081
188.7302	0.1785
188.9483	0.0764
189.1665	0.0803
189.3846	-0.2936
189.6027	0.1134
189.8208	0.2378
190.0389	0.12
190.257	0.2098
190.475	0.3874
190.6931	0.307
190.9111	0.7757
191.1292	0.1051
191.3472	0.3334
191.5652	0.2336
191.7832	0.3223
192.0012	0.3858
192.2192	0.2222
192.4371	0.6256
192.6551	0.2251
192.873	0.4523
193.091	0.3601
193.3089	0.5662
193.5268	0.4986
193.7447	0.4548
193.9626	0.4845
194.1805	0.4625
194.3984	0.714
194.6162	0.5364
194.8341	0.4149
195.0519	0.5862
195.2697	0.6918
195.4875	0.8708
195.7054	0.6437
195.9231	0.4568
196.1409	0.5886
196.3587	0.5221
196.5765	0.5874
196.7942	0.7054
197.012	0.5935
197.2297	0.498
197.4474	0.6609
197.6651	0.6486
197.8828	0.6117
198.1005	0.7066
198.3182	0.5684
198.5358	0.7284
198.7535	0.5637
198.9711	0.6086
199.1888	0.8321
199.4064	0.7348
199.624	0.5818
199.8416	0.6222
200.0592	0.5474
200.2767	0.6491
200.4943	0.749
200.7119	0.77
200.9294	0.6263
201.1469	0.5901
201.3645	0.6546
201.582	0.6831
201.7995	0.692
202.017	0.6258
202.2344	0.6992
202.4519	0.6534
202.6694	0.5424
202.8868	0.661
203.1042	0.7372
203.3217	0.6591
203.5391	0.6118
203.7565	0.6304
203.9739	0.5715
204.1913	0.6004
204.4086	0.6033
204.626	0.6836
204.8433	0.6206
205.0607	0.6378
205.278	0.594
205.4953	0.6174
205.7126	0.683
205.9299	0.6689
206.1472	0.6778
206.3644	0.656
206.5817	0.6841
206.7989	0.7322
207.0162	0.7211
207.2334	0.7044
207.4506	0.6505
207.6678	0.676
207.885	0.6624
208.1022	0.6788
208.3194	0.7201
208.5365	0.6068
208.7537	0.7058
208.9708	0.5934
209.1879	0.6884
209.405	0.7955
209.6222	0.6809
209.8392	0.696
210.0563	0.6127
210.2734	0.7193
210.4905	0.6333
210.7075	0.5954
210.9245	0.6141
211.1416	0.6762
211.3586	0.6765
211.5756	0.5943
211.7926	0.607
212.0096	0.6456
212.2265	0.5611
212.4435	0.6135
212.6604	0.5494
212.8774	0.5985
213.0943	0.6019
213.3112	0.5263
213.5281	0.5883
213.745	0.5165
213.9619	0.5058
214.1788	0.5435
214.3956	0.4925
214.6125	0.4807
214.8293	0.4765
215.0461	0.4893
215.2629	0.4862
215.4798	0.498
215.6965	0.4413
215.9133	0.4603
216.1301	0.4665
216.3469	0.4398
216.5636	0.4523
216.7803	0.4033
216.9971	0.4287
217.2138	0.4077
217.4305	0.3867
217.6472	0.3587
217.8639	0.4063
218.0805	0.3476
218.2972	0.3479
218.5138	0.3327
218.7305	0.3288
218.9471	0.3375
219.1637	0.2855
219.3803	0.312
219.5969	0.2861
219.8135	0.2775
220.0301	0.2643
220.2466	0.283
220.4632	0.2685
220.6797	0.251
220.8962	0.261
221.1127	0.2439
221.3292	0.2784
221.5457	0.2486
221.7622	0.2266
221.9787	0.2608
222.1951	0.2361
222.4116	0.2732
222.628	0.2687
222.8444	0.2385
223.0608	0.2612
223.2772	0.2479
223.4936	0.2787
223.71	0.2563
223.9264	0.2809
224.1427	0.2514
224.3591	0.2566
224.5754	0.2733
224.7917	0.2683
225.008	0.2748
225.2243	0.2621
225.4406	0.28
225.6569	0.3128
225.8732	0.2605
226.0894	0.2792
226.3057	0.2754
226.5219	0.2812
226.7381	0.2706
226.9543	0.2832
227.1705	0.305
227.3867	0.3046
227.6029	0.3033
227.8191	0.3014
228.0352	0.3124
228.2513	0.329
228.4675	0.3287
228.6836	0.3069
228.8997	0.2878
229.1158	0.2992
229.3319	0.31
229.548	0.3124
229.764	0.323
229.9801	0.331
230.1961	0.3255
230.4121	0.3296
230.6282	0.3436
230.8442	0.32
231.0602	0.3538
231.2761	0.3528
231.4921	0.3477
231.7081	0.3596
231.924	0.3443
232.14	0.3784
232.3559	0.3333
232.5718	0.3844
232.7877	0.3733
233.0036	0.3493
233.2195	0.3561
233.4353	0.366
233.6512	0.3618
233.867	0.3836
234.0829	0.3684
234.2987	0.3752
234.5145	0.3656
234.7303	0.3731
234.9461	0.4083
235.1619	0.3929
235.3776	0.3883
235.5934	0.3747
235.8091	0.365
236.0249	0.3838
236.2406	0.3934
236.4563	0.3903
236.672	0.4159
236.8877	0.3962
237.1034	0.3861
237.319	0.4087
237.5347	0.4086
237.7503	0.3929
237.966	0.4088
238.1816	0.4137
238.3972	0.4239
238.6128	0.4182
238.8284	0.4198
239.0439	0.4166
239.2595	0.3922
239.475	0.4282
239.6906	0.4074
239.9061	0.3871
240.1216	0.4039
240.3371	0.4116
240.5526	0.3997
240.7681	0.4266
240.9836	0.4129
241.199	0.4067
241.4145	0.3928
241.6299	0.3796
241.8453	0.3944
242.0607	0.3884
242.2761	0.3653
242.4915	0.3704
242.7069	0.3698
242.9223	0.3584
243.1376	0.3552
243.353	0.351
243.5683	0.3548
243.7836	0.3304
243.9989	0.345
244.2142	0.3048
244.4295	0.3117
244.6448	0.3168
244.86	0.2951
245.0753	0.2965
245.2905	0.2849
245.5057	0.2773
245.721	0.2781
245.9362	0.2804
246.1514	0.2803
246.3665	0.2596
246.5817	0.259
246.7969	0.2407
247.012	0.243
247.2271	0.2373
247.4423	0.2453
247.6574	0.2454
247.8725	0.24
248.0876	0.2203
248.3026	0.2293
248.5177	0.2159
248.7328	0.2178
248.9478	0.2198
249.1628	0.214
249.3779	0.2182
249.5929	0.1986
249.8079	0.2191
250.0228	0.2078
250.2378	0.2051
250.4528	0.2043
250.6677	0.1838
250.8827	0.1996
251.0976	0.2045
251.3125	0.1953
251.5274	0.1933
251.7423	0.1872
251.9572	0.2016
252.172	0.182
252.3869	0.1842
252.6017	0.173
252.8166	0.1681
253.0314	0.1727
253.2462	0.1767
253.461	0.1776
253.6758	0.1763
253.8906	0.1868
254.1053	0.1888
254.3201	0.1895
254.5348	0.1814
254.7496	0.1817
254.9643	0.1704
255.179	0.173
255.3937	0.1756
255.6083	0.1751
255.823	0.1704
256.0377	0.1639
256.2523	0.1837
256.467	0.1533
256.6816	0.1726
256.8962	0.1763
257.1108	0.1667
257.3254	0.1759
257.54	0.1673
257.7545	0.1773
257.9691	0.1859
258.1836	0.1707
258.3981	0.1704
258.6127	0.1952
258.8272	0.1539
259.0417	0.1665
259.2561	0.1797
259.4706	0.1778
259.6851	0.1693
259.8995	0.1696
260.114	0.1751
260.3284	0.1556
260.5428	0.1592
260.7572	0.1735
260.9716	0.1667
261.186	0.1704
261.4003	0.1756
261.6147	0.1813
261.829	0.1597
262.0433	0.1651
262.2577	0.1645
262.472	0.1722
262.6863	0.1762
262.9005	0.1676
263.1148	0.1642
263.3291	0.1612
263.5433	0.1761
263.7576	0.1736
263.9718	0.1719
264.186	0.1527
264.4002	0.1709
264.6144	0.1596
264.8286	0.1802
265.0427	0.1735
265.2569	0.1689
265.471	0.1641
265.6851	0.1607
265.8993	0.1611
266.1134	0.1674
266.3275	0.1633
266.5415	0.1642
266.7556	0.1767
266.9697	0.1699
267.1837	0.1668
267.3978	0.1777
267.6118	0.1647
267.8258	0.178
268.0398	0.1643
268.2538	0.1822
268.4677	0.16
268.6817	0.1476
268.8957	0.1592
269.1096	0.1702
269.3235	0.1588
269.5374	0.1603
269.7514	0.1503
269.9652	0.1498
270.1791	0.157
270.393	0.1595
270.6068	0.16
270.8207	0.1594
271.0345	0.1523
271.2483	0.1578
271.4622	0.152
271.676	0.1545
271.8897	0.1563
272.1035	0.1355
272.3173	0.1496
272.531	0.1507
272.7448	0.1506
272.9585	0.137
273.1722	0.1514
273.3859	0.1402
273.5996	0.1473
273.8133	0.1534
274.0269	0.1476
274.2406	0.1454
274.4542	0.1444
274.6679	0.1438
274.8815	0.1316
275.0951	0.1528
275.3087	0.1571
275.5223	0.1487
275.7358	0.1583
275.9494	0.1527
276.1629	0.1355
276.3765	0.1436
276.59	0.1598
276.8035	0.139
277.017	0.1558
277.2305	0.1497
277.444	0.1476
277.6574	0.1538
277.8709	0.137
278.0843	0.1418
278.2978	0.1496
278.5112	0.1529
278.7246	0.1576
278.938	0.1572
279.1513	0.162
279.3647	0.1575
279.5781	0.1377
279.7914	0.1548
280.0047	0.1584
280.2181	0.1469
280.4314	0.1545
280.6447	0.1569
280.8579	0.1657
281.0712	0.1703
281.2845	0.1565
281.4977	0.156
281.711	0.1516
281.9242	0.1394
282.1374	0.1501
282.3506	0.1457
282.5638	0.1527
282.7769	0.1573
282.9901	0.1473
283.2033	0.1717
283.4164	0.1588
283.6295	0.1451
283.8426	0.1456
284.0557	0.1539
284.2688	0.1735
284.4819	0.1577
284.695	0.1552
284.908	0.1622
285.1211	0.1504
285.3341	0.1642
285.5471	0.1658
285.7601	0.1645
285.9731	0.157
286.1861	0.1653
286.3991	0.1707
286.612	0.1727
286.825	0.1591
287.0379	0.1743
287.2508	0.1589
287.4637	0.167
287.6766	0.1558
287.8895	0.1746
288.1024	0.1831
288.3152	0.1822
288.5281	0.16
288.7409	0.1612
288.9538	0.1662
289.1666	0.1667
289.3794	0.1702
289.5922	0.1608
289.8049	0.1665
290.0177	0.1673
290.2304	0.1643
290.4432	0.1586
290.6559	0.1712
290.8686	0.1811
291.0813	0.1632
291.294	0.1723
291.5067	0.1747
291.7194	0.1554
291.932	0.1838
292.1447	0.1689
292.3573	0.1599
292.5699	0.1741
292.7825	0.1678
292.9951	0.1743
293.2077	0.1684
293.4203	0.1745
293.6328	0.1504
293.8454	0.1729
294.0579	0.1634
294.2704	0.1686
294.4829	0.1664
294.6954	0.1778
294.9079	0.1701
295.1204	0.1675
295.3328	0.1612
295.5453	0.1688
295.7577	0.1688
295.9701	0.1513
296.1825	0.1664
296.3949	0.1688
296.6073	0.164
296.8197	0.1576
297.0321	0.1743
297.2444	0.1574
297.4567	0.1776
297.6691	0.1733
297.8814	0.1595
298.0937	0.1654
298.306	0.1779
298.5182	0.1598
298.7305	0.1742
298.9428	0.1658
299.155	0.1685
299.3672	0.1638
299.5794	0.1595
299.7916	0.1696
300.0038	0.1762
300.216	0.1665
300.4282	0.166
300.6403	0.1707
300.8525	0.1693
301.0646	0.1629
301.2767	0.1749
301.4888	0.1602
301.7009	0.1663
301.913	0.1659
302.125	0.1777
302.3371	0.1623
302.5491	0.1638
302.7612	0.1634
302.9732	0.1727
303.1852	0.1727
303.3972	0.1658
303.6092	0.15
303.8211	0.1568
304.0331	0.1499
304.245	0.1565
304.457	0.1449
304.6689	0.1547
304.8808	0.1734
305.0927	0.1554
305.3046	0.1532
305.5164	0.1611
305.7283	0.1485
305.9401	0.1516
306.152	0.1517
306.3638	0.1608
306.5756	0.1533
306.7874	0.1507
306.9992	0.1444
307.2109	0.1451
307.4227	0.1373
307.6344	0.1491
307.8462	0.1337
308.0579	0.1369
308.2696	0.1377
308.4813	0.1287
308.693	0.1289
308.9046	0.1448
309.1163	0.1284
309.328	0.1382
309.5396	0.1263
309.7512	0.1304
309.9628	0.1215
310.1744	0.1328
310.386	0.1156
310.5976	0.12
310.8091	0.1338
311.0207	0.1192
311.2322	0.113
311.4437	0.1102
311.6552	0.1153
311.8667	0.1145
312.0782	0.1031
312.2897	0.1048
312.5012	0.1055
312.7126	0.1106
312.924	0.0988
313.1355	0.1168
313.3469	0.1084
313.5583	0.1071
313.7696	0.1118
313.981	0.1084
314.1924	0.1031
314.4037	0.1073
314.6151	0.1157
314.8264	0.1009
315.0377	0.0953
315.249	0.1101
315.4603	0.1077
315.6716	0.1027
315.8828	0.0915
316.0941	0.1074
316.3053	0.0999
316.5165	0.1129
316.7277	0.097
316.9389	0.1058
317.1501	0.0978
317.3613	0.0962
317.5724	0.0951
317.7836	0.0946
317.9947	0.0952
318.2058	0.1013
318.417	0.0853
318.6281	0.0884
318.8391	0.0944
319.0502	0.0931
319.2613	0.1005
319.4723	0.1093
319.6834	0.0987
319.8944	0.0949
320.1054	0.1105
320.3164	0.1037
320.5274	0.0936
320.7383	0.0909
320.9493	0.0939
321.1602	0.1172
321.3712	0.0879
321.5821	0.1108
321.793	0.0959
322.0039	0.1039
322.2148	0.1032
322.4257	0.1009
322.6365	0.1013
322.8474	0.0997
323.0582	0.0906
323.269	0.098
323.4798	0.1056
323.6906	0.1132
323.9014	0.1083
324.1122	0.0924
324.3229	0.098
324.5337	0.0946
324.7444	0.0817
324.9551	0.1046
325.1658	0.1039
325.3765	0.0993
325.5872	0.1047
325.7979	0.1051
326.0085	0.1027
326.2192	0.105
326.4298	0.1113
326.6404	0.0922
326.851	0.0934
327.0616	0.0878
327.2722	0.0963
327.4828	0.1001
327.6933	0.1035
327.9039	0.1152
328.1144	0.102
328.3249	0.1084
328.5354	0.1015
328.7459	0.1037
328.9564	0.103
329.1669	0.1118
329.3773	0.1074
329.5878	0.1087
329.7982	0.0982
330.0086	0.1001
330.219	0.102
330.4294	0.1051
330.6398	0.1027
330.8502	0.1006
331.0605	0.0957
331.2708	0.1017
331.4812	0.1085
331.6915	0.1137
331.9018	0.1038
332.1121	0.1011
332.3224	0.1036
332.5326	0.1077
332.7429	0.1012
332.9531	0.1233
333.1633	0.104
333.3735	0.1031
333.5837	0.114
333.7939	0.1034
334.0041	0.1191
334.2143	0.1199
334.4244	0.103
334.6346	0.0863
334.8447	0.1146
335.0548	0.1014
335.2649	0.0953
335.475	0.12
335.685	0.1041
335.8951	0.129
336.1051	0.1028
336.3152	0.1227
336.5252	0.1004
336.7352	0.1116
336.9452	0.1105
337.1552	0.116
337.3652	0.1067
337.5751	0.1027
337.7851	0.123
337.995	0.0995
338.2049	0.1165
338.4148	0.1202
338.6247	0.1126
338.8346	0.1044
339.0445	0.1078
339.2543	0.1032
339.4642	0.1082
339.674	0.1065
339.8838	0.1249
340.0936	0.1167
340.3034	0.1408
340.5132	0.1221
340.7229	0.1218
340.9327	0.1204
341.1424	0.1082
341.3522	0.1276
341.5619	0.1107
341.7716	0.113
341.9813	0.1143
342.1909	0.1222
342.4006	0.1176
342.6102	0.1222
342.8199	0.1273
343.0295	0.1247
343.2391	0.1157
343.4487	0.144
343.6583	0.1082
343.8679	0.1274
344.0774	0.1328
344.287	0.1353
344.4965	0.1229
344.706	0.1262
344.9155	0.1232
345.125	0.1221
345.3345	0.1197
345.544	0.1329
345.7534	0.1335
345.9629	0.1195
346.1723	0.136
346.3817	0.1184
346.5911	0.127
346.8005	0.1354
347.0099	0.1287
347.2193	0.1273
347.4286	0.1248
347.638	0.1286
347.8473	0.1338
348.0566	0.1358
348.2659	0.1479
348.4752	0.1327
348.6845	0.1244
348.8937	0.1374
349.103	0.1462
349.3122	0.1392
349.5214	0.1261
349.7306	0.1527
349.9398	0.1246
350.149	0.1458
350.3582	0.1257
350.5674	0.1418
350.7765	0.1373
350.9856	0.1435
351.1948	0.1376
351.4039	0.1219
351.613	0.1339
351.822	0.1401
352.0311	0.1569
352.2402	0.151
352.4492	0.1405
352.6582	0.1583
352.8672	0.1488
353.0762	0.1446
353.2852	0.1549
353.4942	0.1376
353.7032	0.1535
353.9121	0.1569
354.1211	0.1587
354.33	0.1455
354.5389	0.1452
354.7478	0.1418
354.9567	0.1471
355.1655	0.156
355.3744	0.1472
355.5833	0.158
355.7921	0.1736
356.0009	0.1532
356.2097	0.1627
356.4185	0.168
356.6273	0.1627
356.8361	0.1667
357.0448	0.1589
357.2536	0.1532
357.4623	0.149
357.671	0.1672
357.8797	0.1793
358.0884	0.1536
358.2971	0.1574
358.5057	0.1703
358.7144	0.1745
358.923	0.179
359.1316	0.1739
359.3402	0.1666
359.5488	0.1641
359.7574	0.1603
359.966	0.1769
360.1746	0.1757
360.3831	0.1747
360.5916	0.1586
360.8002	0.1648
361.0087	0.1763
361.2172	0.1672
361.4256	0.1764
361.6341	0.1835
361.8426	0.1897
362.051	0.1847
362.2594	0.18
362.4678	0.1723
362.6762	0.208
362.8846	0.1883
363.093	0.173
363.3014	0.1847
363.5097	0.172
363.718	0.1849
363.9264	0.2122
364.1347	0.1868
364.343	0.202
364.5513	0.198
364.7595	0.2039
364.9678	0.1884
365.176	0.198
365.3842	0.184
365.5925	0.1929
365.8007	0.1965
366.0089	0.1885
366.217	0.193
366.4252	0.1907
366.6333	0.2014
366.8415	0.2047
367.0496	0.1837
367.2577	0.2122
367.4658	0.208
367.6739	0.2226
367.882	0.2124
368.09	0.2049
368.2981	0.2089
368.5061	0.2138
368.7141	0.1991
368.9221	0.215
369.1301	0.2196
369.3381	0.2108
369.5461	0.2096
369.754	0.2073
369.962	0.2139
370.1699	0.2145
370.3778	0.2188
370.5857	0.1921
370.7936	0.2057
371.0015	0.2114
371.2093	0.2246
371.4172	0.22
371.625	0.2244
371.8328	0.2084
372.0406	0.2139
372.2484	0.2222
372.4562	0.2208
372.664	0.2168
372.8717	0.2285
373.0795	0.2026
373.2872	0.2284
373.4949	0.2264
373.7026	0.229
373.9103	0.2368
374.118	0.2318
374.3256	0.2232
374.5333	0.23
374.7409	0.2279
374.9485	0.2522
375.1561	0.2469
375.3637	0.2425
375.5713	0.2386
375.7789	0.2351
375.9864	0.2304
376.194	0.2367
376.4015	0.2392
376.609	0.2415
376.8165	0.2479
377.024	0.2315
377.2315	0.2267
377.4389	0.2427
377.6464	0.2364
377.8538	0.2446
378.0612	0.2333
378.2686	0.2537
378.476	0.2738
378.6834	0.2537
378.8908	0.2407
379.0981	0.2508
379.3055	0.2652
379.5128	0.2515
379.7201	0.2347
379.9274	0.2569
380.1347	0.2544
380.342	0.2651
380.5492	0.252
380.7565	0.2457
380.9637	0.2602
381.1709	0.2442
381.3781	0.2576
381.5853	0.252
381.7925	0.2487
381.9997	0.2707
382.2068	0.2695
382.4139	0.2702
382.6211	0.2633
382.8282	0.2622
383.0353	0.2652
383.2424	0.2522
383.4494	0.2733
383.6565	0.2451
383.8635	0.2347
384.0706	0.2581
384.2776	0.2595
384.4846	0.2327
384.6916	0.2683
384.8986	0.2526
385.1055	0.2679
385.3125	0.2623
385.5194	0.2428
385.7263	0.2651
385.9333	0.2504
386.1402	0.268
386.347	0.2434
386.5539	0.2406
386.7608	0.2678
386.9676	0.2413
387.1744	0.2704
387.3813	0.2387
387.5881	0.2625
387.7948	0.2577
388.0016	0.2515
388.2084	0.2602
388.4151	0.2465
388.6219	0.2495
388.8286	0.2671
389.0353	0.2665
389.242	0.2641
389.4487	0.2554
389.6553	0.243
389.862	0.2396
390.0686	0.2334
390.2753	0.2501
390.4819	0.2478
390.6885	0.2538
390.8951	0.2558
391.1016	0.2324
391.3082	0.2513
391.5147	0.2325
391.7213	0.2421
391.9278	0.2296
392.1343	0.2392
392.3408	0.2439
392.5473	0.2298
392.7537	0.2277
392.9602	0.2185
393.1666	0.2306
393.373	0.2373
393.5794	0.2429
393.7858	0.236
393.9922	0.2325
394.1986	0.2371
394.4049	0.2408
394.6113	0.2158
394.8176	0.2111
395.0239	0.2276
395.2302	0.2263
395.4365	0.23
395.6428	0.2297
395.8491	0.2131
396.0553	0.2136
396.2615	0.2146
396.4678	0.2239
396.674	0.1942
396.8802	0.2235
397.0863	0.2245
397.2925	0.2196
397.4987	0.2124
397.7048	0.2186
397.9109	0.2241
398.117	0.2042
398.3231	0.223
398.5292	0.2201
398.7353	0.2351
398.9413	0.2271
399.1474	0.2181
399.3534	0.2064
399.5594	0.2074
399.7654	0.2264
399.9714	0.2207
400.1774	0.2279
400.3833	0.212
400.5893	0.2019
400.7952	0.2127
401.0011	0.208
401.207	0.2242
401.4129	0.2209
401.6188	0.2161
401.8247	0.215
402.0305	0.2021
402.2364	0.2046
402.4422	0.2167
402.648	0.2254
402.8538	0.2179
403.0596	0.2182
403.2654	0.2119
403.4711	0.1978
403.6768	0.2275
403.8826	0.2292
404.0883	0.2067
404.294	0.2304
404.4997	0.2166
404.7054	0.2254
404.911	0.211
405.1167	0.2043
405.3223	0.2265
405.5279	0.2204
405.7335	0.235
405.9391	0.2255
406.1447	0.2033
406.3502	0.2308
406.5558	0.1976
406.7613	0.2251
406.9668	0.2406
407.1724	0.203
407.3778	0.2099
407.5833	0.211
407.7888	0.1929
407.9942	0.2228
408.1997	0.2295
408.4051	0.2135
408.6105	0.2271
408.8159	0.2064
409.0213	0.2057
409.2267	0.2128
409.432	0.2057
409.6374	0.2145
409.8427	0.2071
410.048	0.214
410.2533	0.2058
410.4586	0.2352
410.6639	0.1955
410.8691	0.2016
411.0744	0.2177
411.2796	0.2135
411.4848	0.2218
411.69	0.1969
411.8952	0.2151
412.1004	0.2147
412.3056	0.2194
412.5107	0.1986
412.7158	0.2254
412.921	0.217
413.1261	0.1999
413.3312	0.2143
413.5362	0.2088
413.7413	0.1964
413.9464	0.1987
414.1514	0.205
414.3564	0.2126
414.5614	0.1979
414.7664	0.2187
414.9714	0.2159
415.1764	0.2252
415.3813	0.221
415.5863	0.2139
415.7912	0.1958
415.9961	0.2147
416.201	0.2107
416.4059	0.2303
416.6108	0.1991
416.8156	0.2073
417.0205	0.2023
417.2253	0.1958
417.4301	0.2054
417.6349	0.2124
417.8397	0.2133
418.0445	0.1986
418.2492	0.2135
418.454	0.19
418.6587	0.1968
418.8634	0.1903
419.0681	0.1797
419.2728	0.2008
419.4775	0.1904
419.6822	0.1855
419.8868	0.1692
420.0915	0.1879
420.2961	0.1729
420.5007	0.1955
420.7053	0.2165
420.9099	0.193
421.1144	0.1993
421.319	0.1793
421.5235	0.203
421.728	0.207
421.9325	0.2012
422.137	0.2012
422.3415	0.1775
422.546	0.1853
422.7504	0.1736
422.9549	0.1995
423.1593	0.2113
423.3637	0.2067
423.5681	0.1785
423.7725	0.1707
423.9769	0.1745
424.1812	0.1584
424.3856	0.1832
424.5899	0.1935
424.7942	0.1788
424.9985	0.1847
425.2028	0.1771
425.4071	0.1961
425.6113	0.1599
425.8156	0.1774
426.0198	0.1588
426.224	0.1742
426.4282	0.1689
426.6324	0.1687
