Data from MonoPyChalIsomerACN10uM420nmA_Absorbance_15-09-57-234.txt Node
Date: Fri Jul 05 15:09:57 BST 2024
User: LASERRRRR
Spectrometer: FLMT03099
Trigger mode: 0
Integration Time (sec): 1.000000E-1
Scans to average: 1
Electric dark correction enabled: true
Nonlinearity correction enabled: false
Boxcar width: 0
XAxis mode: Wavelengths
Number of Pixels in Spectrum: 3648
>>>>>Begin Spectral Data<<<<<
179.3399	-0.3354
179.5586	-0.3354
179.7771	-0.3354
179.9957	0.4366
180.2143	-0
180.4329	-0
180.6514	-0
180.8699	0.7347
181.0885	-0.1777
181.307	0.0148
181.5255	-0.6481
181.744	-0
181.9625	-0
182.181	1.415
182.3994	-0
182.6179	-0
182.8363	0.1506
183.0547	-0.3745
183.2732	-0.0269
183.4916	0.1341
183.71	0.1763
183.9284	0.1082
184.1467	-0.0741
184.3651	-0.174
184.5835	0.0236
184.8018	0.0424
185.0201	0.0053
185.2385	-0.0146
185.4568	-0.0444
185.6751	-0.0382
185.8934	0.4148
186.1117	-0.0458
186.3299	0.0588
186.5482	-0.0956
186.7664	-0.0228
186.9847	-0.0749
187.2029	0.1746
187.4211	0.1778
187.6393	0.2418
187.8575	-0.0951
188.0757	0.4201
188.2939	0.1198
188.512	0.034
188.7302	0.2461
188.9483	0.5307
189.1665	0.1231
189.3846	0.1895
189.6027	0.0251
189.8208	0.0574
190.0389	0.191
190.257	0.1475
190.475	0.1617
190.6931	0.3946
190.9111	0.284
191.1292	0.0685
191.3472	0.5293
191.5652	0.3181
191.7832	0.301
192.0012	0.5492
192.2192	0.315
192.4371	0.3791
192.6551	0.2185
192.873	0.3525
193.091	0.3935
193.3089	0.5011
193.5268	0.4737
193.7447	0.4209
193.9626	0.5461
194.1805	0.7237
194.3984	0.7883
194.6162	0.5551
194.8341	0.4722
195.0519	0.5495
195.2697	1.0121
195.4875	0.6226
195.7054	0.5158
195.9231	0.5741
196.1409	0.5641
196.3587	0.813
196.5765	0.535
196.7942	0.5526
197.012	0.5213
197.2297	0.5798
197.4474	0.6474
197.6651	0.6871
197.8828	0.5428
198.1005	0.6233
198.3182	0.6782
198.5358	0.9335
198.7535	0.7245
198.9711	0.5399
199.1888	0.6472
199.4064	0.7351
199.624	0.707
199.8416	0.6284
200.0592	0.6167
200.2767	0.7008
200.4943	0.593
200.7119	0.9224
200.9294	0.5874
201.1469	0.5785
201.3645	0.5569
201.582	0.56
201.7995	0.6291
202.017	0.8143
202.2344	0.748
202.4519	0.8196
202.6694	0.6792
202.8868	0.6235
203.1042	0.6994
203.3217	0.588
203.5391	0.6166
203.7565	0.5723
203.9739	0.6676
204.1913	0.5676
204.4086	0.6704
204.626	0.8019
204.8433	0.661
205.0607	0.6218
205.278	0.6453
205.4953	0.6058
205.7126	0.6832
205.9299	0.7191
206.1472	0.7543
206.3644	0.6275
206.5817	0.7206
206.7989	0.7544
207.0162	0.6566
207.2334	0.6466
207.4506	0.7187
207.6678	0.6743
207.885	0.6408
208.1022	0.7285
208.3194	0.7184
208.5365	0.6271
208.7537	0.6651
208.9708	0.6684
209.1879	0.7271
209.405	0.7343
209.6222	0.6518
209.8392	0.6858
210.0563	0.643
210.2734	0.6397
210.4905	0.584
210.7075	0.554
210.9245	0.6167
211.1416	0.7334
211.3586	0.6951
211.5756	0.6117
211.7926	0.6321
212.0096	0.62
212.2265	0.6341
212.4435	0.6463
212.6604	0.5789
212.8774	0.5698
213.0943	0.5901
213.3112	0.5748
213.5281	0.5464
213.745	0.5104
213.9619	0.5068
214.1788	0.4861
214.3956	0.4609
214.6125	0.4691
214.8293	0.4515
215.0461	0.4711
215.2629	0.4447
215.4798	0.4663
215.6965	0.418
215.9133	0.4764
216.1301	0.4065
216.3469	0.4238
216.5636	0.4273
216.7803	0.4077
216.9971	0.4231
217.2138	0.4095
217.4305	0.3746
217.6472	0.3705
217.8639	0.3733
218.0805	0.3275
218.2972	0.2967
218.5138	0.3314
218.7305	0.3261
218.9471	0.3021
219.1637	0.2793
219.3803	0.2801
219.5969	0.2773
219.8135	0.2686
220.0301	0.2669
220.2466	0.2704
220.4632	0.2483
220.6797	0.2402
220.8962	0.2158
221.1127	0.2426
221.3292	0.243
221.5457	0.2257
221.7622	0.2412
221.9787	0.2592
222.1951	0.2318
222.4116	0.2657
222.628	0.263
222.8444	0.2575
223.0608	0.2275
223.2772	0.2678
223.4936	0.2515
223.71	0.2399
223.9264	0.2663
224.1427	0.2511
224.3591	0.2318
224.5754	0.2712
224.7917	0.263
225.008	0.2613
225.2243	0.2492
225.4406	0.2809
225.6569	0.2619
225.8732	0.2704
226.0894	0.2651
226.3057	0.2577
226.5219	0.2745
226.7381	0.2454
226.9543	0.2749
227.1705	0.281
227.3867	0.284
227.6029	0.3033
227.8191	0.2937
228.0352	0.3007
228.2513	0.3147
228.4675	0.2939
228.6836	0.3025
228.8997	0.2985
229.1158	0.3082
229.3319	0.3148
229.548	0.3124
229.764	0.3149
229.9801	0.3153
230.1961	0.3289
230.4121	0.3169
230.6282	0.315
230.8442	0.3227
231.0602	0.3476
231.2761	0.3483
231.4921	0.3486
231.7081	0.3636
231.924	0.3334
232.14	0.3714
232.3559	0.3319
232.5718	0.3704
232.7877	0.3483
233.0036	0.3429
233.2195	0.3632
233.4353	0.3666
233.6512	0.376
233.867	0.383
234.0829	0.3624
234.2987	0.3623
234.5145	0.386
234.7303	0.3759
234.9461	0.3917
235.1619	0.3815
235.3776	0.3804
235.5934	0.375
235.8091	0.3706
236.0249	0.3739
236.2406	0.3824
236.4563	0.3686
236.672	0.3933
236.8877	0.388
237.1034	0.384
237.319	0.3965
237.5347	0.3911
237.7503	0.3914
237.966	0.4001
238.1816	0.3863
238.3972	0.3962
238.6128	0.3955
238.8284	0.3939
239.0439	0.3938
239.2595	0.3885
239.475	0.4185
239.6906	0.4155
239.9061	0.406
240.1216	0.3958
240.3371	0.4194
240.5526	0.4143
240.7681	0.3979
240.9836	0.3854
241.199	0.4145
241.4145	0.4044
241.6299	0.3946
241.8453	0.3961
242.0607	0.3945
242.2761	0.3886
242.4915	0.3849
242.7069	0.381
242.9223	0.3887
243.1376	0.3821
243.353	0.3799
243.5683	0.3791
243.7836	0.3544
243.9989	0.3661
244.2142	0.3482
244.4295	0.3537
244.6448	0.3384
244.86	0.3174
245.0753	0.3242
245.2905	0.3055
245.5057	0.3081
245.721	0.3021
245.9362	0.3042
246.1514	0.3061
246.3665	0.2862
246.5817	0.2796
246.7969	0.2811
247.012	0.2729
247.2271	0.2626
247.4423	0.2756
247.6574	0.2549
247.8725	0.2513
248.0876	0.2421
248.3026	0.2421
248.5177	0.2514
248.7328	0.2428
248.9478	0.2314
249.1628	0.2366
249.3779	0.2256
249.5929	0.221
249.8079	0.237
250.0228	0.2163
250.2378	0.2243
250.4528	0.219
250.6677	0.2099
250.8827	0.2041
251.0976	0.1991
251.3125	0.2081
251.5274	0.197
251.7423	0.1856
251.9572	0.193
252.172	0.1968
252.3869	0.1989
252.6017	0.1875
252.8166	0.1887
253.0314	0.1793
253.2462	0.1771
253.461	0.1825
253.6758	0.1735
253.8906	0.1877
254.1053	0.1902
254.3201	0.1722
254.5348	0.1896
254.7496	0.1815
254.9643	0.1851
255.179	0.1766
255.3937	0.1738
255.6083	0.1803
255.823	0.1882
256.0377	0.1754
256.2523	0.1747
256.467	0.158
256.6816	0.1792
256.8962	0.1787
257.1108	0.1586
257.3254	0.177
257.54	0.1663
257.7545	0.1588
257.9691	0.1826
258.1836	0.1727
258.3981	0.1753
258.6127	0.1797
258.8272	0.1711
259.0417	0.1648
259.2561	0.1557
259.4706	0.1716
259.6851	0.1759
259.8995	0.1681
260.114	0.1678
260.3284	0.1808
260.5428	0.1629
260.7572	0.1766
260.9716	0.18
261.186	0.1616
261.4003	0.1696
261.6147	0.1777
261.829	0.1845
262.0433	0.1748
262.2577	0.1757
262.472	0.1731
262.6863	0.1693
262.9005	0.1802
263.1148	0.1789
263.3291	0.1603
263.5433	0.1669
263.7576	0.1768
263.9718	0.1736
264.186	0.1744
264.4002	0.1713
264.6144	0.1729
264.8286	0.1783
265.0427	0.1723
265.2569	0.1633
265.471	0.1728
265.6851	0.1606
265.8993	0.1755
266.1134	0.162
266.3275	0.1741
266.5415	0.1783
266.7556	0.1853
266.9697	0.1748
267.1837	0.1816
267.3978	0.1763
267.6118	0.1944
267.8258	0.1958
268.0398	0.1676
268.2538	0.1853
268.4677	0.1798
268.6817	0.1779
268.8957	0.1803
269.1096	0.1825
269.3235	0.1782
269.5374	0.1568
269.7514	0.1802
269.9652	0.1718
270.1791	0.1616
270.393	0.1607
270.6068	0.1735
270.8207	0.1588
271.0345	0.1608
271.2483	0.1722
271.4622	0.1703
271.676	0.1775
271.8897	0.1689
272.1035	0.1603
272.3173	0.1754
272.531	0.1577
272.7448	0.1631
272.9585	0.1616
273.1722	0.1713
273.3859	0.1785
273.5996	0.1629
273.8133	0.1747
274.0269	0.1646
274.2406	0.1619
274.4542	0.1699
274.6679	0.1701
274.8815	0.1621
275.0951	0.1741
275.3087	0.1935
275.5223	0.1905
275.7358	0.1801
275.9494	0.1695
276.1629	0.1652
276.3765	0.1694
276.59	0.1767
276.8035	0.1764
277.017	0.1711
277.2305	0.173
277.444	0.1877
277.6574	0.1701
277.8709	0.1797
278.0843	0.1709
278.2978	0.1853
278.5112	0.1691
278.7246	0.1855
278.938	0.178
279.1513	0.1744
279.3647	0.1772
279.5781	0.1714
279.7914	0.1683
280.0047	0.1723
280.2181	0.1744
280.4314	0.1757
280.6447	0.1829
280.8579	0.1681
281.0712	0.1831
281.2845	0.182
281.4977	0.174
281.711	0.1738
281.9242	0.1674
282.1374	0.1755
282.3506	0.165
282.5638	0.1882
282.7769	0.1761
282.9901	0.1689
283.2033	0.18
283.4164	0.1718
283.6295	0.169
283.8426	0.1714
284.0557	0.1694
284.2688	0.1788
284.4819	0.1714
284.695	0.1683
284.908	0.1734
285.1211	0.1597
285.3341	0.1757
285.5471	0.1747
285.7601	0.164
285.9731	0.1695
286.1861	0.1667
286.3991	0.1623
286.612	0.176
286.825	0.1614
287.0379	0.1748
287.2508	0.155
287.4637	0.1619
287.6766	0.1598
287.8895	0.1601
288.1024	0.1857
288.3152	0.1748
288.5281	0.1609
288.7409	0.1661
288.9538	0.1616
289.1666	0.1594
289.3794	0.1669
289.5922	0.1558
289.8049	0.1439
290.0177	0.1521
290.2304	0.1647
290.4432	0.1601
290.6559	0.1552
290.8686	0.1626
291.0813	0.1442
291.294	0.1643
291.5067	0.1591
291.7194	0.1554
291.932	0.1621
292.1447	0.1555
292.3573	0.1358
292.5699	0.1497
292.7825	0.1541
292.9951	0.1594
293.2077	0.1595
293.4203	0.1568
293.6328	0.1385
293.8454	0.1453
294.0579	0.1517
294.2704	0.1514
294.4829	0.148
294.6954	0.1527
294.9079	0.1442
295.1204	0.144
295.3328	0.14
295.5453	0.1447
295.7577	0.1493
295.9701	0.138
296.1825	0.1499
296.3949	0.1537
296.6073	0.1393
296.8197	0.1455
297.0321	0.1627
297.2444	0.1415
297.4567	0.1514
297.6691	0.1455
297.8814	0.1415
298.0937	0.1311
298.306	0.1489
298.5182	0.157
298.7305	0.1476
298.9428	0.138
299.155	0.1487
299.3672	0.1378
299.5794	0.1462
299.7916	0.1347
300.0038	0.1452
300.216	0.1455
300.4282	0.1605
300.6403	0.1354
300.8525	0.1574
301.0646	0.1399
301.2767	0.1485
301.4888	0.1403
301.7009	0.1467
301.913	0.1443
302.125	0.1438
302.3371	0.1433
302.5491	0.1421
302.7612	0.1473
302.9732	0.1472
303.1852	0.1516
303.3972	0.1417
303.6092	0.1458
303.8211	0.1489
304.0331	0.1494
304.245	0.142
304.457	0.1403
304.6689	0.1368
304.8808	0.1464
305.0927	0.1388
305.3046	0.1406
305.5164	0.1395
305.7283	0.1329
305.9401	0.1384
306.152	0.1348
306.3638	0.1483
306.5756	0.1283
306.7874	0.1468
306.9992	0.1405
307.2109	0.1367
307.4227	0.1109
307.6344	0.1336
307.8462	0.1295
308.0579	0.1286
308.2696	0.1267
308.4813	0.1188
308.693	0.1359
308.9046	0.1299
309.1163	0.1206
309.328	0.1342
309.5396	0.1177
309.7512	0.1189
309.9628	0.124
310.1744	0.1197
310.386	0.1193
310.5976	0.1246
310.8091	0.1241
311.0207	0.1191
311.2322	0.1225
311.4437	0.1117
311.6552	0.116
311.8667	0.1146
312.0782	0.1179
312.2897	0.1059
312.5012	0.125
312.7126	0.1037
312.924	0.1089
313.1355	0.1249
313.3469	0.1102
313.5583	0.1098
313.7696	0.1225
313.981	0.1289
314.1924	0.1192
314.4037	0.1092
314.6151	0.1162
314.8264	0.1109
315.0377	0.1262
315.249	0.1239
315.4603	0.1257
315.6716	0.1164
315.8828	0.1096
316.0941	0.1154
316.3053	0.1143
316.5165	0.1174
316.7277	0.1005
316.9389	0.13
317.1501	0.1013
317.3613	0.1198
317.5724	0.1009
317.7836	0.1073
317.9947	0.1154
318.2058	0.1135
318.417	0.1085
318.6281	0.1039
318.8391	0.104
319.0502	0.1157
319.2613	0.1247
319.4723	0.1147
319.6834	0.126
319.8944	0.1086
320.1054	0.123
320.3164	0.121
320.5274	0.1097
320.7383	0.1074
320.9493	0.1239
321.1602	0.1195
321.3712	0.1041
321.5821	0.1256
321.793	0.1187
322.0039	0.1184
322.2148	0.1221
322.4257	0.1244
322.6365	0.1197
322.8474	0.1141
323.0582	0.1132
323.269	0.1189
323.4798	0.1314
323.6906	0.1215
323.9014	0.1218
324.1122	0.1212
324.3229	0.1135
324.5337	0.1178
324.7444	0.1139
324.9551	0.1411
325.1658	0.1245
325.3765	0.1222
325.5872	0.1091
325.7979	0.1261
326.0085	0.1225
326.2192	0.1259
326.4298	0.1196
326.6404	0.1207
326.851	0.1112
327.0616	0.1186
327.2722	0.1339
327.4828	0.1294
327.6933	0.1139
327.9039	0.128
328.1144	0.1231
328.3249	0.1406
328.5354	0.1137
328.7459	0.1228
328.9564	0.1204
329.1669	0.1378
329.3773	0.1233
329.5878	0.1261
329.7982	0.1225
330.0086	0.126
330.219	0.1263
330.4294	0.1217
330.6398	0.1291
330.8502	0.1215
331.0605	0.1292
331.2708	0.1236
331.4812	0.1298
331.6915	0.1331
331.9018	0.1288
332.1121	0.1204
332.3224	0.1307
332.5326	0.1334
332.7429	0.1255
332.9531	0.1364
333.1633	0.1235
333.3735	0.1253
333.5837	0.1226
333.7939	0.1226
334.0041	0.1262
334.2143	0.133
334.4244	0.134
334.6346	0.1073
334.8447	0.1364
335.0548	0.1078
335.2649	0.1107
335.475	0.1345
335.685	0.1237
335.8951	0.1376
336.1051	0.1254
336.3152	0.1361
336.5252	0.1361
336.7352	0.1382
336.9452	0.1253
337.1552	0.1459
337.3652	0.1282
337.5751	0.1374
337.7851	0.141
337.995	0.1296
338.2049	0.1308
338.4148	0.135
338.6247	0.13
338.8346	0.1258
339.0445	0.1339
339.2543	0.1314
339.4642	0.1298
339.674	0.12
339.8838	0.1369
340.0936	0.1298
340.3034	0.1533
340.5132	0.1325
340.7229	0.1402
340.9327	0.1364
341.1424	0.1345
341.3522	0.1546
341.5619	0.1486
341.7716	0.1409
341.9813	0.1398
342.1909	0.1411
342.4006	0.1397
342.6102	0.152
342.8199	0.1399
343.0295	0.1501
343.2391	0.1427
343.4487	0.1479
343.6583	0.1389
343.8679	0.1429
344.0774	0.1326
344.287	0.1526
344.4965	0.1383
344.706	0.1415
344.9155	0.136
345.125	0.1388
345.3345	0.1687
345.544	0.1394
345.7534	0.1434
345.9629	0.1385
346.1723	0.1476
346.3817	0.1453
346.5911	0.1481
346.8005	0.1501
347.0099	0.1399
347.2193	0.1378
347.4286	0.1502
347.638	0.1593
347.8473	0.1501
348.0566	0.1511
348.2659	0.1521
348.4752	0.1461
348.6845	0.14
348.8937	0.1415
349.103	0.1457
349.3122	0.1293
349.5214	0.1535
349.7306	0.1564
349.9398	0.1401
350.149	0.1498
350.3582	0.1602
350.5674	0.1599
350.7765	0.15
350.9856	0.1377
351.1948	0.1431
351.4039	0.1416
351.613	0.135
351.822	0.1589
352.0311	0.1575
352.2402	0.141
352.4492	0.1598
352.6582	0.1691
352.8672	0.1469
353.0762	0.1532
353.2852	0.1439
353.4942	0.1507
353.7032	0.1675
353.9121	0.1501
354.1211	0.1666
354.33	0.1594
354.5389	0.1664
354.7478	0.1561
354.9567	0.1524
355.1655	0.1521
355.3744	0.1762
355.5833	0.1573
355.7921	0.1713
356.0009	0.1571
356.2097	0.1618
356.4185	0.1727
356.6273	0.1701
356.8361	0.1654
357.0448	0.1526
357.2536	0.1521
357.4623	0.155
357.671	0.161
357.8797	0.1608
358.0884	0.1579
358.2971	0.1593
358.5057	0.1705
358.7144	0.1731
358.923	0.1748
359.1316	0.1597
359.3402	0.1698
359.5488	0.1656
359.7574	0.1566
359.966	0.169
360.1746	0.179
360.3831	0.1764
360.5916	0.1719
360.8002	0.1565
361.0087	0.1796
361.2172	0.1852
361.4256	0.179
361.6341	0.1713
361.8426	0.1747
362.051	0.179
362.2594	0.1705
362.4678	0.1782
362.6762	0.1956
362.8846	0.1815
363.093	0.1648
363.3014	0.1763
363.5097	0.1557
363.718	0.1726
363.9264	0.1867
364.1347	0.1794
364.343	0.1814
364.5513	0.1838
364.7595	0.1888
364.9678	0.1845
365.176	0.1814
365.3842	0.1734
365.5925	0.1681
365.8007	0.1957
366.0089	0.173
366.217	0.175
366.4252	0.2073
366.6333	0.2033
366.8415	0.19
367.0496	0.1697
367.2577	0.196
367.4658	0.1984
367.6739	0.1819
367.882	0.1834
368.09	0.186
368.2981	0.2009
368.5061	0.1743
368.7141	0.1914
368.9221	0.1897
369.1301	0.1709
369.3381	0.1836
369.5461	0.1839
369.754	0.1863
369.962	0.1975
370.1699	0.1874
370.3778	0.2004
370.5857	0.1738
370.7936	0.1705
371.0015	0.1898
371.2093	0.1957
371.4172	0.2048
371.625	0.1775
371.8328	0.188
372.0406	0.1895
372.2484	0.1915
372.4562	0.1968
372.664	0.1921
372.8717	0.2023
373.0795	0.1794
373.2872	0.1836
373.4949	0.1984
373.7026	0.1893
373.9103	0.2028
374.118	0.2063
374.3256	0.2007
374.5333	0.1926
374.7409	0.1991
374.9485	0.1856
375.1561	0.1784
375.3637	0.1885
375.5713	0.1895
375.7789	0.1904
375.9864	0.2051
376.194	0.189
376.4015	0.1925
376.609	0.209
376.8165	0.1995
377.024	0.1808
377.2315	0.1823
377.4389	0.1909
377.6464	0.1987
377.8538	0.2037
378.0612	0.2018
378.2686	0.2113
378.476	0.2082
378.6834	0.193
378.8908	0.1955
379.0981	0.2013
379.3055	0.2086
379.5128	0.1919
379.7201	0.2073
379.9274	0.1979
380.1347	0.1964
380.342	0.2183
380.5492	0.1908
380.7565	0.2092
380.9637	0.2053
381.1709	0.2044
381.3781	0.1957
381.5853	0.2129
381.7925	0.2016
381.9997	0.2182
382.2068	0.2166
382.4139	0.2114
382.6211	0.1935
382.8282	0.1956
383.0353	0.205
383.2424	0.1938
383.4494	0.2065
383.6565	0.2072
383.8635	0.1825
384.0706	0.2101
384.2776	0.2084
384.4846	0.1859
384.6916	0.2071
384.8986	0.2017
385.1055	0.2006
385.3125	0.1989
385.5194	0.177
385.7263	0.2
385.9333	0.2036
386.1402	0.1833
386.347	0.1978
386.5539	0.1883
386.7608	0.1934
386.9676	0.1756
387.1744	0.1943
387.3813	0.1801
387.5881	0.1973
387.7948	0.1808
388.0016	0.1927
388.2084	0.1985
388.4151	0.1915
388.6219	0.1887
388.8286	0.1701
389.0353	0.2024
389.242	0.1877
389.4487	0.1779
389.6553	0.1852
389.862	0.1693
390.0686	0.1773
390.2753	0.1986
390.4819	0.1857
390.6885	0.1919
390.8951	0.1856
391.1016	0.1868
391.3082	0.1755
391.5147	0.1783
391.7213	0.1818
391.9278	0.1636
392.1343	0.1698
392.3408	0.1795
392.5473	0.1837
392.7537	0.1765
392.9602	0.1596
393.1666	0.1819
393.373	0.173
393.5794	0.1797
393.7858	0.154
393.9922	0.152
394.1986	0.1843
394.4049	0.1732
394.6113	0.1626
394.8176	0.1293
395.0239	0.1691
395.2302	0.1688
395.4365	0.1863
395.6428	0.1734
395.8491	0.1591
396.0553	0.1666
396.2615	0.1622
396.4678	0.1546
396.674	0.1559
396.8802	0.1654
397.0863	0.1798
397.2925	0.1613
397.4987	0.1509
397.7048	0.1659
397.9109	0.1784
398.117	0.1533
398.3231	0.148
398.5292	0.1586
398.7353	0.1738
398.9413	0.1666
399.1474	0.1577
399.3534	0.1472
399.5594	0.1475
399.7654	0.187
399.9714	0.1636
400.1774	0.1623
400.3833	0.1477
400.5893	0.1535
400.7952	0.1695
401.0011	0.1648
401.207	0.1648
401.4129	0.1496
401.6188	0.1674
401.8247	0.1543
402.0305	0.1471
402.2364	0.1502
402.4422	0.1643
402.648	0.1558
402.8538	0.1624
403.0596	0.1679
403.2654	0.1658
403.4711	0.1587
403.6768	0.1447
403.8826	0.1453
404.0883	0.1596
404.294	0.171
404.4997	0.167
404.7054	0.1643
404.911	0.1492
405.1167	0.162
405.3223	0.1625
405.5279	0.1453
405.7335	0.1649
405.9391	0.1656
406.1447	0.1495
406.3502	0.1756
406.5558	0.1603
406.7613	0.1593
406.9668	0.1536
407.1724	0.1523
407.3778	0.1402
407.5833	0.1646
407.7888	0.1434
407.9942	0.1617
408.1997	0.1474
408.4051	0.1494
408.6105	0.1681
408.8159	0.15
409.0213	0.1322
409.2267	0.1613
409.432	0.1329
409.6374	0.1668
409.8427	0.1401
410.048	0.1502
410.2533	0.1527
410.4586	0.1615
410.6639	0.1301
410.8691	0.1358
411.0744	0.1455
411.2796	0.1404
411.4848	0.1374
411.69	0.1537
411.8952	0.1598
412.1004	0.1213
412.3056	0.1503
412.5107	0.1379
412.7158	0.1567
412.921	0.1466
413.1261	0.1262
413.3312	0.1419
413.5362	0.1304
413.7413	0.137
413.9464	0.139
414.1514	0.154
414.3564	0.1441
414.5614	0.1261
414.7664	0.1511
414.9714	0.1508
415.1764	0.1624
415.3813	0.1571
415.5863	0.1344
415.7912	0.1398
415.9961	0.1438
416.201	0.1524
416.4059	0.1436
416.6108	0.1435
416.8156	0.1477
417.0205	0.1357
417.2253	0.1346
417.4301	0.1517
417.6349	0.1293
417.8397	0.1448
418.0445	0.1474
418.2492	0.1465
418.454	0.1338
418.6587	0.147
418.8634	0.1431
419.0681	0.1332
419.2728	0.133
419.4775	0.1308
419.6822	0.1096
419.8868	0.1157
420.0915	0.1307
420.2961	0.1259
420.5007	0.1329
420.7053	0.1425
420.9099	0.1354
421.1144	0.1362
421.319	0.1237
421.5235	0.138
421.728	0.133
421.9325	0.144
422.137	0.1382
422.3415	0.1273
422.546	0.1354
422.7504	0.1216
422.9549	0.1405
423.1593	0.1341
423.3637	0.1367
423.5681	0.1264
423.7725	0.1137
423.9769	0.1166
424.1812	0.1103
424.3856	0.1249
424.5899	0.1294
424.7942	0.1139
424.9985	0.1255
425.2028	0.1069
425.4071	0.1307
425.6113	0.1026
425.8156	0.1307
426.0198	0.1255
426.224	0.1085
426.4282	0.1083
426.6324	0.1126
