Data from MonoPyChalIsomerACN10uM420nmA_Absorbance_15-09-51-335.txt Node
Date: Fri Jul 05 15:09:51 BST 2024
User: LASERRRRR
Spectrometer: FLMT03099
Trigger mode: 0
Integration Time (sec): 1.000000E-1
Scans to average: 1
Electric dark correction enabled: true
Nonlinearity correction enabled: false
Boxcar width: 0
XAxis mode: Wavelengths
Number of Pixels in Spectrum: 3648
>>>>>Begin Spectral Data<<<<<
179.3399	-0.5294
179.5586	-0.5294
179.7771	-0.5294
179.9957	0.1052
180.2143	0.4632
180.4329	-0.2766
180.6514	0.6223
180.8699	-0
181.0885	-0.121
181.307	-0.0232
181.5255	-0
181.744	-0.5531
181.9625	-0
182.181	-0
182.3994	-0
182.6179	-0
182.8363	0.4718
183.0547	-0.074
183.2732	-0.0785
183.4916	0.1135
183.71	0.1187
183.9284	0.1774
184.1467	-0.1113
184.3651	-0.2179
184.5835	0.0456
184.8018	-0.0351
185.0201	0.0718
185.2385	-0.0315
185.4568	0.0425
185.6751	0.1009
185.8934	0.4713
186.1117	-0.0441
186.3299	0.2867
186.5482	0.1091
186.7664	0.1111
186.9847	-0.0197
187.2029	0.0807
187.4211	0.122
187.6393	0.0913
187.8575	-0.1161
188.0757	0.3598
188.2939	0.3932
188.512	0.1045
188.7302	0.0404
188.9483	0.0658
189.1665	0.0369
189.3846	-0.4329
189.6027	0.2976
189.8208	0.5105
190.0389	0.1108
190.257	0.0729
190.475	0.3388
190.6931	0.1611
190.9111	0.2342
191.1292	0.1251
191.3472	0.2543
191.5652	0.2518
191.7832	0.1958
192.0012	0.6104
192.2192	0.4305
192.4371	0.4966
192.6551	0.21
192.873	0.4034
193.091	0.5314
193.3089	1.016
193.5268	0.5952
193.7447	0.502
193.9626	0.4865
194.1805	0.5479
194.3984	1.0807
194.6162	0.5171
194.8341	0.6031
195.0519	0.5887
195.2697	0.4688
195.4875	0.5643
195.7054	0.5538
195.9231	0.5838
196.1409	0.6221
196.3587	0.6743
196.5765	0.7056
196.7942	0.5231
197.012	0.5197
197.2297	0.733
197.4474	0.7646
197.6651	0.6158
197.8828	0.5442
198.1005	0.585
198.3182	0.5702
198.5358	0.9564
198.7535	0.7224
198.9711	0.5705
199.1888	0.6613
199.4064	0.8344
199.624	0.5868
199.8416	0.5395
200.0592	0.7672
200.2767	0.5203
200.4943	0.5487
200.7119	0.6565
200.9294	0.6591
201.1469	0.5867
201.3645	0.5729
201.582	0.5612
201.7995	0.5535
202.017	0.6383
202.2344	0.6923
202.4519	0.7819
202.6694	0.6427
202.8868	0.6047
203.1042	0.7329
203.3217	0.7825
203.5391	0.6223
203.7565	0.564
203.9739	0.6357
204.1913	0.581
204.4086	0.7056
204.626	0.6737
204.8433	0.6882
205.0607	0.6558
205.278	0.6827
205.4953	0.6327
205.7126	0.597
205.9299	0.706
206.1472	0.7904
206.3644	0.6397
206.5817	0.6936
206.7989	0.7378
207.0162	0.6558
207.2334	0.6642
207.4506	0.6348
207.6678	0.6679
207.885	0.7231
208.1022	0.7078
208.3194	0.64
208.5365	0.6376
208.7537	0.6859
208.9708	0.6221
209.1879	0.7074
209.405	0.7694
209.6222	0.682
209.8392	0.6508
210.0563	0.6422
210.2734	0.7386
210.4905	0.5897
210.7075	0.748
210.9245	0.6136
211.1416	0.6708
211.3586	0.7038
211.5756	0.6303
211.7926	0.565
212.0096	0.6823
212.2265	0.5783
212.4435	0.5586
212.6604	0.6033
212.8774	0.5991
213.0943	0.6393
213.3112	0.5878
213.5281	0.5306
213.745	0.5233
213.9619	0.5668
214.1788	0.521
214.3956	0.4267
214.6125	0.508
214.8293	0.4338
215.0461	0.5295
215.2629	0.4632
215.4798	0.4659
215.6965	0.4403
215.9133	0.4494
216.1301	0.4408
216.3469	0.4644
216.5636	0.4183
216.7803	0.4278
216.9971	0.4165
217.2138	0.3966
217.4305	0.371
217.6472	0.3861
217.8639	0.3789
218.0805	0.3505
218.2972	0.3555
218.5138	0.3481
218.7305	0.3064
218.9471	0.3204
219.1637	0.3088
219.3803	0.2868
219.5969	0.2825
219.8135	0.2828
220.0301	0.2919
220.2466	0.293
220.4632	0.2807
220.6797	0.2201
220.8962	0.2525
221.1127	0.2615
221.3292	0.2746
221.5457	0.243
221.7622	0.2481
221.9787	0.263
222.1951	0.2695
222.4116	0.2532
222.628	0.2759
222.8444	0.2739
223.0608	0.2761
223.2772	0.2607
223.4936	0.2529
223.71	0.2589
223.9264	0.2686
224.1427	0.2676
224.3591	0.2652
224.5754	0.2628
224.7917	0.2622
225.008	0.2737
225.2243	0.2745
225.4406	0.276
225.6569	0.2655
225.8732	0.2601
226.0894	0.293
226.3057	0.277
226.5219	0.2901
226.7381	0.273
226.9543	0.2983
227.1705	0.3007
227.3867	0.2908
227.6029	0.3082
227.8191	0.2988
228.0352	0.2857
228.2513	0.3289
228.4675	0.3082
228.6836	0.3317
228.8997	0.3029
229.1158	0.295
229.3319	0.3209
229.548	0.3153
229.764	0.3209
229.9801	0.3289
230.1961	0.3279
230.4121	0.3444
230.6282	0.3309
230.8442	0.3267
231.0602	0.3592
231.2761	0.3633
231.4921	0.3565
231.7081	0.3502
231.924	0.3531
232.14	0.3673
232.3559	0.3724
232.5718	0.3643
232.7877	0.3613
233.0036	0.3468
233.2195	0.3552
233.4353	0.3576
233.6512	0.3619
233.867	0.3622
234.0829	0.3801
234.2987	0.3621
234.5145	0.3671
234.7303	0.3698
234.9461	0.3836
235.1619	0.3811
235.3776	0.3765
235.5934	0.3834
235.8091	0.372
236.0249	0.3917
236.2406	0.3735
236.4563	0.3904
236.672	0.4109
236.8877	0.3934
237.1034	0.3933
237.319	0.4067
237.5347	0.4069
237.7503	0.3926
237.966	0.4055
238.1816	0.4046
238.3972	0.4102
238.6128	0.3869
238.8284	0.4191
239.0439	0.4115
239.2595	0.4
239.475	0.436
239.6906	0.4138
239.9061	0.4064
240.1216	0.4025
240.3371	0.4163
240.5526	0.3983
240.7681	0.4041
240.9836	0.3967
241.199	0.4019
241.4145	0.3953
241.6299	0.3935
241.8453	0.3828
242.0607	0.4002
242.2761	0.3785
242.4915	0.3778
242.7069	0.3916
242.9223	0.373
243.1376	0.3553
243.353	0.3572
243.5683	0.3612
243.7836	0.3403
243.9989	0.3399
244.2142	0.3272
244.4295	0.3264
244.6448	0.3238
244.86	0.3073
245.0753	0.3055
245.2905	0.292
245.5057	0.2836
245.721	0.2784
245.9362	0.2724
246.1514	0.2771
246.3665	0.2823
246.5817	0.2582
246.7969	0.2708
247.012	0.2544
247.2271	0.2382
247.4423	0.2501
247.6574	0.2468
247.8725	0.2408
248.0876	0.2372
248.3026	0.2332
248.5177	0.2212
248.7328	0.2319
248.9478	0.2168
249.1628	0.2253
249.3779	0.2123
249.5929	0.2154
249.8079	0.2201
250.0228	0.2056
250.2378	0.2103
250.4528	0.2109
250.6677	0.1983
250.8827	0.2027
251.0976	0.2056
251.3125	0.2111
251.5274	0.1933
251.7423	0.1891
251.9572	0.1992
252.172	0.181
252.3869	0.1991
252.6017	0.1801
252.8166	0.1835
253.0314	0.1834
253.2462	0.1776
253.461	0.1815
253.6758	0.1739
253.8906	0.1776
254.1053	0.18
254.3201	0.1748
254.5348	0.1863
254.7496	0.183
254.9643	0.1685
255.179	0.1739
255.3937	0.1675
255.6083	0.1804
255.823	0.1743
256.0377	0.1658
256.2523	0.1858
256.467	0.1582
256.6816	0.1812
256.8962	0.1828
257.1108	0.1643
257.3254	0.1652
257.54	0.1693
257.7545	0.1686
257.9691	0.1773
258.1836	0.1646
258.3981	0.1931
258.6127	0.1796
258.8272	0.1684
259.0417	0.178
259.2561	0.1787
259.4706	0.1789
259.6851	0.1697
259.8995	0.172
260.114	0.1587
260.3284	0.167
260.5428	0.1691
260.7572	0.1873
260.9716	0.1784
261.186	0.1622
261.4003	0.1819
261.6147	0.173
261.829	0.1598
262.0433	0.1735
262.2577	0.1612
262.472	0.1797
262.6863	0.1642
262.9005	0.1796
263.1148	0.1725
263.3291	0.1476
263.5433	0.1638
263.7576	0.1599
263.9718	0.1681
264.186	0.1607
264.4002	0.1781
264.6144	0.1685
264.8286	0.182
265.0427	0.1756
265.2569	0.1555
265.471	0.1552
265.6851	0.1758
265.8993	0.1549
266.1134	0.1588
266.3275	0.1732
266.5415	0.1736
266.7556	0.1717
266.9697	0.1702
267.1837	0.1803
267.3978	0.173
267.6118	0.1773
267.8258	0.1795
268.0398	0.1572
268.2538	0.1722
268.4677	0.1784
268.6817	0.1697
268.8957	0.1593
269.1096	0.1739
269.3235	0.1652
269.5374	0.1588
269.7514	0.1639
269.9652	0.1585
270.1791	0.1598
270.393	0.1525
270.6068	0.1613
270.8207	0.1485
271.0345	0.1619
271.2483	0.1578
271.4622	0.1565
271.676	0.1611
271.8897	0.1509
272.1035	0.1547
272.3173	0.1457
272.531	0.1482
272.7448	0.153
272.9585	0.1509
273.1722	0.1637
273.3859	0.1503
273.5996	0.1349
273.8133	0.1513
274.0269	0.1488
274.2406	0.142
274.4542	0.1558
274.6679	0.1408
274.8815	0.1608
275.0951	0.1589
275.3087	0.1553
275.5223	0.1542
275.7358	0.1449
275.9494	0.1568
276.1629	0.1579
276.3765	0.1453
276.59	0.1586
276.8035	0.1664
277.017	0.1511
277.2305	0.153
277.444	0.1523
277.6574	0.1466
277.8709	0.1604
278.0843	0.1385
278.2978	0.1491
278.5112	0.1493
278.7246	0.1566
278.938	0.161
279.1513	0.1655
279.3647	0.1616
279.5781	0.1682
279.7914	0.1513
280.0047	0.1623
280.2181	0.1514
280.4314	0.1583
280.6447	0.1579
280.8579	0.1611
281.0712	0.1515
281.2845	0.1611
281.4977	0.1734
281.711	0.1524
281.9242	0.162
282.1374	0.1511
282.3506	0.158
282.5638	0.1652
282.7769	0.1551
282.9901	0.1552
283.2033	0.1788
283.4164	0.1726
283.6295	0.1565
283.8426	0.1634
284.0557	0.1548
284.2688	0.1729
284.4819	0.1655
284.695	0.1559
284.908	0.172
285.1211	0.1588
285.3341	0.1532
285.5471	0.1645
285.7601	0.154
285.9731	0.1587
286.1861	0.1556
286.3991	0.1773
286.612	0.166
286.825	0.1702
287.0379	0.169
287.2508	0.1622
287.4637	0.1641
287.6766	0.1489
287.8895	0.1736
288.1024	0.1763
288.3152	0.1727
288.5281	0.1577
288.7409	0.1756
288.9538	0.1576
289.1666	0.1679
289.3794	0.1553
289.5922	0.1506
289.8049	0.1604
290.0177	0.1645
290.2304	0.1718
290.4432	0.1645
290.6559	0.1776
290.8686	0.1656
291.0813	0.1641
291.294	0.1705
291.5067	0.1708
291.7194	0.1609
291.932	0.177
292.1447	0.1671
292.3573	0.1537
292.5699	0.1683
292.7825	0.1703
292.9951	0.1747
293.2077	0.1683
293.4203	0.1725
293.6328	0.1599
293.8454	0.1698
294.0579	0.157
294.2704	0.1618
294.4829	0.1595
294.6954	0.164
294.9079	0.1604
295.1204	0.1599
295.3328	0.1557
295.5453	0.167
295.7577	0.1669
295.9701	0.1507
296.1825	0.1676
296.3949	0.1632
296.6073	0.1545
296.8197	0.1511
297.0321	0.173
297.2444	0.1563
297.4567	0.1633
297.6691	0.1612
297.8814	0.158
298.0937	0.1597
298.306	0.1728
298.5182	0.1637
298.7305	0.162
298.9428	0.1566
299.155	0.1686
299.3672	0.1664
299.5794	0.1636
299.7916	0.1561
300.0038	0.1743
300.216	0.1828
300.4282	0.1608
300.6403	0.1593
300.8525	0.1725
301.0646	0.1599
301.2767	0.1747
301.4888	0.1673
301.7009	0.1653
301.913	0.1606
302.125	0.1669
302.3371	0.1477
302.5491	0.1636
302.7612	0.1683
302.9732	0.1661
303.1852	0.1631
303.3972	0.1648
303.6092	0.15
303.8211	0.1602
304.0331	0.1512
304.245	0.1541
304.457	0.1547
304.6689	0.1527
304.8808	0.164
305.0927	0.1439
305.3046	0.15
305.5164	0.1536
305.7283	0.1432
305.9401	0.1493
306.152	0.1458
306.3638	0.1512
306.5756	0.1424
306.7874	0.1431
306.9992	0.1436
307.2109	0.1457
307.4227	0.1341
307.6344	0.1413
307.8462	0.1337
308.0579	0.1403
308.2696	0.1376
308.4813	0.1321
308.693	0.1323
308.9046	0.1348
309.1163	0.141
309.328	0.1293
309.5396	0.1206
309.7512	0.1173
309.9628	0.1233
310.1744	0.1199
310.386	0.1282
310.5976	0.1236
310.8091	0.1215
311.0207	0.1194
311.2322	0.1317
311.4437	0.1194
311.6552	0.1127
311.8667	0.1162
312.0782	0.101
312.2897	0.1054
312.5012	0.1129
312.7126	0.1074
312.924	0.1078
313.1355	0.1122
313.3469	0.1193
313.5583	0.1182
313.7696	0.1013
313.981	0.1104
314.1924	0.1036
314.4037	0.1012
314.6151	0.1052
314.8264	0.0965
315.0377	0.1063
315.249	0.1035
315.4603	0.1068
315.6716	0.1022
315.8828	0.0973
316.0941	0.1078
316.3053	0.0944
316.5165	0.0883
316.7277	0.1
316.9389	0.105
317.1501	0.0942
317.3613	0.1066
317.5724	0.0931
317.7836	0.1064
317.9947	0.101
318.2058	0.1021
318.417	0.0942
318.6281	0.0943
318.8391	0.1069
319.0502	0.0966
319.2613	0.1075
319.4723	0.107
319.6834	0.1127
319.8944	0.0899
320.1054	0.1014
320.3164	0.1064
320.5274	0.0977
320.7383	0.0996
320.9493	0.1044
321.1602	0.112
321.3712	0.0864
321.5821	0.1066
321.793	0.1183
322.0039	0.1085
322.2148	0.0946
322.4257	0.1135
322.6365	0.1056
322.8474	0.1085
323.0582	0.1045
323.269	0.1037
323.4798	0.1087
323.6906	0.1079
323.9014	0.109
324.1122	0.1035
324.3229	0.1046
324.5337	0.1038
324.7444	0.0956
324.9551	0.1164
325.1658	0.1066
325.3765	0.1095
325.5872	0.1059
325.7979	0.1067
326.0085	0.0963
326.2192	0.1105
326.4298	0.1118
326.6404	0.0924
326.851	0.1005
327.0616	0.104
327.2722	0.1128
327.4828	0.1146
327.6933	0.102
327.9039	0.1071
328.1144	0.1175
328.3249	0.1083
328.5354	0.1033
328.7459	0.111
328.9564	0.1085
329.1669	0.1043
329.3773	0.1129
329.5878	0.1115
329.7982	0.1066
330.0086	0.1073
330.219	0.1238
330.4294	0.1046
330.6398	0.1036
330.8502	0.0995
331.0605	0.1067
331.2708	0.1158
331.4812	0.1184
331.6915	0.1063
331.9018	0.1074
332.1121	0.1028
332.3224	0.1055
332.5326	0.1266
332.7429	0.1085
332.9531	0.1215
333.1633	0.1168
333.3735	0.1072
333.5837	0.1038
333.7939	0.1113
334.0041	0.1222
334.2143	0.122
334.4244	0.1045
334.6346	0.1001
334.8447	0.1185
335.0548	0.1108
335.2649	0.1006
335.475	0.1175
335.685	0.1058
335.8951	0.1235
336.1051	0.1152
336.3152	0.1197
336.5252	0.1131
336.7352	0.1226
336.9452	0.1148
337.1552	0.1147
337.3652	0.1072
337.5751	0.1165
337.7851	0.1191
337.995	0.1111
338.2049	0.1245
338.4148	0.1114
338.6247	0.1155
338.8346	0.1112
339.0445	0.1035
339.2543	0.1238
339.4642	0.1301
339.674	0.115
339.8838	0.1195
340.0936	0.1158
340.3034	0.1345
340.5132	0.1126
340.7229	0.1269
340.9327	0.124
341.1424	0.1236
341.3522	0.1257
341.5619	0.1277
341.7716	0.1279
341.9813	0.1245
342.1909	0.1216
342.4006	0.1337
342.6102	0.1371
342.8199	0.122
343.0295	0.1317
343.2391	0.1211
343.4487	0.1378
343.6583	0.118
343.8679	0.1312
344.0774	0.1275
344.287	0.1437
344.4965	0.1233
344.706	0.1291
344.9155	0.1268
345.125	0.1273
345.3345	0.1366
345.544	0.1252
345.7534	0.129
345.9629	0.1387
346.1723	0.134
346.3817	0.1237
346.5911	0.1355
346.8005	0.1314
347.0099	0.1338
347.2193	0.1561
347.4286	0.1253
347.638	0.138
347.8473	0.1395
348.0566	0.1352
348.2659	0.148
348.4752	0.1303
348.6845	0.1261
348.8937	0.1374
349.103	0.1446
349.3122	0.1319
349.5214	0.147
349.7306	0.1418
349.9398	0.1433
350.149	0.1445
350.3582	0.1382
350.5674	0.1527
350.7765	0.1439
350.9856	0.1384
351.1948	0.1392
351.4039	0.1249
351.613	0.1414
351.822	0.1481
352.0311	0.1508
352.2402	0.1471
352.4492	0.1454
352.6582	0.1555
352.8672	0.1484
353.0762	0.1457
353.2852	0.1564
353.4942	0.1346
353.7032	0.1522
353.9121	0.1352
354.1211	0.1513
354.33	0.1554
354.5389	0.1617
354.7478	0.1523
354.9567	0.154
355.1655	0.144
355.3744	0.1603
355.5833	0.1498
355.7921	0.1724
356.0009	0.1518
356.2097	0.1499
356.4185	0.1772
356.6273	0.172
356.8361	0.1497
357.0448	0.1643
357.2536	0.1452
357.4623	0.1531
357.671	0.1536
357.8797	0.1484
358.0884	0.1631
358.2971	0.163
358.5057	0.1558
358.7144	0.1671
358.923	0.1654
359.1316	0.1685
359.3402	0.1731
359.5488	0.1753
359.7574	0.1434
359.966	0.1806
360.1746	0.185
360.3831	0.1753
360.5916	0.1705
360.8002	0.151
361.0087	0.1779
361.2172	0.1808
361.4256	0.1799
361.6341	0.1863
361.8426	0.1758
362.051	0.1731
362.2594	0.1643
362.4678	0.1727
362.6762	0.1906
362.8846	0.179
363.093	0.1736
363.3014	0.1873
363.5097	0.1658
363.718	0.1839
363.9264	0.1846
364.1347	0.1747
364.343	0.1842
364.5513	0.207
364.7595	0.218
364.9678	0.1875
365.176	0.1847
365.3842	0.181
365.5925	0.1855
365.8007	0.2015
366.0089	0.2031
366.217	0.1844
366.4252	0.1978
366.6333	0.2128
366.8415	0.1932
367.0496	0.1829
367.2577	0.221
367.4658	0.2023
367.6739	0.2112
367.882	0.2112
368.09	0.2086
368.2981	0.2175
368.5061	0.207
368.7141	0.2023
368.9221	0.2236
369.1301	0.192
369.3381	0.2111
369.5461	0.2046
369.754	0.2082
369.962	0.2185
370.1699	0.2164
370.3778	0.2199
370.5857	0.2122
370.7936	0.2003
371.0015	0.2129
371.2093	0.2081
371.4172	0.2283
371.625	0.2076
371.8328	0.2087
372.0406	0.2231
372.2484	0.2248
372.4562	0.2346
372.664	0.2278
372.8717	0.2378
373.0795	0.2096
373.2872	0.2126
373.4949	0.2239
373.7026	0.2242
373.9103	0.2259
374.118	0.243
374.3256	0.2301
374.5333	0.22
374.7409	0.2146
374.9485	0.2384
375.1561	0.2354
375.3637	0.2324
375.5713	0.2242
375.7789	0.2296
375.9864	0.2294
376.194	0.2217
376.4015	0.2314
376.609	0.2234
376.8165	0.2303
377.024	0.2108
377.2315	0.2256
377.4389	0.229
377.6464	0.2445
377.8538	0.226
378.0612	0.2368
378.2686	0.2359
378.476	0.2446
378.6834	0.2329
378.8908	0.2366
379.0981	0.234
379.3055	0.2548
379.5128	0.2211
379.7201	0.2273
379.9274	0.2351
380.1347	0.2373
380.342	0.2689
380.5492	0.2308
380.7565	0.2463
380.9637	0.2416
381.1709	0.2346
381.3781	0.2441
381.5853	0.2327
381.7925	0.2638
381.9997	0.2489
382.2068	0.2476
382.4139	0.2327
382.6211	0.2198
382.8282	0.2365
383.0353	0.2517
383.2424	0.2616
383.4494	0.2486
383.6565	0.2516
383.8635	0.2378
384.0706	0.2477
384.2776	0.2555
384.4846	0.2495
384.6916	0.2452
384.8986	0.235
385.1055	0.2608
385.3125	0.2505
385.5194	0.2281
385.7263	0.2681
385.9333	0.2581
386.1402	0.231
386.347	0.2495
386.5539	0.2477
386.7608	0.2647
386.9676	0.2339
387.1744	0.2524
387.3813	0.2417
387.5881	0.2484
387.7948	0.234
388.0016	0.256
388.2084	0.2464
388.4151	0.2366
388.6219	0.2427
388.8286	0.253
389.0353	0.2324
389.242	0.2333
389.4487	0.2268
389.6553	0.2241
389.862	0.2197
390.0686	0.2319
390.2753	0.2553
390.4819	0.237
390.6885	0.2355
390.8951	0.251
391.1016	0.2341
391.3082	0.22
391.5147	0.2389
391.7213	0.2083
391.9278	0.214
392.1343	0.2209
392.3408	0.2167
392.5473	0.2278
392.7537	0.2153
392.9602	0.2332
393.1666	0.2215
393.373	0.2254
393.5794	0.2218
393.7858	0.2169
393.9922	0.2104
394.1986	0.2266
394.4049	0.2194
394.6113	0.2031
394.8176	0.2133
395.0239	0.1984
395.2302	0.2194
395.4365	0.1993
395.6428	0.1976
395.8491	0.2039
396.0553	0.2077
396.2615	0.2166
396.4678	0.2117
396.674	0.1794
396.8802	0.205
397.0863	0.224
397.2925	0.2024
397.4987	0.2015
397.7048	0.2085
397.9109	0.205
398.117	0.211
398.3231	0.192
398.5292	0.217
398.7353	0.2274
398.9413	0.2001
399.1474	0.2034
399.3534	0.2036
399.5594	0.1973
399.7654	0.2226
399.9714	0.2293
400.1774	0.2032
400.3833	0.2105
400.5893	0.2103
400.7952	0.2192
401.0011	0.2121
401.207	0.2089
401.4129	0.2083
401.6188	0.2048
401.8247	0.2089
402.0305	0.1895
402.2364	0.1985
402.4422	0.1965
402.648	0.1874
402.8538	0.221
403.0596	0.196
403.2654	0.2097
403.4711	0.2033
403.6768	0.1911
403.8826	0.201
404.0883	0.208
404.294	0.2156
404.4997	0.2177
404.7054	0.2056
404.911	0.1981
405.1167	0.1877
405.3223	0.2201
405.5279	0.2046
405.7335	0.1966
405.9391	0.1969
406.1447	0.1957
406.3502	0.2208
406.5558	0.1863
406.7613	0.2132
406.9668	0.2076
407.1724	0.2045
407.3778	0.2056
407.5833	0.2045
407.7888	0.1784
407.9942	0.2114
408.1997	0.2033
408.4051	0.1943
408.6105	0.2063
408.8159	0.1841
409.0213	0.1933
409.2267	0.208
409.432	0.196
409.6374	0.2094
409.8427	0.1943
410.048	0.2037
410.2533	0.2059
410.4586	0.1957
410.6639	0.1967
410.8691	0.1929
411.0744	0.1918
411.2796	0.1957
411.4848	0.1889
411.69	0.1895
411.8952	0.2066
412.1004	0.191
412.3056	0.2179
412.5107	0.182
412.7158	0.2007
412.921	0.204
413.1261	0.2003
413.3312	0.1788
413.5362	0.2015
413.7413	0.2026
413.9464	0.1909
414.1514	0.2059
414.3564	0.2095
414.5614	0.1892
414.7664	0.2014
414.9714	0.1993
415.1764	0.1934
415.3813	0.1965
415.5863	0.1867
415.7912	0.1896
415.9961	0.2032
416.201	0.1858
416.4059	0.191
416.6108	0.1702
416.8156	0.1978
417.0205	0.2047
417.2253	0.182
417.4301	0.2048
417.6349	0.1906
417.8397	0.1757
418.0445	0.1971
418.2492	0.2035
418.454	0.2108
418.6587	0.1967
418.8634	0.1806
419.0681	0.187
419.2728	0.1769
419.4775	0.191
419.6822	0.1757
419.8868	0.1661
420.0915	0.1878
420.2961	0.176
420.5007	0.1808
420.7053	0.1827
420.9099	0.1857
421.1144	0.1861
421.319	0.1874
421.5235	0.1875
421.728	0.1867
421.9325	0.1791
422.137	0.1833
422.3415	0.1723
422.546	0.1839
422.7504	0.1657
422.9549	0.1884
423.1593	0.1846
423.3637	0.1949
423.5681	0.1852
423.7725	0.1621
423.9769	0.1658
424.1812	0.1652
424.3856	0.1622
424.5899	0.1745
424.7942	0.1754
424.9985	0.157
425.2028	0.1639
425.4071	0.1955
425.6113	0.1531
425.8156	0.1713
426.0198	0.1764
426.224	0.1621
426.4282	0.1715
426.6324	0.1546
