Data from MonoPyChalIsomerACN10uM420nmA_Absorbance_15-09-49-935.txt Node
Date: Fri Jul 05 15:09:49 BST 2024
User: LASERRRRR
Spectrometer: FLMT03099
Trigger mode: 0
Integration Time (sec): 1.000000E-1
Scans to average: 1
Electric dark correction enabled: true
Nonlinearity correction enabled: false
Boxcar width: 0
XAxis mode: Wavelengths
Number of Pixels in Spectrum: 3648
>>>>>Begin Spectral Data<<<<<
179.3399	-0.5219
179.5586	-0.5219
179.7771	-0.5219
179.9957	0.3636
180.2143	-0
180.4329	-0.1317
180.6514	-0
180.8699	-0
181.0885	-0.257
181.307	-0.1936
181.5255	-0
181.744	0.143
181.9625	-0
182.181	-0
182.3994	-0
182.6179	-0
182.8363	0.0835
183.0547	-0.0677
183.2732	0.0251
183.4916	0.1785
183.71	-0.0188
183.9284	0.076
184.1467	-0.1682
184.3651	0.0509
184.5835	-0.0547
184.8018	-0.0917
185.0201	0.2252
185.2385	-0.0657
185.4568	0.0051
185.6751	0.5954
185.8934	0.1933
186.1117	0.2257
186.3299	-0.0313
186.5482	0.2088
186.7664	-0.0658
186.9847	-0.1082
187.2029	0.1463
187.4211	0.0264
187.6393	0.1897
187.8575	-0.0499
188.0757	0.1985
188.2939	0.4312
188.512	0.0088
188.7302	-0.1169
188.9483	0.6849
189.1665	0.1272
189.3846	-0.2304
189.6027	0.1711
189.8208	0.1195
190.0389	0.0978
190.257	0.2102
190.475	0.1079
190.6931	0.1061
190.9111	0.4051
191.1292	0.4661
191.3472	0.4392
191.5652	0.413
191.7832	0.3283
192.0012	0.6422
192.2192	0.376
192.4371	0.5172
192.6551	0.3052
192.873	0.4091
193.091	0.5285
193.3089	0.5912
193.5268	0.592
193.7447	0.4112
193.9626	0.4882
194.1805	0.6472
194.3984	0.5667
194.6162	0.6909
194.8341	0.5215
195.0519	0.6366
195.2697	0.7602
195.4875	0.643
195.7054	0.5408
195.9231	0.5338
196.1409	0.5975
196.3587	0.6009
196.5765	0.6319
196.7942	0.5823
197.012	0.5274
197.2297	0.5439
197.4474	0.5496
197.6651	0.4909
197.8828	0.5647
198.1005	0.721
198.3182	0.6011
198.5358	0.7662
198.7535	0.6219
198.9711	0.6648
199.1888	0.6503
199.4064	0.6527
199.624	0.7691
199.8416	0.5408
200.0592	0.6846
200.2767	0.6286
200.4943	0.7529
200.7119	0.6493
200.9294	0.7415
201.1469	0.5601
201.3645	0.6221
201.582	0.6292
201.7995	0.6671
202.017	0.6026
202.2344	0.6454
202.4519	0.8271
202.6694	0.6415
202.8868	0.5866
203.1042	0.7691
203.3217	0.7086
203.5391	0.6831
203.7565	0.6179
203.9739	0.6389
204.1913	0.6141
204.4086	0.6612
204.626	0.744
204.8433	0.5599
205.0607	0.6159
205.278	0.6262
205.4953	0.6591
205.7126	0.6854
205.9299	0.773
206.1472	0.62
206.3644	0.6426
206.5817	0.7411
206.7989	0.7093
207.0162	0.7171
207.2334	0.6595
207.4506	0.6663
207.6678	0.6545
207.885	0.7372
208.1022	0.6313
208.3194	0.6138
208.5365	0.6367
208.7537	0.6002
208.9708	0.6315
209.1879	0.6174
209.405	0.6877
209.6222	0.674
209.8392	0.6302
210.0563	0.5873
210.2734	0.7106
210.4905	0.6581
210.7075	0.601
210.9245	0.5695
211.1416	0.7461
211.3586	0.6447
211.5756	0.586
211.7926	0.6071
212.0096	0.6225
212.2265	0.5666
212.4435	0.6272
212.6604	0.636
212.8774	0.5895
213.0943	0.6131
213.3112	0.58
213.5281	0.5396
213.745	0.5001
213.9619	0.5519
214.1788	0.5039
214.3956	0.4632
214.6125	0.5084
214.8293	0.4442
215.0461	0.5282
215.2629	0.4708
215.4798	0.5065
215.6965	0.4688
215.9133	0.4639
216.1301	0.4228
216.3469	0.4232
216.5636	0.4059
216.7803	0.4127
216.9971	0.4071
217.2138	0.3692
217.4305	0.3823
217.6472	0.372
217.8639	0.3797
218.0805	0.3513
218.2972	0.3388
218.5138	0.3346
218.7305	0.3279
218.9471	0.3242
219.1637	0.3037
219.3803	0.2821
219.5969	0.2777
219.8135	0.2505
220.0301	0.2753
220.2466	0.2826
220.4632	0.2645
220.6797	0.234
220.8962	0.2671
221.1127	0.2476
221.3292	0.2437
221.5457	0.2395
221.7622	0.2331
221.9787	0.2527
222.1951	0.2486
222.4116	0.2603
222.628	0.2703
222.8444	0.2649
223.0608	0.2507
223.2772	0.244
223.4936	0.2543
223.71	0.2499
223.9264	0.2706
224.1427	0.2378
224.3591	0.261
224.5754	0.266
224.7917	0.2665
225.008	0.2718
225.2243	0.2522
225.4406	0.3054
225.6569	0.2781
225.8732	0.2715
226.0894	0.2709
226.3057	0.2537
226.5219	0.3035
226.7381	0.2792
226.9543	0.2607
227.1705	0.2959
227.3867	0.2913
227.6029	0.2956
227.8191	0.3017
228.0352	0.3019
228.2513	0.3142
228.4675	0.3089
228.6836	0.3072
228.8997	0.3041
229.1158	0.3099
229.3319	0.3084
229.548	0.3149
229.764	0.3211
229.9801	0.3153
230.1961	0.3332
230.4121	0.3391
230.6282	0.3411
230.8442	0.3285
231.0602	0.3363
231.2761	0.3638
231.4921	0.3457
231.7081	0.3562
231.924	0.3505
232.14	0.383
232.3559	0.3371
232.5718	0.3594
232.7877	0.3571
233.0036	0.3512
233.2195	0.3716
233.4353	0.3624
233.6512	0.3755
233.867	0.3738
234.0829	0.3575
234.2987	0.3706
234.5145	0.3997
234.7303	0.3794
234.9461	0.3867
235.1619	0.3748
235.3776	0.3983
235.5934	0.3861
235.8091	0.3778
236.0249	0.3855
236.2406	0.3827
236.4563	0.3844
236.672	0.3966
236.8877	0.4066
237.1034	0.4073
237.319	0.3873
237.5347	0.4108
237.7503	0.3908
237.966	0.3988
238.1816	0.4058
238.3972	0.4032
238.6128	0.4
238.8284	0.4242
239.0439	0.425
239.2595	0.4051
239.475	0.4199
239.6906	0.4127
239.9061	0.4042
240.1216	0.3983
240.3371	0.433
240.5526	0.4036
240.7681	0.4137
240.9836	0.4074
241.199	0.4153
241.4145	0.3964
241.6299	0.3825
241.8453	0.3867
242.0607	0.3835
242.2761	0.3655
242.4915	0.3718
242.7069	0.37
242.9223	0.3449
243.1376	0.3464
243.353	0.3477
243.5683	0.3593
243.7836	0.3174
243.9989	0.34
244.2142	0.3066
244.4295	0.3077
244.6448	0.3108
244.86	0.3028
245.0753	0.305
245.2905	0.2899
245.5057	0.2562
245.721	0.2769
245.9362	0.2685
246.1514	0.2882
246.3665	0.2603
246.5817	0.2621
246.7969	0.2523
247.012	0.2514
247.2271	0.2429
247.4423	0.247
247.6574	0.2308
247.8725	0.2285
248.0876	0.2363
248.3026	0.241
248.5177	0.2308
248.7328	0.225
248.9478	0.2035
249.1628	0.2156
249.3779	0.2182
249.5929	0.2
249.8079	0.2175
250.0228	0.2018
250.2378	0.2022
250.4528	0.207
250.6677	0.1982
250.8827	0.2007
251.0976	0.2092
251.3125	0.2028
251.5274	0.1895
251.7423	0.1893
251.9572	0.1822
252.172	0.1931
252.3869	0.1924
252.6017	0.1945
252.8166	0.1706
253.0314	0.1658
253.2462	0.1728
253.461	0.1979
253.6758	0.1766
253.8906	0.1868
254.1053	0.1752
254.3201	0.1801
254.5348	0.188
254.7496	0.1783
254.9643	0.182
255.179	0.1789
255.3937	0.1736
255.6083	0.1691
255.823	0.1882
256.0377	0.1596
256.2523	0.1818
256.467	0.1547
256.6816	0.1708
256.8962	0.1696
257.1108	0.1654
257.3254	0.1825
257.54	0.1685
257.7545	0.1684
257.9691	0.1825
258.1836	0.1617
258.3981	0.1864
258.6127	0.1808
258.8272	0.1635
259.0417	0.1642
259.2561	0.1692
259.4706	0.1688
259.6851	0.1711
259.8995	0.1763
260.114	0.1641
260.3284	0.171
260.5428	0.1611
260.7572	0.175
260.9716	0.1633
261.186	0.1583
261.4003	0.1724
261.6147	0.1693
261.829	0.1646
262.0433	0.1648
262.2577	0.1638
262.472	0.1712
262.6863	0.1714
262.9005	0.1704
263.1148	0.1655
263.3291	0.1491
263.5433	0.17
263.7576	0.1694
263.9718	0.1692
264.186	0.1638
264.4002	0.1668
264.6144	0.1623
264.8286	0.1675
265.0427	0.163
265.2569	0.1541
265.471	0.1551
265.6851	0.1539
265.8993	0.1545
266.1134	0.1625
266.3275	0.157
266.5415	0.1541
266.7556	0.1724
266.9697	0.1657
267.1837	0.1782
267.3978	0.1572
267.6118	0.1732
267.8258	0.1815
268.0398	0.1616
268.2538	0.1725
268.4677	0.166
268.6817	0.1647
268.8957	0.1631
269.1096	0.1626
269.3235	0.1674
269.5374	0.1442
269.7514	0.1594
269.9652	0.1657
270.1791	0.1479
270.393	0.1443
270.6068	0.1596
270.8207	0.1464
271.0345	0.1499
271.2483	0.1498
271.4622	0.1536
271.676	0.1613
271.8897	0.1475
272.1035	0.1439
272.3173	0.1396
272.531	0.1536
272.7448	0.1468
272.9585	0.1341
273.1722	0.1429
273.3859	0.1462
273.5996	0.1422
273.8133	0.1563
274.0269	0.1483
274.2406	0.1295
274.4542	0.1418
274.6679	0.1427
274.8815	0.1427
275.0951	0.1418
275.3087	0.1535
275.5223	0.153
275.7358	0.1524
275.9494	0.1414
276.1629	0.1449
276.3765	0.1353
276.59	0.1465
276.8035	0.1468
277.017	0.1456
277.2305	0.1366
277.444	0.1571
277.6574	0.146
277.8709	0.1519
278.0843	0.1544
278.2978	0.1464
278.5112	0.1418
278.7246	0.1433
278.938	0.147
279.1513	0.148
279.3647	0.1495
279.5781	0.1479
279.7914	0.1535
280.0047	0.1547
280.2181	0.1542
280.4314	0.1523
280.6447	0.1608
280.8579	0.1545
281.0712	0.1497
281.2845	0.1493
281.4977	0.1472
281.711	0.1475
281.9242	0.1662
282.1374	0.1475
282.3506	0.1453
282.5638	0.1601
282.7769	0.1596
282.9901	0.156
283.2033	0.1537
283.4164	0.1597
283.6295	0.153
283.8426	0.1504
284.0557	0.162
284.2688	0.1711
284.4819	0.1655
284.695	0.1566
284.908	0.1678
285.1211	0.1513
285.3341	0.1559
285.5471	0.1638
285.7601	0.1635
285.9731	0.1661
286.1861	0.153
286.3991	0.1607
286.612	0.1766
286.825	0.1681
287.0379	0.1623
287.2508	0.153
287.4637	0.1566
287.6766	0.1634
287.8895	0.1695
288.1024	0.1804
288.3152	0.1644
288.5281	0.1506
288.7409	0.1684
288.9538	0.1579
289.1666	0.1592
289.3794	0.1692
289.5922	0.1635
289.8049	0.1614
290.0177	0.1612
290.2304	0.1669
290.4432	0.1745
290.6559	0.1727
290.8686	0.1695
291.0813	0.1627
291.294	0.1669
291.5067	0.1757
291.7194	0.1665
291.932	0.1702
292.1447	0.1726
292.3573	0.158
292.5699	0.1672
292.7825	0.1736
292.9951	0.1739
293.2077	0.1715
293.4203	0.1614
293.6328	0.1618
293.8454	0.1627
294.0579	0.1712
294.2704	0.1732
294.4829	0.1589
294.6954	0.1851
294.9079	0.1669
295.1204	0.1618
295.3328	0.1583
295.5453	0.1719
295.7577	0.1698
295.9701	0.1596
296.1825	0.1652
296.3949	0.1645
296.6073	0.1664
296.8197	0.1555
297.0321	0.1771
297.2444	0.1587
297.4567	0.1643
297.6691	0.1692
297.8814	0.1693
298.0937	0.1565
298.306	0.1803
298.5182	0.169
298.7305	0.1804
298.9428	0.1577
299.155	0.1764
299.3672	0.1689
299.5794	0.1617
299.7916	0.1619
300.0038	0.1679
300.216	0.1684
300.4282	0.1748
300.6403	0.1586
300.8525	0.1718
301.0646	0.163
301.2767	0.1662
301.4888	0.1621
301.7009	0.1727
301.913	0.165
302.125	0.1727
302.3371	0.1631
302.5491	0.1641
302.7612	0.1677
302.9732	0.1588
303.1852	0.1698
303.3972	0.1721
303.6092	0.1617
303.8211	0.154
304.0331	0.1679
304.245	0.1608
304.457	0.1531
304.6689	0.1553
304.8808	0.1545
305.0927	0.1459
305.3046	0.1558
305.5164	0.1601
305.7283	0.1486
305.9401	0.1605
306.152	0.1412
306.3638	0.1432
306.5756	0.1457
306.7874	0.1664
306.9992	0.1555
307.2109	0.1413
307.4227	0.1223
307.6344	0.1476
307.8462	0.1472
308.0579	0.1348
308.2696	0.1359
308.4813	0.1255
308.693	0.1404
308.9046	0.1269
309.1163	0.1236
309.328	0.1263
309.5396	0.1268
309.7512	0.1206
309.9628	0.1302
310.1744	0.1251
310.386	0.1206
310.5976	0.1209
310.8091	0.114
311.0207	0.1137
311.2322	0.128
311.4437	0.1153
311.6552	0.1039
311.8667	0.1273
312.0782	0.1009
312.2897	0.1089
312.5012	0.116
312.7126	0.1106
312.924	0.105
313.1355	0.1061
313.3469	0.1018
313.5583	0.1147
313.7696	0.1048
313.981	0.1142
314.1924	0.1038
314.4037	0.1019
314.6151	0.11
314.8264	0.0945
315.0377	0.1078
315.249	0.0988
315.4603	0.1182
315.6716	0.1074
315.8828	0.0874
316.0941	0.0946
316.3053	0.0929
316.5165	0.0908
316.7277	0.0878
316.9389	0.101
317.1501	0.0997
317.3613	0.0983
317.5724	0.0961
317.7836	0.11
317.9947	0.0982
318.2058	0.0947
318.417	0.0864
318.6281	0.0828
318.8391	0.0956
319.0502	0.0915
319.2613	0.0973
319.4723	0.0957
319.6834	0.1074
319.8944	0.0901
320.1054	0.0948
320.3164	0.0954
320.5274	0.0965
320.7383	0.0926
320.9493	0.1016
321.1602	0.1062
321.3712	0.0878
321.5821	0.1017
321.793	0.0963
322.0039	0.093
322.2148	0.0992
322.4257	0.0899
322.6365	0.111
322.8474	0.1021
323.0582	0.0972
323.269	0.1063
323.4798	0.1018
323.6906	0.1015
323.9014	0.0963
324.1122	0.1035
324.3229	0.1002
324.5337	0.0936
324.7444	0.0923
324.9551	0.1106
325.1658	0.1081
325.3765	0.0975
325.5872	0.0967
325.7979	0.0945
326.0085	0.0988
326.2192	0.109
326.4298	0.109
326.6404	0.0936
326.851	0.0988
327.0616	0.0996
327.2722	0.1081
327.4828	0.1037
327.6933	0.1085
327.9039	0.106
328.1144	0.1066
328.3249	0.1052
328.5354	0.0937
328.7459	0.097
328.9564	0.0971
329.1669	0.1008
329.3773	0.105
329.5878	0.1027
329.7982	0.1018
330.0086	0.1009
330.219	0.1081
330.4294	0.0968
330.6398	0.0989
330.8502	0.0961
331.0605	0.0978
331.2708	0.1014
331.4812	0.1041
331.6915	0.1042
331.9018	0.1037
332.1121	0.1022
332.3224	0.1051
332.5326	0.1248
332.7429	0.1155
332.9531	0.107
333.1633	0.1184
333.3735	0.1121
333.5837	0.1156
333.7939	0.1067
334.0041	0.1031
334.2143	0.1038
334.4244	0.1042
334.6346	0.084
334.8447	0.1223
335.0548	0.0963
335.2649	0.0887
335.475	0.1049
335.685	0.0892
335.8951	0.1133
336.1051	0.1126
336.3152	0.1141
336.5252	0.1179
336.7352	0.1046
336.9452	0.1111
337.1552	0.1081
337.3652	0.1079
337.5751	0.1073
337.7851	0.1108
337.995	0.1106
338.2049	0.1125
338.4148	0.1094
338.6247	0.1112
338.8346	0.1055
339.0445	0.1047
339.2543	0.1036
339.4642	0.1236
339.674	0.1061
339.8838	0.1088
340.0936	0.1231
340.3034	0.1206
340.5132	0.1146
340.7229	0.113
340.9327	0.1123
341.1424	0.1137
341.3522	0.1268
341.5619	0.11
341.7716	0.1173
341.9813	0.1219
342.1909	0.1095
342.4006	0.1241
342.6102	0.1274
342.8199	0.1126
343.0295	0.1158
343.2391	0.1285
343.4487	0.1259
343.6583	0.1149
343.8679	0.1213
344.0774	0.1133
344.287	0.1348
344.4965	0.1228
344.706	0.1259
344.9155	0.124
345.125	0.1259
345.3345	0.1317
345.544	0.1278
345.7534	0.117
345.9629	0.1146
346.1723	0.1326
346.3817	0.1185
346.5911	0.1204
346.8005	0.1403
347.0099	0.1227
347.2193	0.1331
347.4286	0.1312
347.638	0.1347
347.8473	0.1257
348.0566	0.1453
348.2659	0.1504
348.4752	0.1346
348.6845	0.1326
348.8937	0.1353
349.103	0.1527
349.3122	0.1301
349.5214	0.1354
349.7306	0.1523
349.9398	0.1345
350.149	0.134
350.3582	0.1401
350.5674	0.1426
350.7765	0.1348
350.9856	0.1422
351.1948	0.1428
351.4039	0.132
351.613	0.1341
351.822	0.1371
352.0311	0.144
352.2402	0.145
352.4492	0.14
352.6582	0.148
352.8672	0.1546
353.0762	0.1477
353.2852	0.1388
353.4942	0.1447
353.7032	0.1464
353.9121	0.1519
354.1211	0.1533
354.33	0.155
354.5389	0.1585
354.7478	0.1323
354.9567	0.1447
355.1655	0.1419
355.3744	0.1562
355.5833	0.1604
355.7921	0.175
356.0009	0.1483
356.2097	0.1633
356.4185	0.1567
356.6273	0.1603
356.8361	0.1569
357.0448	0.1624
357.2536	0.1382
357.4623	0.1545
357.671	0.1551
357.8797	0.1575
358.0884	0.1573
358.2971	0.1576
358.5057	0.1672
358.7144	0.1617
358.923	0.1686
359.1316	0.1698
359.3402	0.1762
359.5488	0.1656
359.7574	0.1551
359.966	0.176
360.1746	0.1776
360.3831	0.1862
360.5916	0.1542
360.8002	0.1533
361.0087	0.1891
361.2172	0.1591
361.4256	0.18
361.6341	0.1862
361.8426	0.1787
362.051	0.184
362.2594	0.1836
362.4678	0.1901
362.6762	0.1983
362.8846	0.1883
363.093	0.1791
363.3014	0.1872
363.5097	0.1664
363.718	0.1806
363.9264	0.181
364.1347	0.1755
364.343	0.1942
364.5513	0.2054
364.7595	0.197
364.9678	0.2004
365.176	0.1884
365.3842	0.1816
365.5925	0.207
365.8007	0.2033
366.0089	0.2028
366.217	0.1837
366.4252	0.2125
366.6333	0.2059
366.8415	0.2149
367.0496	0.1885
367.2577	0.2154
367.4658	0.2024
367.6739	0.2153
367.882	0.2009
368.09	0.198
368.2981	0.2001
368.5061	0.1958
368.7141	0.2047
368.9221	0.2199
369.1301	0.2093
369.3381	0.2137
369.5461	0.2315
369.754	0.2205
369.962	0.2263
370.1699	0.2044
370.3778	0.225
370.5857	0.2119
370.7936	0.2173
371.0015	0.2226
371.2093	0.2164
371.4172	0.2346
371.625	0.207
371.8328	0.2228
372.0406	0.2285
372.2484	0.2145
372.4562	0.2194
372.664	0.2332
372.8717	0.2503
373.0795	0.2105
373.2872	0.2394
373.4949	0.2223
373.7026	0.2192
373.9103	0.2273
374.118	0.2123
374.3256	0.2369
374.5333	0.2289
374.7409	0.2145
374.9485	0.2352
375.1561	0.237
375.3637	0.2366
375.5713	0.2408
375.7789	0.2253
375.9864	0.2379
376.194	0.234
376.4015	0.2465
376.609	0.2424
376.8165	0.2447
377.024	0.2315
377.2315	0.2283
377.4389	0.2382
377.6464	0.2533
377.8538	0.2493
378.0612	0.2471
378.2686	0.245
378.476	0.2616
378.6834	0.2373
378.8908	0.2512
379.0981	0.2631
379.3055	0.2419
379.5128	0.237
379.7201	0.2608
379.9274	0.2316
380.1347	0.258
380.342	0.2688
380.5492	0.2427
380.7565	0.2584
380.9637	0.2366
381.1709	0.2476
381.3781	0.2517
381.5853	0.2597
381.7925	0.2629
381.9997	0.2641
382.2068	0.2672
382.4139	0.2466
382.6211	0.2479
382.8282	0.2393
383.0353	0.2647
383.2424	0.2504
383.4494	0.264
383.6565	0.2446
383.8635	0.2342
384.0706	0.2632
384.2776	0.2654
384.4846	0.2584
384.6916	0.2577
384.8986	0.2408
385.1055	0.2682
385.3125	0.2504
385.5194	0.2493
385.7263	0.2798
385.9333	0.2543
386.1402	0.2577
386.347	0.2593
386.5539	0.2687
386.7608	0.273
386.9676	0.2394
387.1744	0.2649
387.3813	0.2494
387.5881	0.2481
387.7948	0.2456
388.0016	0.2616
388.2084	0.2379
388.4151	0.2472
388.6219	0.2564
388.8286	0.2586
389.0353	0.266
389.242	0.254
389.4487	0.2429
389.6553	0.2562
389.862	0.2212
390.0686	0.2412
390.2753	0.2427
390.4819	0.2502
390.6885	0.2444
390.8951	0.2532
391.1016	0.2522
391.3082	0.2278
391.5147	0.2476
391.7213	0.2465
391.9278	0.2486
392.1343	0.2301
392.3408	0.2357
392.5473	0.2459
392.7537	0.2387
392.9602	0.2293
393.1666	0.2273
393.373	0.2457
393.5794	0.2385
393.7858	0.2294
393.9922	0.2183
394.1986	0.2385
394.4049	0.2371
394.6113	0.2208
394.8176	0.2148
395.0239	0.2116
395.2302	0.2375
395.4365	0.2172
395.6428	0.2199
395.8491	0.2176
396.0553	0.234
396.2615	0.2409
396.4678	0.2182
396.674	0.2032
396.8802	0.219
397.0863	0.2403
397.2925	0.2391
397.4987	0.2099
397.7048	0.2226
397.9109	0.2256
398.117	0.2067
398.3231	0.2064
398.5292	0.2201
398.7353	0.2384
398.9413	0.2107
399.1474	0.2191
399.3534	0.2225
399.5594	0.2027
399.7654	0.2277
399.9714	0.2253
400.1774	0.2181
400.3833	0.2198
400.5893	0.2227
400.7952	0.2122
401.0011	0.2082
401.207	0.2306
401.4129	0.2263
401.6188	0.2257
401.8247	0.2391
402.0305	0.2219
402.2364	0.2091
402.4422	0.2145
402.648	0.2202
402.8538	0.2034
403.0596	0.2167
403.2654	0.2291
403.4711	0.21
403.6768	0.231
403.8826	0.2276
404.0883	0.2184
404.294	0.2231
404.4997	0.2155
404.7054	0.2338
404.911	0.2075
405.1167	0.221
405.3223	0.2275
405.5279	0.2295
405.7335	0.2238
405.9391	0.2342
406.1447	0.2181
406.3502	0.2269
406.5558	0.1962
406.7613	0.2172
406.9668	0.2147
407.1724	0.2042
407.3778	0.2157
407.5833	0.2218
407.7888	0.2031
407.9942	0.2348
408.1997	0.2293
408.4051	0.2081
408.6105	0.2132
408.8159	0.1911
409.0213	0.2092
409.2267	0.2323
409.432	0.1923
409.6374	0.2358
409.8427	0.2189
410.048	0.2271
410.2533	0.2137
410.4586	0.2331
410.6639	0.199
410.8691	0.1985
411.0744	0.1962
411.2796	0.2099
411.4848	0.2081
411.69	0.2063
411.8952	0.228
412.1004	0.1971
412.3056	0.2103
412.5107	0.2032
412.7158	0.2443
412.921	0.2082
413.1261	0.227
413.3312	0.1967
413.5362	0.2069
413.7413	0.2098
413.9464	0.2119
414.1514	0.201
414.3564	0.1988
414.5614	0.2
414.7664	0.2141
414.9714	0.22
415.1764	0.2033
415.3813	0.2067
415.5863	0.2147
415.7912	0.1892
415.9961	0.2172
416.201	0.2119
416.4059	0.2143
416.6108	0.1992
416.8156	0.1881
417.0205	0.1953
417.2253	0.2004
417.4301	0.2154
417.6349	0.2023
417.8397	0.1956
418.0445	0.2076
418.2492	0.2104
418.454	0.212
418.6587	0.1991
418.8634	0.2208
419.0681	0.1821
419.2728	0.2148
419.4775	0.1862
419.6822	0.1772
419.8868	0.1831
420.0915	0.1996
420.2961	0.1786
420.5007	0.1914
420.7053	0.1934
420.9099	0.2015
421.1144	0.193
421.319	0.1928
421.5235	0.1841
421.728	0.2101
421.9325	0.1974
422.137	0.1839
422.3415	0.1852
422.546	0.1979
422.7504	0.1932
422.9549	0.1983
423.1593	0.1974
423.3637	0.1983
423.5681	0.193
423.7725	0.1718
423.9769	0.1727
424.1812	0.1789
424.3856	0.1758
424.5899	0.1843
424.7942	0.1836
424.9985	0.1871
425.2028	0.19
425.4071	0.1922
425.6113	0.1645
425.8156	0.1845
426.0198	0.1841
426.224	0.1657
426.4282	0.1832
426.6324	0.1619
426.8366	0.1654
