Data from MonoPyChalIsomerACN10uM420nmA_Absorbance_15-09-55-634.txt Node
Date: Fri Jul 05 15:09:55 BST 2024
User: LASERRRRR
Spectrometer: FLMT03099
Trigger mode: 0
Integration Time (sec): 1.000000E-1
Scans to average: 1
Electric dark correction enabled: true
Nonlinearity correction enabled: false
Boxcar width: 0
XAxis mode: Wavelengths
Number of Pixels in Spectrum: 3648
>>>>>Begin Spectral Data<<<<<
179.3399	-0.1917
179.5586	-0.1917
179.7771	-0.1917
179.9957	0.0407
180.2143	-0
180.4329	0.2925
180.6514	0.2267
180.8699	-0
181.0885	0.1098
181.307	0.8474
181.5255	-0.6706
181.744	-0.6861
181.9625	-0
182.181	-1.2062
182.3994	0.6157
182.6179	-0.1461
182.8363	-0
183.0547	0.005
183.2732	-0.0145
183.4916	0.0196
183.71	0.2409
183.9284	0.0521
184.1467	0.0073
184.3651	-0.0729
184.5835	0.0107
184.8018	-0.0312
185.0201	-0.0268
185.2385	-0.0232
185.4568	0.0309
185.6751	0.0258
185.8934	0.1402
186.1117	0.0487
186.3299	0.0086
186.5482	-0.0074
186.7664	0.2801
186.9847	-0.1702
187.2029	0.1208
187.4211	0.1085
187.6393	0.1096
187.8575	-0.2106
188.0757	0.173
188.2939	0.1206
188.512	0.2892
188.7302	-0.0097
188.9483	0.212
189.1665	0.2242
189.3846	0.0043
189.6027	0.1673
189.8208	0.2751
190.0389	0.1061
190.257	0.1971
190.475	-0.0151
190.6931	0.2478
190.9111	0.7167
191.1292	0.1098
191.3472	0.314
191.5652	0.3152
191.7832	0.2667
192.0012	0.5667
192.2192	0.3159
192.4371	0.4216
192.6551	0.3456
192.873	0.3276
193.091	0.3819
193.3089	0.7785
193.5268	0.4462
193.7447	0.5694
193.9626	0.5171
194.1805	0.562
194.3984	0.7232
194.6162	0.6557
194.8341	0.6641
195.0519	0.6576
195.2697	0.9538
195.4875	0.6391
195.7054	0.5166
195.9231	0.4607
196.1409	0.5815
196.3587	0.6979
196.5765	0.5266
196.7942	0.4186
197.012	0.6864
197.2297	0.596
197.4474	0.5433
197.6651	0.5393
197.8828	0.6004
198.1005	0.6167
198.3182	0.5249
198.5358	0.7378
198.7535	0.6162
198.9711	0.522
199.1888	0.756
199.4064	0.7168
199.624	0.6499
199.8416	0.6706
200.0592	0.5719
200.2767	0.6816
200.4943	0.6361
200.7119	0.7675
200.9294	0.6733
201.1469	0.5885
201.3645	0.5471
201.582	0.5515
201.7995	0.6499
202.017	0.6779
202.2344	0.6512
202.4519	0.6037
202.6694	0.5707
202.8868	0.6151
203.1042	0.7538
203.3217	0.6373
203.5391	0.6358
203.7565	0.5617
203.9739	0.6205
204.1913	0.5558
204.4086	0.6877
204.626	0.7524
204.8433	0.6511
205.0607	0.6933
205.278	0.6569
205.4953	0.6405
205.7126	0.7086
205.9299	0.8818
206.1472	0.7096
206.3644	0.7204
206.5817	0.7015
206.7989	0.7505
207.0162	0.6536
207.2334	0.7532
207.4506	0.5848
207.6678	0.7013
207.885	0.6611
208.1022	0.605
208.3194	0.6634
208.5365	0.6817
208.7537	0.5868
208.9708	0.5728
209.1879	0.6299
209.405	0.7778
209.6222	0.6905
209.8392	0.6696
210.0563	0.5946
210.2734	0.7007
210.4905	0.5997
210.7075	0.6683
210.9245	0.6576
211.1416	0.7094
211.3586	0.6087
211.5756	0.6353
211.7926	0.6363
212.0096	0.6266
212.2265	0.5372
212.4435	0.5836
212.6604	0.6377
212.8774	0.5766
213.0943	0.6056
213.3112	0.5886
213.5281	0.4934
213.745	0.5294
213.9619	0.4661
214.1788	0.4989
214.3956	0.4541
214.6125	0.4614
214.8293	0.4451
215.0461	0.4839
215.2629	0.4574
215.4798	0.4511
215.6965	0.4448
215.9133	0.4492
216.1301	0.4632
216.3469	0.4413
216.5636	0.4231
216.7803	0.4363
216.9971	0.4226
217.2138	0.3749
217.4305	0.3824
217.6472	0.3538
217.8639	0.3831
218.0805	0.3396
218.2972	0.3309
218.5138	0.3138
218.7305	0.3076
218.9471	0.2958
219.1637	0.2785
219.3803	0.2826
219.5969	0.2774
219.8135	0.2607
220.0301	0.3003
220.2466	0.28
220.4632	0.269
220.6797	0.2487
220.8962	0.2408
221.1127	0.2373
221.3292	0.2434
221.5457	0.2559
221.7622	0.244
221.9787	0.2666
222.1951	0.2474
222.4116	0.2645
222.628	0.2528
222.8444	0.2544
223.0608	0.2505
223.2772	0.2417
223.4936	0.2559
223.71	0.2579
223.9264	0.2612
224.1427	0.2512
224.3591	0.2512
224.5754	0.2715
224.7917	0.254
225.008	0.2641
225.2243	0.2537
225.4406	0.2789
225.6569	0.275
225.8732	0.2523
226.0894	0.2518
226.3057	0.2675
226.5219	0.2735
226.7381	0.25
226.9543	0.2683
227.1705	0.2833
227.3867	0.2861
227.6029	0.2897
227.8191	0.294
228.0352	0.2975
228.2513	0.3204
228.4675	0.3109
228.6836	0.2928
228.8997	0.3003
229.1158	0.2916
229.3319	0.3026
229.548	0.304
229.764	0.3424
229.9801	0.3195
230.1961	0.3295
230.4121	0.3322
230.6282	0.3423
230.8442	0.3338
231.0602	0.3414
231.2761	0.3694
231.4921	0.3248
231.7081	0.3541
231.924	0.3389
232.14	0.3555
232.3559	0.3419
232.5718	0.3528
232.7877	0.3631
233.0036	0.3357
233.2195	0.3522
233.4353	0.3611
233.6512	0.3688
233.867	0.3637
234.0829	0.3769
234.2987	0.35
234.5145	0.3545
234.7303	0.3784
234.9461	0.3844
235.1619	0.3697
235.3776	0.3789
235.5934	0.3767
235.8091	0.3817
236.0249	0.3793
236.2406	0.384
236.4563	0.3788
236.672	0.3986
236.8877	0.3828
237.1034	0.3762
237.319	0.4083
237.5347	0.3967
237.7503	0.3746
237.966	0.3852
238.1816	0.3923
238.3972	0.402
238.6128	0.378
238.8284	0.3982
239.0439	0.4181
239.2595	0.383
239.475	0.4205
239.6906	0.4156
239.9061	0.4226
240.1216	0.4017
240.3371	0.3967
240.5526	0.3915
240.7681	0.3896
240.9836	0.3914
241.199	0.4109
241.4145	0.3869
241.6299	0.4066
241.8453	0.4003
242.0607	0.4139
242.2761	0.3679
242.4915	0.3913
242.7069	0.4089
242.9223	0.3767
243.1376	0.3733
243.353	0.3735
243.5683	0.372
243.7836	0.3455
243.9989	0.3663
244.2142	0.3396
244.4295	0.3397
244.6448	0.3338
244.86	0.3186
245.0753	0.3204
245.2905	0.3054
245.5057	0.3014
245.721	0.2889
245.9362	0.2855
246.1514	0.3011
246.3665	0.2815
246.5817	0.2751
246.7969	0.2824
247.012	0.2689
247.2271	0.2516
247.4423	0.2537
247.6574	0.273
247.8725	0.2587
248.0876	0.2389
248.3026	0.2445
248.5177	0.2454
248.7328	0.2502
248.9478	0.2141
249.1628	0.2299
249.3779	0.2246
249.5929	0.2105
249.8079	0.2236
250.0228	0.2249
250.2378	0.2221
250.4528	0.2085
250.6677	0.1974
250.8827	0.2089
251.0976	0.2094
251.3125	0.2094
251.5274	0.1885
251.7423	0.2024
251.9572	0.1867
252.172	0.1924
252.3869	0.1925
252.6017	0.1866
252.8166	0.1723
253.0314	0.1745
253.2462	0.1719
253.461	0.1994
253.6758	0.179
253.8906	0.1912
254.1053	0.1841
254.3201	0.168
254.5348	0.1933
254.7496	0.1807
254.9643	0.1783
255.179	0.1838
255.3937	0.1715
255.6083	0.18
255.823	0.187
256.0377	0.1692
256.2523	0.1745
256.467	0.1643
256.6816	0.1803
256.8962	0.1688
257.1108	0.17
257.3254	0.1682
257.54	0.1739
257.7545	0.1612
257.9691	0.1855
258.1836	0.1801
258.3981	0.1765
258.6127	0.1838
258.8272	0.1615
259.0417	0.1651
259.2561	0.1691
259.4706	0.1821
259.6851	0.158
259.8995	0.1668
260.114	0.1761
260.3284	0.1711
260.5428	0.1677
260.7572	0.1738
260.9716	0.1754
261.186	0.1631
261.4003	0.1727
261.6147	0.1726
261.829	0.161
262.0433	0.1706
262.2577	0.1646
262.472	0.1722
262.6863	0.1739
262.9005	0.17
263.1148	0.1657
263.3291	0.1545
263.5433	0.1759
263.7576	0.1701
263.9718	0.182
264.186	0.1648
264.4002	0.1684
264.6144	0.168
264.8286	0.1728
265.0427	0.1748
265.2569	0.1834
265.471	0.1636
265.6851	0.1735
265.8993	0.1576
266.1134	0.1589
266.3275	0.1692
266.5415	0.173
266.7556	0.1813
266.9697	0.1794
267.1837	0.1755
267.3978	0.1708
267.6118	0.1775
267.8258	0.1799
268.0398	0.1548
268.2538	0.1831
268.4677	0.1776
268.6817	0.1781
268.8957	0.1753
269.1096	0.182
269.3235	0.1888
269.5374	0.1675
269.7514	0.1556
269.9652	0.1656
270.1791	0.1707
270.393	0.1693
270.6068	0.171
270.8207	0.1719
271.0345	0.1711
271.2483	0.1701
271.4622	0.1558
271.676	0.1805
271.8897	0.1585
272.1035	0.1699
272.3173	0.1661
272.531	0.1655
272.7448	0.1681
272.9585	0.1599
273.1722	0.167
273.3859	0.1777
273.5996	0.1555
273.8133	0.1758
274.0269	0.1653
274.2406	0.1564
274.4542	0.1703
274.6679	0.1634
274.8815	0.1717
275.0951	0.1587
275.3087	0.1756
275.5223	0.1722
275.7358	0.1733
275.9494	0.1707
276.1629	0.1581
276.3765	0.1672
276.59	0.1691
276.8035	0.1675
277.017	0.172
277.2305	0.1665
277.444	0.1787
277.6574	0.1588
277.8709	0.1834
278.0843	0.1618
278.2978	0.1602
278.5112	0.1697
278.7246	0.1756
278.938	0.164
279.1513	0.177
279.3647	0.1858
279.5781	0.174
279.7914	0.1624
280.0047	0.176
280.2181	0.1666
280.4314	0.1825
280.6447	0.1748
280.8579	0.1727
281.0712	0.1732
281.2845	0.186
281.4977	0.1786
281.711	0.1625
281.9242	0.1674
282.1374	0.1826
282.3506	0.1654
282.5638	0.1777
282.7769	0.1734
282.9901	0.1771
283.2033	0.1805
283.4164	0.1854
283.6295	0.1606
283.8426	0.1701
284.0557	0.1725
284.2688	0.1796
284.4819	0.1676
284.695	0.16
284.908	0.1781
285.1211	0.1554
285.3341	0.1719
285.5471	0.1763
285.7601	0.1686
285.9731	0.1636
286.1861	0.1627
286.3991	0.1701
286.612	0.1644
286.825	0.1719
287.0379	0.1703
287.2508	0.1563
287.4637	0.1632
287.6766	0.1504
287.8895	0.1839
288.1024	0.1856
288.3152	0.1641
288.5281	0.1663
288.7409	0.1674
288.9538	0.1627
289.1666	0.1622
289.3794	0.1627
289.5922	0.1546
289.8049	0.1575
290.0177	0.1635
290.2304	0.1528
290.4432	0.153
290.6559	0.1592
290.8686	0.1484
291.0813	0.1609
291.294	0.1645
291.5067	0.1638
291.7194	0.1438
291.932	0.1692
292.1447	0.1555
292.3573	0.1446
292.5699	0.1563
292.7825	0.1606
292.9951	0.1468
293.2077	0.1565
293.4203	0.15
293.6328	0.14
293.8454	0.1612
294.0579	0.1524
294.2704	0.153
294.4829	0.144
294.6954	0.1586
294.9079	0.1567
295.1204	0.1516
295.3328	0.1404
295.5453	0.1585
295.7577	0.1553
295.9701	0.1482
296.1825	0.1425
296.3949	0.1429
296.6073	0.1493
296.8197	0.1445
297.0321	0.1588
297.2444	0.1574
297.4567	0.1443
297.6691	0.1482
297.8814	0.1463
298.0937	0.1482
298.306	0.1634
298.5182	0.1467
298.7305	0.1533
298.9428	0.1505
299.155	0.152
299.3672	0.1471
299.5794	0.1442
299.7916	0.1448
300.0038	0.1534
300.216	0.1521
300.4282	0.148
300.6403	0.1401
300.8525	0.1469
301.0646	0.1511
301.2767	0.1465
301.4888	0.1552
301.7009	0.1485
301.913	0.1528
302.125	0.1465
302.3371	0.1411
302.5491	0.1492
302.7612	0.1452
302.9732	0.1605
303.1852	0.1433
303.3972	0.1425
303.6092	0.149
303.8211	0.1521
304.0331	0.138
304.245	0.1363
304.457	0.1393
304.6689	0.138
304.8808	0.1568
305.0927	0.1433
305.3046	0.1548
305.5164	0.15
305.7283	0.1355
305.9401	0.1494
306.152	0.1422
306.3638	0.1408
306.5756	0.138
306.7874	0.1479
306.9992	0.1472
307.2109	0.1357
307.4227	0.1239
307.6344	0.1318
307.8462	0.1319
308.0579	0.1364
308.2696	0.1219
308.4813	0.1253
308.693	0.1241
308.9046	0.1332
309.1163	0.1276
309.328	0.1276
309.5396	0.1303
309.7512	0.1263
309.9628	0.1215
310.1744	0.1269
310.386	0.1218
310.5976	0.1225
310.8091	0.1198
311.0207	0.1191
311.2322	0.1293
311.4437	0.119
311.6552	0.103
311.8667	0.127
312.0782	0.105
312.2897	0.1129
312.5012	0.1171
312.7126	0.1118
312.924	0.1151
313.1355	0.1177
313.3469	0.1103
313.5583	0.1184
313.7696	0.1178
313.981	0.1195
314.1924	0.113
314.4037	0.1084
314.6151	0.1197
314.8264	0.113
315.0377	0.1102
315.249	0.1145
315.4603	0.1219
315.6716	0.1166
315.8828	0.1077
316.0941	0.1096
316.3053	0.0978
316.5165	0.1083
316.7277	0.1059
316.9389	0.1188
317.1501	0.106
317.3613	0.1113
317.5724	0.1035
317.7836	0.104
317.9947	0.1149
318.2058	0.1074
318.417	0.1012
318.6281	0.0916
318.8391	0.1044
319.0502	0.1083
319.2613	0.1101
319.4723	0.1116
319.6834	0.1208
319.8944	0.0951
320.1054	0.1146
320.3164	0.1166
320.5274	0.1046
320.7383	0.1095
320.9493	0.1129
321.1602	0.1255
321.3712	0.0968
321.5821	0.1228
321.793	0.1034
322.0039	0.1097
322.2148	0.107
322.4257	0.1146
322.6365	0.1279
322.8474	0.1192
323.0582	0.1118
323.269	0.1144
323.4798	0.1133
323.6906	0.131
323.9014	0.1217
324.1122	0.1161
324.3229	0.104
324.5337	0.1118
324.7444	0.1085
324.9551	0.1278
325.1658	0.1061
325.3765	0.1221
325.5872	0.114
325.7979	0.1178
326.0085	0.1189
326.2192	0.124
326.4298	0.1253
326.6404	0.1129
326.851	0.1105
327.0616	0.1078
327.2722	0.1157
327.4828	0.1358
327.6933	0.1245
327.9039	0.1289
328.1144	0.1301
328.3249	0.1202
328.5354	0.109
328.7459	0.1076
328.9564	0.1125
329.1669	0.1197
329.3773	0.1039
329.5878	0.1236
329.7982	0.1333
330.0086	0.1194
330.219	0.1286
330.4294	0.1203
330.6398	0.1216
330.8502	0.1123
331.0605	0.1283
331.2708	0.1252
331.4812	0.1286
331.6915	0.1172
331.9018	0.1131
332.1121	0.1245
332.3224	0.1281
332.5326	0.1353
332.7429	0.1187
332.9531	0.1356
333.1633	0.1312
333.3735	0.1225
333.5837	0.117
333.7939	0.1188
334.0041	0.1403
334.2143	0.1212
334.4244	0.1235
334.6346	0.1036
334.8447	0.1291
335.0548	0.1066
335.2649	0.1132
335.475	0.1278
335.685	0.1226
335.8951	0.1236
336.1051	0.1234
336.3152	0.1327
336.5252	0.119
336.7352	0.1223
336.9452	0.1404
337.1552	0.1369
337.3652	0.1338
337.5751	0.1213
337.7851	0.1334
337.995	0.1175
338.2049	0.1418
338.4148	0.1299
338.6247	0.1188
338.8346	0.1241
339.0445	0.135
339.2543	0.1161
339.4642	0.1301
339.674	0.1238
339.8838	0.1256
340.0936	0.1287
340.3034	0.1286
340.5132	0.1387
340.7229	0.1272
340.9327	0.1416
341.1424	0.1294
341.3522	0.1505
341.5619	0.1316
341.7716	0.1381
341.9813	0.1437
342.1909	0.1267
342.4006	0.1333
342.6102	0.1422
342.8199	0.1376
343.0295	0.1434
343.2391	0.145
343.4487	0.1488
343.6583	0.1431
343.8679	0.1404
344.0774	0.1485
344.287	0.1503
344.4965	0.1317
344.706	0.1407
344.9155	0.1439
345.125	0.1281
345.3345	0.143
345.544	0.1343
345.7534	0.1439
345.9629	0.1329
346.1723	0.1395
346.3817	0.1354
346.5911	0.1559
346.8005	0.139
347.0099	0.1455
347.2193	0.1373
347.4286	0.139
347.638	0.1513
347.8473	0.1362
348.0566	0.131
348.2659	0.1378
348.4752	0.1545
348.6845	0.1459
348.8937	0.1458
349.103	0.1565
349.3122	0.1389
349.5214	0.1415
349.7306	0.144
349.9398	0.1542
350.149	0.1403
350.3582	0.1522
350.5674	0.1712
350.7765	0.1458
350.9856	0.1431
351.1948	0.1545
351.4039	0.1334
351.613	0.1427
351.822	0.1521
352.0311	0.1415
352.2402	0.145
352.4492	0.1475
352.6582	0.1624
352.8672	0.1562
353.0762	0.145
353.2852	0.1581
353.4942	0.1522
353.7032	0.1572
353.9121	0.1465
354.1211	0.1676
354.33	0.1592
354.5389	0.146
354.7478	0.151
354.9567	0.1567
355.1655	0.1476
355.3744	0.1586
355.5833	0.1605
355.7921	0.176
356.0009	0.1497
356.2097	0.1769
356.4185	0.1666
356.6273	0.1667
356.8361	0.1587
357.0448	0.1811
357.2536	0.149
357.4623	0.1717
357.671	0.1613
357.8797	0.1697
358.0884	0.168
358.2971	0.1721
358.5057	0.1621
358.7144	0.173
358.923	0.1767
359.1316	0.1666
359.3402	0.1653
359.5488	0.1691
359.7574	0.1573
359.966	0.1632
360.1746	0.1692
360.3831	0.1708
360.5916	0.1652
360.8002	0.1617
361.0087	0.1764
361.2172	0.1819
361.4256	0.1701
361.6341	0.1911
361.8426	0.1763
362.051	0.1761
362.2594	0.1722
362.4678	0.1737
362.6762	0.1928
362.8846	0.1819
363.093	0.1773
363.3014	0.1753
363.5097	0.1528
363.718	0.1828
363.9264	0.1767
364.1347	0.1729
364.343	0.1968
364.5513	0.1927
364.7595	0.1899
364.9678	0.1948
365.176	0.1795
365.3842	0.1859
365.5925	0.1849
365.8007	0.1915
366.0089	0.1834
366.217	0.1776
366.4252	0.1979
366.6333	0.2002
366.8415	0.1986
367.0496	0.1884
367.2577	0.2013
367.4658	0.2011
367.6739	0.2008
367.882	0.1981
368.09	0.1694
368.2981	0.1946
368.5061	0.1805
368.7141	0.1877
368.9221	0.1996
369.1301	0.1897
369.3381	0.1928
369.5461	0.1891
369.754	0.186
369.962	0.1964
370.1699	0.1936
370.3778	0.1965
370.5857	0.199
370.7936	0.1877
371.0015	0.2001
371.2093	0.1924
371.4172	0.2028
371.625	0.1808
371.8328	0.1943
372.0406	0.1938
372.2484	0.1925
372.4562	0.2064
372.664	0.2063
372.8717	0.21
373.0795	0.189
373.2872	0.1992
373.4949	0.1987
373.7026	0.2066
373.9103	0.2103
374.118	0.1813
374.3256	0.1953
374.5333	0.2078
374.7409	0.186
374.9485	0.2071
375.1561	0.2028
375.3637	0.1959
375.5713	0.1943
375.7789	0.1922
375.9864	0.1859
376.194	0.197
376.4015	0.2006
376.609	0.2091
376.8165	0.1992
377.024	0.2039
377.2315	0.1871
377.4389	0.2135
377.6464	0.2091
377.8538	0.2027
378.0612	0.2182
378.2686	0.2153
378.476	0.2202
378.6834	0.2039
378.8908	0.1972
379.0981	0.1957
379.3055	0.206
379.5128	0.1988
379.7201	0.2087
379.9274	0.2102
380.1347	0.2052
380.342	0.2265
380.5492	0.1942
380.7565	0.2171
380.9637	0.2199
381.1709	0.208
381.3781	0.1961
381.5853	0.2196
381.7925	0.2156
381.9997	0.208
382.2068	0.2176
382.4139	0.2125
382.6211	0.2026
382.8282	0.2052
383.0353	0.2099
383.2424	0.1944
383.4494	0.2244
383.6565	0.206
383.8635	0.2031
384.0706	0.2049
384.2776	0.2251
384.4846	0.2093
384.6916	0.2132
384.8986	0.2087
385.1055	0.2265
385.3125	0.2011
385.5194	0.2039
385.7263	0.2038
385.9333	0.2216
386.1402	0.2167
386.347	0.196
386.5539	0.1852
386.7608	0.1983
386.9676	0.2005
387.1744	0.2022
387.3813	0.1962
387.5881	0.205
387.7948	0.2112
388.0016	0.2057
388.2084	0.1959
388.4151	0.1934
388.6219	0.216
388.8286	0.1916
389.0353	0.206
389.242	0.1954
389.4487	0.208
389.6553	0.1976
389.862	0.1941
390.0686	0.2022
390.2753	0.2101
390.4819	0.1938
390.6885	0.1956
390.8951	0.2144
391.1016	0.1873
391.3082	0.1945
391.5147	0.1881
391.7213	0.188
391.9278	0.193
392.1343	0.1808
392.3408	0.1803
392.5473	0.1822
392.7537	0.1902
392.9602	0.1887
393.1666	0.1811
393.373	0.1827
393.5794	0.1955
393.7858	0.1867
393.9922	0.1665
394.1986	0.1852
394.4049	0.1851
394.6113	0.1669
394.8176	0.1718
395.0239	0.1905
395.2302	0.1588
395.4365	0.1716
395.6428	0.1725
395.8491	0.1608
396.0553	0.1649
396.2615	0.1696
396.4678	0.1616
396.674	0.1586
396.8802	0.1862
397.0863	0.196
397.2925	0.1484
397.4987	0.1531
397.7048	0.1684
397.9109	0.1637
398.117	0.1707
398.3231	0.1601
398.5292	0.1732
398.7353	0.1686
398.9413	0.1635
399.1474	0.1734
399.3534	0.1627
399.5594	0.147
399.7654	0.1882
399.9714	0.1795
400.1774	0.1629
400.3833	0.1581
400.5893	0.1829
400.7952	0.1801
401.0011	0.1727
401.207	0.1661
401.4129	0.1601
401.6188	0.1665
401.8247	0.1797
402.0305	0.1611
402.2364	0.174
402.4422	0.1801
402.648	0.1757
402.8538	0.1802
403.0596	0.1487
403.2654	0.1716
403.4711	0.1517
403.6768	0.1739
403.8826	0.1804
404.0883	0.1556
404.294	0.1742
404.4997	0.1607
404.7054	0.1472
404.911	0.1588
405.1167	0.1644
405.3223	0.1725
405.5279	0.1755
405.7335	0.1562
405.9391	0.1857
406.1447	0.1719
406.3502	0.1635
406.5558	0.1503
406.7613	0.1577
406.9668	0.1772
407.1724	0.1545
407.3778	0.1526
407.5833	0.1611
407.7888	0.1547
407.9942	0.1753
408.1997	0.165
408.4051	0.1479
408.6105	0.1538
408.8159	0.1444
409.0213	0.1622
409.2267	0.1639
409.432	0.1562
409.6374	0.1705
409.8427	0.1675
410.048	0.1688
410.2533	0.151
410.4586	0.1699
410.6639	0.1364
410.8691	0.1569
411.0744	0.1653
411.2796	0.1564
411.4848	0.1563
411.69	0.1455
411.8952	0.1736
412.1004	0.1528
412.3056	0.1703
412.5107	0.1607
412.7158	0.1661
412.921	0.1535
413.1261	0.1604
413.3312	0.1562
413.5362	0.1451
413.7413	0.1564
413.9464	0.1262
414.1514	0.1485
414.3564	0.1506
414.5614	0.1375
414.7664	0.1522
414.9714	0.1533
415.1764	0.1454
415.3813	0.1542
415.5863	0.1391
415.7912	0.1484
415.9961	0.1524
416.201	0.1614
416.4059	0.1627
416.6108	0.1307
416.8156	0.1451
417.0205	0.1488
417.2253	0.1485
417.4301	0.1502
417.6349	0.1504
417.8397	0.1631
418.0445	0.1461
418.2492	0.1556
418.454	0.1565
418.6587	0.1569
418.8634	0.1388
419.0681	0.1501
419.2728	0.1489
419.4775	0.1397
419.6822	0.1311
419.8868	0.131
420.0915	0.1504
420.2961	0.139
420.5007	0.1448
420.7053	0.1411
420.9099	0.1366
421.1144	0.1447
421.319	0.1297
421.5235	0.1465
421.728	0.1552
421.9325	0.1442
422.137	0.1515
422.3415	0.1481
422.546	0.1486
422.7504	0.1314
422.9549	0.1453
423.1593	0.1349
423.3637	0.1567
423.5681	0.1394
423.7725	0.1426
423.9769	0.1395
424.1812	0.1382
424.3856	0.1279
424.5899	0.1498
424.7942	0.1468
424.9985	0.1448
425.2028	0.1279
425.4071	0.1432
425.6113	0.1163
425.8156	0.1467
426.0198	0.127
426.224	0.1369
426.4282	0.1294
