Data from MonoPyChalIsomerACN10uM420nmA_Absorbance_15-09-50-435.txt Node
Date: Fri Jul 05 15:09:50 BST 2024
User: LASERRRRR
Spectrometer: FLMT03099
Trigger mode: 0
Integration Time (sec): 1.000000E-1
Scans to average: 1
Electric dark correction enabled: true
Nonlinearity correction enabled: false
Boxcar width: 0
XAxis mode: Wavelengths
Number of Pixels in Spectrum: 3648
>>>>>Begin Spectral Data<<<<<
179.3399	-0.1329
179.5586	-0.1329
179.7771	-0.1329
179.9957	-0
180.2143	-0
180.4329	0.1476
180.6514	-0
180.8699	-0
181.0885	0.1114
181.307	0.07
181.5255	-0.4496
181.744	-0.629
181.9625	-0
182.181	-1.0244
182.3994	1.5431
182.6179	-0
182.8363	-0.2347
183.0547	-0.3919
183.2732	0.0091
183.4916	-0.0163
183.71	0.042
183.9284	-0.1028
184.1467	-0.0301
184.3651	-0.1298
184.5835	-0.0697
184.8018	-0.0099
185.0201	-0.1359
185.2385	-0.1522
185.4568	-0.0563
185.6751	0.5353
185.8934	0.5514
186.1117	-0.0384
186.3299	0.3608
186.5482	0.2558
186.7664	-0.0441
186.9847	-0.1004
187.2029	0.0455
187.4211	0.1123
187.6393	0.2078
187.8575	-0.0329
188.0757	0.2325
188.2939	-0.0151
188.512	-0.1523
188.7302	0.1989
188.9483	-0.0233
189.1665	0.0132
189.3846	-0.109
189.6027	0.1983
189.8208	0.1055
190.0389	0.0534
190.257	0.1784
190.475	0.2408
190.6931	0.5265
190.9111	0.1599
191.1292	0.1275
191.3472	0.4036
191.5652	0.254
191.7832	0.0694
192.0012	0.6437
192.2192	0.3892
192.4371	0.6198
192.6551	0.3835
192.873	0.4135
193.091	0.3943
193.3089	-0
193.5268	0.4696
193.7447	0.5251
193.9626	0.4787
194.1805	0.3567
194.3984	0.6894
194.6162	0.4636
194.8341	0.4764
195.0519	0.5873
195.2697	0.7193
195.4875	0.4556
195.7054	0.4579
195.9231	0.5709
196.1409	0.5688
196.3587	0.5699
196.5765	0.5418
196.7942	0.6867
197.012	0.5944
197.2297	0.5018
197.4474	0.7174
197.6651	0.5617
197.8828	0.5852
198.1005	0.544
198.3182	0.6016
198.5358	0.7294
198.7535	0.6635
198.9711	0.5403
199.1888	0.6151
199.4064	0.7279
199.624	0.6994
199.8416	0.5939
200.0592	0.6262
200.2767	0.6591
200.4943	0.6707
200.7119	0.7863
200.9294	0.6162
201.1469	0.53
201.3645	0.6201
201.582	0.5986
201.7995	0.6832
202.017	0.6133
202.2344	0.5649
202.4519	0.6697
202.6694	0.5771
202.8868	0.6567
203.1042	0.6597
203.3217	0.6892
203.5391	0.6262
203.7565	0.5542
203.9739	0.6392
204.1913	0.5421
204.4086	0.6414
204.626	0.6413
204.8433	0.7152
205.0607	0.6342
205.278	0.6988
205.4953	0.63
205.7126	0.7323
205.9299	0.7368
206.1472	0.6185
206.3644	0.532
206.5817	0.638
206.7989	0.7016
207.0162	0.6534
207.2334	0.7029
207.4506	0.6883
207.6678	0.6392
207.885	0.6071
208.1022	0.7269
208.3194	0.6488
208.5365	0.6179
208.7537	0.6509
208.9708	0.5897
209.1879	0.6502
209.405	0.6076
209.6222	0.6761
209.8392	0.6929
210.0563	0.5767
210.2734	0.6854
210.4905	0.6674
210.7075	0.6312
210.9245	0.6194
211.1416	0.6672
211.3586	0.7297
211.5756	0.591
211.7926	0.5966
212.0096	0.6291
212.2265	0.579
212.4435	0.5334
212.6604	0.5865
212.8774	0.6345
213.0943	0.6145
213.3112	0.5443
213.5281	0.536
213.745	0.5141
213.9619	0.5171
214.1788	0.4574
214.3956	0.4697
214.6125	0.5304
214.8293	0.4614
215.0461	0.4759
215.2629	0.4782
215.4798	0.5146
215.6965	0.4428
215.9133	0.4847
216.1301	0.4406
216.3469	0.4277
216.5636	0.4055
216.7803	0.4072
216.9971	0.4397
217.2138	0.3852
217.4305	0.3902
217.6472	0.3628
217.8639	0.4133
218.0805	0.3396
218.2972	0.3328
218.5138	0.3182
218.7305	0.308
218.9471	0.3074
219.1637	0.2998
219.3803	0.3039
219.5969	0.2874
219.8135	0.2603
220.0301	0.2601
220.2466	0.2477
220.4632	0.2841
220.6797	0.2365
220.8962	0.2615
221.1127	0.2559
221.3292	0.2583
221.5457	0.2521
221.7622	0.2443
221.9787	0.2496
222.1951	0.2331
222.4116	0.2506
222.628	0.2624
222.8444	0.2917
223.0608	0.2557
223.2772	0.2307
223.4936	0.283
223.71	0.2391
223.9264	0.2744
224.1427	0.2681
224.3591	0.2536
224.5754	0.2814
224.7917	0.2528
225.008	0.267
225.2243	0.2542
225.4406	0.2931
225.6569	0.2749
225.8732	0.2817
226.0894	0.2504
226.3057	0.274
226.5219	0.2854
226.7381	0.2744
226.9543	0.2884
227.1705	0.2902
227.3867	0.2826
227.6029	0.2919
227.8191	0.3069
228.0352	0.2824
228.2513	0.3115
228.4675	0.3291
228.6836	0.292
228.8997	0.3116
229.1158	0.3142
229.3319	0.316
229.548	0.3255
229.764	0.3409
229.9801	0.3254
230.1961	0.3158
230.4121	0.3264
230.6282	0.3255
230.8442	0.3249
231.0602	0.3658
231.2761	0.3671
231.4921	0.3503
231.7081	0.3605
231.924	0.3488
232.14	0.3656
232.3559	0.3377
232.5718	0.3815
232.7877	0.3555
233.0036	0.3745
233.2195	0.3622
233.4353	0.3482
233.6512	0.3619
233.867	0.3786
234.0829	0.3679
234.2987	0.3736
234.5145	0.3779
234.7303	0.3533
234.9461	0.3948
235.1619	0.3797
235.3776	0.3748
235.5934	0.3789
235.8091	0.3836
236.0249	0.3864
236.2406	0.3765
236.4563	0.3817
236.672	0.3922
236.8877	0.3934
237.1034	0.4029
237.319	0.3915
237.5347	0.4183
237.7503	0.4042
237.966	0.4009
238.1816	0.4018
238.3972	0.3898
238.6128	0.3871
238.8284	0.3981
239.0439	0.4146
239.2595	0.4069
239.475	0.4142
239.6906	0.4064
239.9061	0.4088
240.1216	0.4001
240.3371	0.4194
240.5526	0.3995
240.7681	0.398
240.9836	0.3964
241.199	0.3907
241.4145	0.3756
241.6299	0.3791
241.8453	0.3785
242.0607	0.3921
242.2761	0.3533
242.4915	0.3658
242.7069	0.3663
242.9223	0.3528
243.1376	0.3365
243.353	0.3358
243.5683	0.3636
243.7836	0.3223
243.9989	0.3571
244.2142	0.3052
244.4295	0.3303
244.6448	0.3072
244.86	0.2955
245.0753	0.3062
245.2905	0.2957
245.5057	0.2828
245.721	0.3095
245.9362	0.2757
246.1514	0.2649
246.3665	0.2645
246.5817	0.2583
246.7969	0.2476
247.012	0.2549
247.2271	0.2443
247.4423	0.2485
247.6574	0.239
247.8725	0.2299
248.0876	0.2297
248.3026	0.2202
248.5177	0.2443
248.7328	0.2218
248.9478	0.2244
249.1628	0.2287
249.3779	0.2327
249.5929	0.2106
249.8079	0.2172
250.0228	0.2097
250.2378	0.2119
250.4528	0.2081
250.6677	0.1996
250.8827	0.2054
251.0976	0.1885
251.3125	0.1942
251.5274	0.1749
251.7423	0.1912
251.9572	0.1891
252.172	0.1896
252.3869	0.1867
252.6017	0.1887
252.8166	0.1727
253.0314	0.1712
253.2462	0.1729
253.461	0.1826
253.6758	0.1704
253.8906	0.1833
254.1053	0.168
254.3201	0.1761
254.5348	0.1815
254.7496	0.1746
254.9643	0.1791
255.179	0.1817
255.3937	0.1756
255.6083	0.1889
255.823	0.1692
256.0377	0.1747
256.2523	0.1719
256.467	0.1573
256.6816	0.1779
256.8962	0.1711
257.1108	0.1738
257.3254	0.1861
257.54	0.1771
257.7545	0.18
257.9691	0.1783
258.1836	0.1634
258.3981	0.1715
258.6127	0.1863
258.8272	0.1688
259.0417	0.1732
259.2561	0.1632
259.4706	0.1614
259.6851	0.1716
259.8995	0.1684
260.114	0.1669
260.3284	0.1691
260.5428	0.1554
260.7572	0.1642
260.9716	0.1694
261.186	0.1615
261.4003	0.1658
261.6147	0.1733
261.829	0.1707
262.0433	0.1751
262.2577	0.1579
262.472	0.1721
262.6863	0.1623
262.9005	0.1716
263.1148	0.1618
263.3291	0.1501
263.5433	0.166
263.7576	0.1599
263.9718	0.1721
264.186	0.1533
264.4002	0.1587
264.6144	0.1666
264.8286	0.1739
265.0427	0.1764
265.2569	0.1639
265.471	0.1576
265.6851	0.1569
265.8993	0.1625
266.1134	0.1586
266.3275	0.1566
266.5415	0.1656
266.7556	0.1751
266.9697	0.1599
267.1837	0.1615
267.3978	0.1673
267.6118	0.1692
267.8258	0.1875
268.0398	0.1545
268.2538	0.166
268.4677	0.1673
268.6817	0.1482
268.8957	0.1712
269.1096	0.177
269.3235	0.1689
269.5374	0.1567
269.7514	0.1576
269.9652	0.1532
270.1791	0.1506
270.393	0.1568
270.6068	0.1581
270.8207	0.1435
271.0345	0.1492
271.2483	0.1654
271.4622	0.1482
271.676	0.1613
271.8897	0.1476
272.1035	0.1498
272.3173	0.1465
272.531	0.1522
272.7448	0.1548
272.9585	0.1511
273.1722	0.1578
273.3859	0.1503
273.5996	0.1537
273.8133	0.1386
274.0269	0.1403
274.2406	0.144
274.4542	0.1449
274.6679	0.1278
274.8815	0.1436
275.0951	0.1375
275.3087	0.1602
275.5223	0.1481
275.7358	0.147
275.9494	0.1501
276.1629	0.143
276.3765	0.1579
276.59	0.1436
276.8035	0.1592
277.017	0.1529
277.2305	0.1436
277.444	0.1498
277.6574	0.1401
277.8709	0.1523
278.0843	0.15
278.2978	0.1505
278.5112	0.1467
278.7246	0.1532
278.938	0.1519
279.1513	0.1541
279.3647	0.16
279.5781	0.1428
279.7914	0.1512
280.0047	0.1568
280.2181	0.1472
280.4314	0.1574
280.6447	0.1552
280.8579	0.1541
281.0712	0.1503
281.2845	0.1638
281.4977	0.1628
281.711	0.1418
281.9242	0.1465
282.1374	0.1539
282.3506	0.1559
282.5638	0.1615
282.7769	0.1477
282.9901	0.1552
283.2033	0.1596
283.4164	0.1579
283.6295	0.1484
283.8426	0.1631
284.0557	0.1543
284.2688	0.163
284.4819	0.1595
284.695	0.1583
284.908	0.1571
285.1211	0.151
285.3341	0.1732
285.5471	0.1656
285.7601	0.1523
285.9731	0.1537
286.1861	0.1556
286.3991	0.1547
286.612	0.1672
286.825	0.1611
287.0379	0.178
287.2508	0.1616
287.4637	0.1677
287.6766	0.1606
287.8895	0.169
288.1024	0.1744
288.3152	0.1644
288.5281	0.1546
288.7409	0.1676
288.9538	0.1659
289.1666	0.1558
289.3794	0.1611
289.5922	0.1637
289.8049	0.1679
290.0177	0.163
290.2304	0.1613
290.4432	0.1628
290.6559	0.1618
290.8686	0.1672
291.0813	0.1655
291.294	0.1691
291.5067	0.173
291.7194	0.1611
291.932	0.1808
292.1447	0.1686
292.3573	0.1559
292.5699	0.1592
292.7825	0.1783
292.9951	0.1689
293.2077	0.1744
293.4203	0.1615
293.6328	0.1521
293.8454	0.175
294.0579	0.1792
294.2704	0.1674
294.4829	0.162
294.6954	0.1658
294.9079	0.171
295.1204	0.1691
295.3328	0.1665
295.5453	0.1593
295.7577	0.1568
295.9701	0.154
296.1825	0.1687
296.3949	0.1602
296.6073	0.1636
296.8197	0.16
297.0321	0.1745
297.2444	0.1553
297.4567	0.1732
297.6691	0.1672
297.8814	0.1668
298.0937	0.1639
298.306	0.1691
298.5182	0.1678
298.7305	0.1692
298.9428	0.1628
299.155	0.1655
299.3672	0.1553
299.5794	0.1645
299.7916	0.1614
300.0038	0.1714
300.216	0.1695
300.4282	0.1779
300.6403	0.1666
300.8525	0.1663
301.0646	0.1657
301.2767	0.1621
301.4888	0.1633
301.7009	0.1706
301.913	0.1712
302.125	0.163
302.3371	0.1537
302.5491	0.1624
302.7612	0.1638
302.9732	0.167
303.1852	0.1735
303.3972	0.1665
303.6092	0.1643
303.8211	0.1501
304.0331	0.1607
304.245	0.1538
304.457	0.1469
304.6689	0.1484
304.8808	0.169
305.0927	0.149
305.3046	0.1497
305.5164	0.1631
305.7283	0.1483
305.9401	0.1452
306.152	0.1425
306.3638	0.1559
306.5756	0.1516
306.7874	0.1437
306.9992	0.1555
307.2109	0.1367
307.4227	0.1318
307.6344	0.1359
307.8462	0.1446
308.0579	0.1352
308.2696	0.1334
308.4813	0.1317
308.693	0.132
308.9046	0.1358
309.1163	0.1272
309.328	0.1321
309.5396	0.1277
309.7512	0.1202
309.9628	0.1214
310.1744	0.1303
310.386	0.1263
310.5976	0.1182
310.8091	0.123
311.0207	0.1183
311.2322	0.1279
311.4437	0.1186
311.6552	0.1131
311.8667	0.1183
312.0782	0.1012
312.2897	0.1089
312.5012	0.1138
312.7126	0.1077
312.924	0.1126
313.1355	0.1156
313.3469	0.1087
313.5583	0.1036
313.7696	0.1057
313.981	0.1103
314.1924	0.1059
314.4037	0.1093
314.6151	0.1156
314.8264	0.1026
315.0377	0.1062
315.249	0.1115
315.4603	0.107
315.6716	0.0977
315.8828	0.101
316.0941	0.0997
316.3053	0.0949
316.5165	0.098
316.7277	0.0854
316.9389	0.1054
317.1501	0.0913
317.3613	0.1071
317.5724	0.0823
317.7836	0.0965
317.9947	0.0929
318.2058	0.0948
318.417	0.0854
318.6281	0.0814
318.8391	0.0894
319.0502	0.0879
319.2613	0.0974
319.4723	0.1052
319.6834	0.1046
319.8944	0.0896
320.1054	0.1047
320.3164	0.1008
320.5274	0.0899
320.7383	0.0953
320.9493	0.108
321.1602	0.1117
321.3712	0.0887
321.5821	0.0948
321.793	0.0981
322.0039	0.0923
322.2148	0.1003
322.4257	0.0978
322.6365	0.1093
322.8474	0.1011
323.0582	0.0976
323.269	0.0953
323.4798	0.1046
323.6906	0.1041
323.9014	0.1063
324.1122	0.1169
324.3229	0.1023
324.5337	0.0968
324.7444	0.0948
324.9551	0.1101
325.1658	0.108
325.3765	0.0944
325.5872	0.0931
325.7979	0.0957
326.0085	0.1059
326.2192	0.1104
326.4298	0.0993
326.6404	0.1046
326.851	0.0928
327.0616	0.1008
327.2722	0.1068
327.4828	0.1151
327.6933	0.0965
327.9039	0.107
328.1144	0.0991
328.3249	0.115
328.5354	0.097
328.7459	0.1064
328.9564	0.0956
329.1669	0.1006
329.3773	0.1051
329.5878	0.1
329.7982	0.1086
330.0086	0.1042
330.219	0.104
330.4294	0.0951
330.6398	0.103
330.8502	0.1026
331.0605	0.1128
331.2708	0.1034
331.4812	0.1119
331.6915	0.1169
331.9018	0.113
332.1121	0.1018
332.3224	0.1009
332.5326	0.1198
332.7429	0.1061
332.9531	0.1285
333.1633	0.1182
333.3735	0.1004
333.5837	0.1045
333.7939	0.0955
334.0041	0.1182
334.2143	0.1222
334.4244	0.1072
334.6346	0.0997
334.8447	0.1187
335.0548	0.1037
335.2649	0.0963
335.475	0.1173
335.685	0.117
335.8951	0.1186
336.1051	0.1089
336.3152	0.1133
336.5252	0.1115
336.7352	0.1151
336.9452	0.1093
337.1552	0.1137
337.3652	0.1009
337.5751	0.1081
337.7851	0.1145
337.995	0.1061
338.2049	0.1168
338.4148	0.1177
338.6247	0.1259
338.8346	0.1126
339.0445	0.1036
339.2543	0.1068
339.4642	0.1171
339.674	0.0945
339.8838	0.123
340.0936	0.1016
340.3034	0.1255
340.5132	0.1097
340.7229	0.1239
340.9327	0.1219
341.1424	0.1208
341.3522	0.1318
341.5619	0.1259
341.7716	0.1195
341.9813	0.1281
342.1909	0.1204
342.4006	0.1184
342.6102	0.134
342.8199	0.1277
343.0295	0.1316
343.2391	0.1295
343.4487	0.1307
343.6583	0.1258
343.8679	0.1233
344.0774	0.1303
344.287	0.1368
344.4965	0.11
344.706	0.1403
344.9155	0.1183
345.125	0.1263
345.3345	0.1357
345.544	0.1185
345.7534	0.1161
345.9629	0.115
346.1723	0.1349
346.3817	0.1209
346.5911	0.1183
346.8005	0.1332
347.0099	0.1345
347.2193	0.1275
347.4286	0.1296
347.638	0.1351
347.8473	0.1385
348.0566	0.133
348.2659	0.1278
348.4752	0.1314
348.6845	0.1227
348.8937	0.1213
349.103	0.1358
349.3122	0.1291
349.5214	0.1347
349.7306	0.1294
349.9398	0.1382
350.149	0.1408
350.3582	0.1314
350.5674	0.1536
350.7765	0.1495
350.9856	0.1504
351.1948	0.1371
351.4039	0.1308
351.613	0.1311
351.822	0.147
352.0311	0.1463
352.2402	0.1412
352.4492	0.1475
352.6582	0.1461
352.8672	0.1376
353.0762	0.162
353.2852	0.1428
353.4942	0.1391
353.7032	0.154
353.9121	0.1513
354.1211	0.1469
354.33	0.1577
354.5389	0.1499
354.7478	0.1469
354.9567	0.1577
355.1655	0.1484
355.3744	0.1532
355.5833	0.1597
355.7921	0.1725
356.0009	0.1668
356.2097	0.1669
356.4185	0.1636
356.6273	0.1811
356.8361	0.1858
357.0448	0.156
357.2536	0.1616
357.4623	0.1495
357.671	0.1643
357.8797	0.1559
358.0884	0.1637
358.2971	0.148
358.5057	0.1738
358.7144	0.1689
358.923	0.1574
359.1316	0.1774
359.3402	0.1761
359.5488	0.1747
359.7574	0.1588
359.966	0.1715
360.1746	0.1814
360.3831	0.1707
360.5916	0.1552
360.8002	0.1664
361.0087	0.1721
361.2172	0.1808
361.4256	0.1604
361.6341	0.1821
361.8426	0.1888
362.051	0.1754
362.2594	0.1791
362.4678	0.1901
362.6762	0.1967
362.8846	0.1833
363.093	0.185
363.3014	0.1798
363.5097	0.169
363.718	0.1817
363.9264	0.1821
364.1347	0.192
364.343	0.1814
364.5513	0.1868
364.7595	0.1894
364.9678	0.1984
365.176	0.1859
365.3842	0.1972
365.5925	0.1887
365.8007	0.1958
366.0089	0.1874
366.217	0.1925
366.4252	0.2007
366.6333	0.2059
366.8415	0.2019
367.0496	0.1884
367.2577	0.2141
367.4658	0.2257
367.6739	0.2008
367.882	0.2166
368.09	0.2101
368.2981	0.2079
368.5061	0.2051
368.7141	0.219
368.9221	0.2129
369.1301	0.2209
369.3381	0.1909
369.5461	0.214
369.754	0.206
369.962	0.2282
370.1699	0.2041
370.3778	0.2337
370.5857	0.2069
370.7936	0.2119
371.0015	0.2196
371.2093	0.2222
371.4172	0.2336
371.625	0.2124
371.8328	0.215
372.0406	0.225
372.2484	0.2221
372.4562	0.2264
372.664	0.2328
372.8717	0.2266
373.0795	0.2166
373.2872	0.2146
373.4949	0.2254
373.7026	0.2188
373.9103	0.2248
374.118	0.2449
374.3256	0.2415
374.5333	0.2195
374.7409	0.2259
374.9485	0.2327
375.1561	0.2139
375.3637	0.2283
375.5713	0.235
375.7789	0.2386
375.9864	0.2192
376.194	0.228
376.4015	0.2371
376.609	0.2444
376.8165	0.2216
377.024	0.239
377.2315	0.2305
377.4389	0.2302
377.6464	0.242
377.8538	0.244
378.0612	0.2275
378.2686	0.2358
378.476	0.253
378.6834	0.2441
378.8908	0.2329
379.0981	0.2426
379.3055	0.2433
379.5128	0.2326
379.7201	0.2492
379.9274	0.2375
380.1347	0.2383
380.342	0.2597
380.5492	0.244
380.7565	0.2347
380.9637	0.2438
381.1709	0.2462
381.3781	0.2483
381.5853	0.2522
381.7925	0.2542
381.9997	0.2578
382.2068	0.2571
382.4139	0.2552
382.6211	0.2384
382.8282	0.2395
383.0353	0.25
383.2424	0.2485
383.4494	0.2743
383.6565	0.2541
383.8635	0.2478
384.0706	0.2363
384.2776	0.2612
384.4846	0.2598
384.6916	0.2515
384.8986	0.2577
385.1055	0.2719
385.3125	0.2478
385.5194	0.2472
385.7263	0.2577
385.9333	0.2687
386.1402	0.2724
386.347	0.241
386.5539	0.2397
386.7608	0.2605
386.9676	0.2283
387.1744	0.2516
387.3813	0.2445
387.5881	0.2422
387.7948	0.2482
388.0016	0.2635
388.2084	0.2552
388.4151	0.2331
388.6219	0.2442
388.8286	0.2324
389.0353	0.267
389.242	0.2582
389.4487	0.2485
389.6553	0.2326
389.862	0.2151
390.0686	0.2388
390.2753	0.2351
390.4819	0.2432
390.6885	0.2216
390.8951	0.2545
391.1016	0.2343
391.3082	0.2389
391.5147	0.242
391.7213	0.2291
391.9278	0.2306
392.1343	0.2302
392.3408	0.238
392.5473	0.2226
392.7537	0.2283
392.9602	0.2092
393.1666	0.2243
393.373	0.2256
393.5794	0.2374
393.7858	0.2251
393.9922	0.2138
394.1986	0.2405
394.4049	0.2347
394.6113	0.2239
394.8176	0.2089
395.0239	0.2193
395.2302	0.2142
395.4365	0.2062
395.6428	0.2239
395.8491	0.1991
396.0553	0.2148
396.2615	0.2256
396.4678	0.22
396.674	0.2096
396.8802	0.2227
397.0863	0.2235
397.2925	0.2001
397.4987	0.2016
397.7048	0.1898
397.9109	0.2122
398.117	0.2023
398.3231	0.2021
398.5292	0.2159
398.7353	0.2142
398.9413	0.2053
399.1474	0.2136
399.3534	0.2169
399.5594	0.1918
399.7654	0.2308
399.9714	0.2288
400.1774	0.2107
400.3833	0.2118
400.5893	0.2083
400.7952	0.2249
401.0011	0.2227
401.207	0.2202
401.4129	0.2149
401.6188	0.2083
401.8247	0.2077
402.0305	0.2061
402.2364	0.2044
402.4422	0.2266
402.648	0.2099
402.8538	0.2196
403.0596	0.2148
403.2654	0.2133
403.4711	0.2131
403.6768	0.2134
403.8826	0.2139
404.0883	0.2023
404.294	0.2133
404.4997	0.2275
404.7054	0.211
404.911	0.1969
405.1167	0.2015
405.3223	0.2125
405.5279	0.2151
405.7335	0.2268
405.9391	0.2321
406.1447	0.1961
406.3502	0.2253
406.5558	0.2091
406.7613	0.2064
406.9668	0.2209
407.1724	0.1917
407.3778	0.215
407.5833	0.2108
407.7888	0.2046
407.9942	0.2415
408.1997	0.1969
408.4051	0.2045
408.6105	0.2174
408.8159	0.1801
409.0213	0.1967
409.2267	0.2359
409.432	0.2031
409.6374	0.2251
409.8427	0.2088
410.048	0.2295
410.2533	0.2043
410.4586	0.2145
410.6639	0.1923
410.8691	0.1949
411.0744	0.2004
411.2796	0.2049
411.4848	0.2142
411.69	0.2106
411.8952	0.2238
412.1004	0.1749
412.3056	0.1926
412.5107	0.2078
412.7158	0.2113
412.921	0.1974
413.1261	0.2102
413.3312	0.197
413.5362	0.2007
413.7413	0.1972
413.9464	0.208
414.1514	0.1926
414.3564	0.203
414.5614	0.1994
414.7664	0.2028
414.9714	0.2062
415.1764	0.1958
415.3813	0.1769
415.5863	0.189
415.7912	0.1981
415.9961	0.2058
416.201	0.2142
416.4059	0.2097
416.6108	0.1859
416.8156	0.1992
417.0205	0.1937
417.2253	0.2111
417.4301	0.1965
417.6349	0.1956
417.8397	0.1826
418.0445	0.1945
418.2492	0.2022
418.454	0.1952
418.6587	0.1912
418.8634	0.1894
419.0681	0.1802
419.2728	0.2079
419.4775	0.1839
419.6822	0.1832
419.8868	0.1643
420.0915	0.1838
420.2961	0.1971
420.5007	0.1816
420.7053	0.2013
420.9099	0.1943
421.1144	0.199
421.319	0.1808
421.5235	0.18
421.728	0.1843
421.9325	0.1899
422.137	0.1935
422.3415	0.2086
422.546	0.1806
422.7504	0.1739
422.9549	0.1919
423.1593	0.2083
423.3637	0.1875
423.5681	0.1932
423.7725	0.1662
423.9769	0.1647
424.1812	0.1597
424.3856	0.1685
424.5899	0.1824
424.7942	0.1773
424.9985	0.1684
425.2028	0.1634
425.4071	0.183
425.6113	0.1541
425.8156	0.18
426.0198	0.18
426.224	0.1437
426.4282	0.1531
