Data from MonoPyChalIsomerACN10uM420nmA_Absorbance_15-09-56-734.txt Node
Date: Fri Jul 05 15:09:56 BST 2024
User: LASERRRRR
Spectrometer: FLMT03099
Trigger mode: 0
Integration Time (sec): 1.000000E-1
Scans to average: 1
Electric dark correction enabled: true
Nonlinearity correction enabled: false
Boxcar width: 0
XAxis mode: Wavelengths
Number of Pixels in Spectrum: 3648
>>>>>Begin Spectral Data<<<<<
179.3399	0.33
179.5586	0.33
179.7771	0.33
179.9957	0.093
180.2143	-0
180.4329	-0.2111
180.6514	-0
180.8699	-0
181.0885	-0.0449
181.307	0.2034
181.5255	-0
181.744	-0.5287
181.9625	-0
182.181	-0.7023
182.3994	0.2146
182.6179	-0
182.8363	-0.0032
183.0547	-0.3606
183.2732	-0.0263
183.4916	0.5461
183.71	0.0293
183.9284	0.3388
184.1467	-0.0824
184.3651	0.0412
184.5835	-0.0886
184.8018	0.031
185.0201	0.2607
185.2385	0.1527
185.4568	0.4744
185.6751	0.0985
185.8934	0.1007
186.1117	0.0568
186.3299	0.0722
186.5482	0.0194
186.7664	-0.0651
186.9847	-0.0382
187.2029	0.0492
187.4211	0.1739
187.6393	0.183
187.8575	0.1407
188.0757	0.5242
188.2939	0.1064
188.512	0.1326
188.7302	0.1897
188.9483	1.2407
189.1665	0.0962
189.3846	-0.19
189.6027	0.0185
189.8208	0.2016
190.0389	0.2056
190.257	0.2062
190.475	0.1303
190.6931	0.5265
190.9111	0.399
191.1292	0.1131
191.3472	1.3047
191.5652	0.2924
191.7832	0.2425
192.0012	0.6163
192.2192	0.4153
192.4371	0.7632
192.6551	0.4145
192.873	0.5897
193.091	0.2913
193.3089	0.3738
193.5268	0.5382
193.7447	0.673
193.9626	0.4922
194.1805	0.5564
194.3984	0.8594
194.6162	0.5701
194.8341	0.5428
195.0519	0.6832
195.2697	0.6183
195.4875	0.9005
195.7054	0.5799
195.9231	0.5379
196.1409	0.5413
196.3587	0.6824
196.5765	0.8186
196.7942	0.6148
197.012	0.4924
197.2297	0.7878
197.4474	1.0353
197.6651	0.6537
197.8828	0.5794
198.1005	0.6986
198.3182	0.5508
198.5358	0.6054
198.7535	0.6257
198.9711	0.6148
199.1888	0.6864
199.4064	0.7279
199.624	0.6148
199.8416	0.6771
200.0592	0.6887
200.2767	0.698
200.4943	0.6767
200.7119	0.7313
200.9294	0.7602
201.1469	0.5932
201.3645	0.6579
201.582	0.6087
201.7995	0.6555
202.017	0.6212
202.2344	0.567
202.4519	0.6592
202.6694	0.655
202.8868	0.6423
203.1042	0.7027
203.3217	0.739
203.5391	0.7111
203.7565	0.6331
203.9739	0.5984
204.1913	0.5661
204.4086	0.7417
204.626	0.7049
204.8433	0.6489
205.0607	0.6425
205.278	0.6435
205.4953	0.5966
205.7126	0.63
205.9299	0.835
206.1472	0.7009
206.3644	0.6372
206.5817	0.7415
206.7989	0.9046
207.0162	0.6862
207.2334	0.7327
207.4506	0.7191
207.6678	0.6601
207.885	0.6916
208.1022	0.7474
208.3194	0.6364
208.5365	0.6797
208.7537	0.6355
208.9708	0.5951
209.1879	0.6132
209.405	0.7556
209.6222	0.6743
209.8392	0.6597
210.0563	0.613
210.2734	0.6854
210.4905	0.6767
210.7075	0.665
210.9245	0.6107
211.1416	0.7042
211.3586	0.6845
211.5756	0.6094
211.7926	0.6259
212.0096	0.6513
212.2265	0.5745
212.4435	0.5949
212.6604	0.584
212.8774	0.5864
213.0943	0.6066
213.3112	0.5669
213.5281	0.5446
213.745	0.5045
213.9619	0.5481
214.1788	0.4938
214.3956	0.4729
214.6125	0.4976
214.8293	0.4458
215.0461	0.4854
215.2629	0.4644
215.4798	0.5043
215.6965	0.4008
215.9133	0.4375
216.1301	0.4141
216.3469	0.3977
216.5636	0.4274
216.7803	0.4355
216.9971	0.432
217.2138	0.384
217.4305	0.396
217.6472	0.3618
217.8639	0.3847
218.0805	0.3286
218.2972	0.3342
218.5138	0.3314
218.7305	0.3349
218.9471	0.3184
219.1637	0.2911
219.3803	0.2758
219.5969	0.2949
219.8135	0.2488
220.0301	0.2816
220.2466	0.2777
220.4632	0.2686
220.6797	0.2379
220.8962	0.2424
221.1127	0.2559
221.3292	0.2286
221.5457	0.2261
221.7622	0.2267
221.9787	0.2354
222.1951	0.2446
222.4116	0.2636
222.628	0.2574
222.8444	0.2659
223.0608	0.262
223.2772	0.2465
223.4936	0.2525
223.71	0.246
223.9264	0.2922
224.1427	0.2597
224.3591	0.2472
224.5754	0.263
224.7917	0.2711
225.008	0.2691
225.2243	0.2596
225.4406	0.283
225.6569	0.2468
225.8732	0.2528
226.0894	0.2657
226.3057	0.274
226.5219	0.2823
226.7381	0.2651
226.9543	0.2727
227.1705	0.2766
227.3867	0.2775
227.6029	0.2849
227.8191	0.2951
228.0352	0.2733
228.2513	0.3151
228.4675	0.317
228.6836	0.2979
228.8997	0.29
229.1158	0.3122
229.3319	0.3266
229.548	0.3182
229.764	0.3095
229.9801	0.3271
230.1961	0.3416
230.4121	0.3383
230.6282	0.3356
230.8442	0.3203
231.0602	0.339
231.2761	0.331
231.4921	0.3555
231.7081	0.3397
231.924	0.3461
232.14	0.3552
232.3559	0.3339
232.5718	0.3489
232.7877	0.3628
233.0036	0.3383
233.2195	0.3641
233.4353	0.3594
233.6512	0.3693
233.867	0.3578
234.0829	0.3608
234.2987	0.3671
234.5145	0.376
234.7303	0.3538
234.9461	0.392
235.1619	0.3592
235.3776	0.3843
235.5934	0.3715
235.8091	0.359
236.0249	0.3626
236.2406	0.3959
236.4563	0.3759
236.672	0.392
236.8877	0.399
237.1034	0.3968
237.319	0.3863
237.5347	0.4144
237.7503	0.396
237.966	0.3944
238.1816	0.3827
238.3972	0.4099
238.6128	0.3974
238.8284	0.4103
239.0439	0.4072
239.2595	0.4096
239.475	0.4128
239.6906	0.3987
239.9061	0.4045
240.1216	0.4063
240.3371	0.4083
240.5526	0.4127
240.7681	0.4114
240.9836	0.3959
241.199	0.4172
241.4145	0.3987
241.6299	0.3957
241.8453	0.3925
242.0607	0.3956
242.2761	0.3699
242.4915	0.3903
242.7069	0.3992
242.9223	0.3832
243.1376	0.3643
243.353	0.3656
243.5683	0.3843
243.7836	0.3676
243.9989	0.3481
244.2142	0.3334
244.4295	0.343
244.6448	0.338
244.86	0.3186
245.0753	0.3232
245.2905	0.3304
245.5057	0.3151
245.721	0.3132
245.9362	0.2884
246.1514	0.2904
246.3665	0.2921
246.5817	0.2969
246.7969	0.305
247.012	0.2798
247.2271	0.2661
247.4423	0.2783
247.6574	0.2649
247.8725	0.2463
248.0876	0.2422
248.3026	0.2416
248.5177	0.2432
248.7328	0.2288
248.9478	0.231
249.1628	0.2345
249.3779	0.2483
249.5929	0.226
249.8079	0.234
250.0228	0.2123
250.2378	0.2262
250.4528	0.2246
250.6677	0.1998
250.8827	0.2178
251.0976	0.1979
251.3125	0.2052
251.5274	0.209
251.7423	0.2025
251.9572	0.1979
252.172	0.1943
252.3869	0.2018
252.6017	0.1913
252.8166	0.2024
253.0314	0.1845
253.2462	0.1763
253.461	0.1929
253.6758	0.1847
253.8906	0.1883
254.1053	0.1773
254.3201	0.1873
254.5348	0.1752
254.7496	0.1916
254.9643	0.1734
255.179	0.1831
255.3937	0.1702
255.6083	0.18
255.823	0.1781
256.0377	0.1742
256.2523	0.1766
256.467	0.1566
256.6816	0.179
256.8962	0.1647
257.1108	0.1764
257.3254	0.1773
257.54	0.1666
257.7545	0.1761
257.9691	0.1835
258.1836	0.1748
258.3981	0.1826
258.6127	0.1836
258.8272	0.1683
259.0417	0.1703
259.2561	0.1729
259.4706	0.1793
259.6851	0.1769
259.8995	0.1758
260.114	0.1661
260.3284	0.1713
260.5428	0.1687
260.7572	0.1757
260.9716	0.1724
261.186	0.1698
261.4003	0.1716
261.6147	0.1758
261.829	0.1659
262.0433	0.1627
262.2577	0.1644
262.472	0.1766
262.6863	0.1685
262.9005	0.1731
263.1148	0.1844
263.3291	0.1581
263.5433	0.18
263.7576	0.1691
263.9718	0.1754
264.186	0.1671
264.4002	0.167
264.6144	0.1686
264.8286	0.1782
265.0427	0.17
265.2569	0.1661
265.471	0.1617
265.6851	0.1673
265.8993	0.1702
266.1134	0.1584
266.3275	0.1759
266.5415	0.1624
266.7556	0.1741
266.9697	0.1692
267.1837	0.1792
267.3978	0.1782
267.6118	0.1827
267.8258	0.1974
268.0398	0.1687
268.2538	0.1799
268.4677	0.1825
268.6817	0.1639
268.8957	0.1665
269.1096	0.1889
269.3235	0.1731
269.5374	0.1719
269.7514	0.1719
269.9652	0.1709
270.1791	0.1845
270.393	0.1669
270.6068	0.1726
270.8207	0.1741
271.0345	0.1743
271.2483	0.1708
271.4622	0.1674
271.676	0.1779
271.8897	0.1682
272.1035	0.1692
272.3173	0.1722
272.531	0.1632
272.7448	0.1598
272.9585	0.1741
273.1722	0.1713
273.3859	0.1746
273.5996	0.1651
273.8133	0.1629
274.0269	0.1605
274.2406	0.1586
274.4542	0.1619
274.6679	0.1638
274.8815	0.1774
275.0951	0.1668
275.3087	0.1729
275.5223	0.1747
275.7358	0.1756
275.9494	0.1772
276.1629	0.1612
276.3765	0.1625
276.59	0.1859
276.8035	0.1777
277.017	0.173
277.2305	0.1557
277.444	0.1789
277.6574	0.1599
277.8709	0.1787
278.0843	0.1689
278.2978	0.175
278.5112	0.1585
278.7246	0.1713
278.938	0.1679
279.1513	0.1831
279.3647	0.1801
279.5781	0.1748
279.7914	0.1852
280.0047	0.1831
280.2181	0.1697
280.4314	0.1851
280.6447	0.175
280.8579	0.1706
281.0712	0.1848
281.2845	0.18
281.4977	0.1802
281.711	0.1618
281.9242	0.1695
282.1374	0.1715
282.3506	0.177
282.5638	0.1727
282.7769	0.1727
282.9901	0.1826
283.2033	0.1685
283.4164	0.1794
283.6295	0.1718
283.8426	0.1718
284.0557	0.1735
284.2688	0.1777
284.4819	0.176
284.695	0.1755
284.908	0.1837
285.1211	0.1648
285.3341	0.1734
285.5471	0.1703
285.7601	0.1761
285.9731	0.1625
286.1861	0.1684
286.3991	0.176
286.612	0.1677
286.825	0.1667
287.0379	0.1782
287.2508	0.1505
287.4637	0.173
287.6766	0.1558
287.8895	0.1579
288.1024	0.1781
288.3152	0.163
288.5281	0.1465
288.7409	0.1628
288.9538	0.1609
289.1666	0.1623
289.3794	0.1617
289.5922	0.1568
289.8049	0.1575
290.0177	0.1544
290.2304	0.1542
290.4432	0.1631
290.6559	0.1616
290.8686	0.164
291.0813	0.1517
291.294	0.1581
291.5067	0.1683
291.7194	0.1587
291.932	0.157
292.1447	0.1553
292.3573	0.1479
292.5699	0.1535
292.7825	0.1489
292.9951	0.1451
293.2077	0.1459
293.4203	0.1482
293.6328	0.1316
293.8454	0.1558
294.0579	0.1533
294.2704	0.1461
294.4829	0.1415
294.6954	0.1539
294.9079	0.1547
295.1204	0.1445
295.3328	0.1485
295.5453	0.1476
295.7577	0.1533
295.9701	0.1416
296.1825	0.1565
296.3949	0.1382
296.6073	0.1471
296.8197	0.1356
297.0321	0.1603
297.2444	0.1289
297.4567	0.1576
297.6691	0.1487
297.8814	0.1456
298.0937	0.1381
298.306	0.1512
298.5182	0.1485
298.7305	0.1463
298.9428	0.1424
299.155	0.1428
299.3672	0.1514
299.5794	0.1435
299.7916	0.1449
300.0038	0.1521
300.216	0.1466
300.4282	0.1553
300.6403	0.1405
300.8525	0.1522
301.0646	0.1379
301.2767	0.1487
301.4888	0.1458
301.7009	0.1549
301.913	0.1433
302.125	0.1426
302.3371	0.141
302.5491	0.1406
302.7612	0.157
302.9732	0.1399
303.1852	0.1536
303.3972	0.1456
303.6092	0.1406
303.8211	0.1401
304.0331	0.1417
304.245	0.1357
304.457	0.1383
304.6689	0.1304
304.8808	0.1484
305.0927	0.1374
305.3046	0.1399
305.5164	0.141
305.7283	0.1436
305.9401	0.1346
306.152	0.1383
306.3638	0.1414
306.5756	0.1231
306.7874	0.1417
306.9992	0.1419
307.2109	0.1333
307.4227	0.1121
307.6344	0.143
307.8462	0.1404
308.0579	0.1364
308.2696	0.1224
308.4813	0.1309
308.693	0.1365
308.9046	0.1382
309.1163	0.1283
309.328	0.1254
309.5396	0.1203
309.7512	0.1207
309.9628	0.1245
310.1744	0.1193
310.386	0.1301
310.5976	0.1216
310.8091	0.1159
311.0207	0.1172
311.2322	0.1249
311.4437	0.1125
311.6552	0.118
311.8667	0.1217
312.0782	0.1134
312.2897	0.1104
312.5012	0.1221
312.7126	0.1122
312.924	0.1015
313.1355	0.1219
313.3469	0.1155
313.5583	0.1174
313.7696	0.1165
313.981	0.1277
314.1924	0.1195
314.4037	0.1134
314.6151	0.1214
314.8264	0.113
315.0377	0.1157
315.249	0.1107
315.4603	0.1277
315.6716	0.1113
315.8828	0.1059
316.0941	0.1101
316.3053	0.1223
316.5165	0.1187
316.7277	0.1064
316.9389	0.1266
317.1501	0.1033
317.3613	0.1074
317.5724	0.1009
317.7836	0.1167
317.9947	0.103
318.2058	0.1055
318.417	0.1001
318.6281	0.1055
318.8391	0.1147
319.0502	0.1143
319.2613	0.1127
319.4723	0.1216
319.6834	0.1272
319.8944	0.1021
320.1054	0.1102
320.3164	0.1191
320.5274	0.1112
320.7383	0.1011
320.9493	0.1183
321.1602	0.1281
321.3712	0.114
321.5821	0.1138
321.793	0.1207
322.0039	0.1128
322.2148	0.1116
322.4257	0.1217
322.6365	0.1305
322.8474	0.1198
323.0582	0.12
323.269	0.1238
323.4798	0.1323
323.6906	0.1163
323.9014	0.1194
324.1122	0.1224
324.3229	0.1252
324.5337	0.1167
324.7444	0.118
324.9551	0.1371
325.1658	0.1245
325.3765	0.1154
325.5872	0.1268
325.7979	0.1171
326.0085	0.1265
326.2192	0.1404
326.4298	0.1233
326.6404	0.1188
326.851	0.1334
327.0616	0.1041
327.2722	0.1144
327.4828	0.1294
327.6933	0.1202
327.9039	0.1401
328.1144	0.134
328.3249	0.1291
328.5354	0.1136
328.7459	0.1151
328.9564	0.1198
329.1669	0.1183
329.3773	0.1224
329.5878	0.1256
329.7982	0.1229
330.0086	0.1145
330.219	0.1295
330.4294	0.1151
330.6398	0.1253
330.8502	0.1289
331.0605	0.1329
331.2708	0.1262
331.4812	0.1299
331.6915	0.1248
331.9018	0.1294
332.1121	0.1274
332.3224	0.1269
332.5326	0.1288
332.7429	0.1256
332.9531	0.1419
333.1633	0.1246
333.3735	0.1384
333.5837	0.1232
333.7939	0.116
334.0041	0.1325
334.2143	0.1314
334.4244	0.124
334.6346	0.1144
334.8447	0.136
335.0548	0.1337
335.2649	0.1168
335.475	0.1292
335.685	0.1231
335.8951	0.1353
336.1051	0.1389
336.3152	0.1257
336.5252	0.1131
336.7352	0.123
336.9452	0.1209
337.1552	0.1338
337.3652	0.1221
337.5751	0.1292
337.7851	0.1352
337.995	0.1161
338.2049	0.1386
338.4148	0.1309
338.6247	0.1457
338.8346	0.1171
339.0445	0.1279
339.2543	0.1237
339.4642	0.1279
339.674	0.1373
339.8838	0.1398
340.0936	0.1267
340.3034	0.1409
340.5132	0.1446
340.7229	0.1441
340.9327	0.1284
341.1424	0.1339
341.3522	0.143
341.5619	0.1443
341.7716	0.1402
341.9813	0.1504
342.1909	0.1331
342.4006	0.1459
342.6102	0.1507
342.8199	0.1659
343.0295	0.1496
343.2391	0.1517
343.4487	0.1503
343.6583	0.1261
343.8679	0.1406
344.0774	0.149
344.287	0.1406
344.4965	0.1327
344.706	0.1448
344.9155	0.1512
345.125	0.139
345.3345	0.1426
345.544	0.1494
345.7534	0.1472
345.9629	0.1457
346.1723	0.1551
346.3817	0.133
346.5911	0.1424
346.8005	0.1625
347.0099	0.1448
347.2193	0.1491
347.4286	0.152
347.638	0.1595
347.8473	0.1452
348.0566	0.1333
348.2659	0.1524
348.4752	0.1411
348.6845	0.1424
348.8937	0.1401
349.103	0.1523
349.3122	0.1507
349.5214	0.1462
349.7306	0.1649
349.9398	0.1485
350.149	0.1592
350.3582	0.1573
350.5674	0.1679
350.7765	0.1582
350.9856	0.1524
351.1948	0.1335
351.4039	0.1356
351.613	0.1291
351.822	0.1545
352.0311	0.1477
352.2402	0.1563
352.4492	0.1647
352.6582	0.1577
352.8672	0.1432
353.0762	0.165
353.2852	0.1427
353.4942	0.1391
353.7032	0.1608
353.9121	0.167
354.1211	0.1651
354.33	0.1644
354.5389	0.1458
354.7478	0.1502
354.9567	0.1649
355.1655	0.1444
355.3744	0.1659
355.5833	0.1785
355.7921	0.177
356.0009	0.1596
356.2097	0.1755
356.4185	0.1674
356.6273	0.1632
356.8361	0.1872
357.0448	0.149
357.2536	0.157
357.4623	0.1521
357.671	0.1616
357.8797	0.1712
358.0884	0.174
358.2971	0.1704
358.5057	0.1814
358.7144	0.1761
358.923	0.1775
359.1316	0.1634
359.3402	0.1757
359.5488	0.1784
359.7574	0.155
359.966	0.1706
360.1746	0.1739
360.3831	0.168
360.5916	0.1701
360.8002	0.1691
361.0087	0.1813
361.2172	0.1739
361.4256	0.1684
361.6341	0.1802
361.8426	0.1704
362.051	0.1858
362.2594	0.169
362.4678	0.1661
362.6762	0.1916
362.8846	0.1864
363.093	0.1865
363.3014	0.1746
363.5097	0.1494
363.718	0.177
363.9264	0.1861
364.1347	0.168
364.343	0.1747
364.5513	0.1798
364.7595	0.1803
364.9678	0.169
365.176	0.1821
365.3842	0.1756
365.5925	0.1755
365.8007	0.1811
366.0089	0.1795
366.217	0.1643
366.4252	0.1812
366.6333	0.1963
366.8415	0.1922
367.0496	0.1741
367.2577	0.1873
367.4658	0.1929
367.6739	0.1891
367.882	0.1933
368.09	0.179
368.2981	0.1895
368.5061	0.1933
368.7141	0.1908
368.9221	0.2024
369.1301	0.1896
369.3381	0.177
369.5461	0.1865
369.754	0.1778
369.962	0.1908
370.1699	0.187
370.3778	0.1866
370.5857	0.178
370.7936	0.194
371.0015	0.1999
371.2093	0.2068
371.4172	0.2082
371.625	0.1783
371.8328	0.1898
372.0406	0.192
372.2484	0.189
372.4562	0.1888
372.664	0.1837
372.8717	0.2088
373.0795	0.1735
373.2872	0.1992
373.4949	0.1977
373.7026	0.1926
373.9103	0.1972
374.118	0.1941
374.3256	0.1915
374.5333	0.2073
374.7409	0.198
374.9485	0.2
375.1561	0.2095
375.3637	0.2106
375.5713	0.1978
375.7789	0.2071
375.9864	0.1897
376.194	0.1793
376.4015	0.1931
376.609	0.1981
376.8165	0.1936
377.024	0.1844
377.2315	0.1934
377.4389	0.2042
377.6464	0.2071
377.8538	0.2009
378.0612	0.1999
378.2686	0.2028
378.476	0.2164
378.6834	0.2024
378.8908	0.2066
379.0981	0.196
379.3055	0.2026
379.5128	0.1993
379.7201	0.1942
379.9274	0.2031
380.1347	0.2059
380.342	0.2076
380.5492	0.1806
380.7565	0.2074
380.9637	0.2071
381.1709	0.202
381.3781	0.2
381.5853	0.2188
381.7925	0.2122
381.9997	0.2089
382.2068	0.2128
382.4139	0.2204
382.6211	0.2007
382.8282	0.1915
383.0353	0.2084
383.2424	0.1984
383.4494	0.214
383.6565	0.2195
383.8635	0.2107
384.0706	0.2011
384.2776	0.2007
384.4846	0.1913
384.6916	0.1988
384.8986	0.2003
385.1055	0.1964
385.3125	0.2062
385.5194	0.1997
385.7263	0.1941
385.9333	0.1938
386.1402	0.1936
386.347	0.1925
386.5539	0.1898
386.7608	0.2204
386.9676	0.1784
387.1744	0.1962
387.3813	0.1765
387.5881	0.1952
387.7948	0.2062
388.0016	0.196
388.2084	0.2002
388.4151	0.1851
388.6219	0.2089
388.8286	0.1957
389.0353	0.2218
389.242	0.2021
389.4487	0.1793
389.6553	0.1945
389.862	0.1734
390.0686	0.1925
390.2753	0.2078
390.4819	0.1861
390.6885	0.1943
390.8951	0.2009
391.1016	0.1789
391.3082	0.1861
391.5147	0.1787
391.7213	0.1799
391.9278	0.171
392.1343	0.1656
392.3408	0.1865
392.5473	0.1777
392.7537	0.1962
392.9602	0.181
393.1666	0.1742
393.373	0.1723
393.5794	0.1961
393.7858	0.1735
393.9922	0.1662
394.1986	0.1808
394.4049	0.1812
394.6113	0.1665
394.8176	0.1661
395.0239	0.1675
395.2302	0.1596
395.4365	0.1771
395.6428	0.1709
395.8491	0.1705
396.0553	0.1657
396.2615	0.1711
396.4678	0.1672
396.674	0.1588
396.8802	0.1795
397.0863	0.1876
397.2925	0.1574
397.4987	0.1533
397.7048	0.1698
397.9109	0.1721
398.117	0.149
398.3231	0.165
398.5292	0.1712
398.7353	0.1669
398.9413	0.1603
399.1474	0.1583
399.3534	0.1538
399.5594	0.1403
399.7654	0.1757
399.9714	0.1748
400.1774	0.1589
400.3833	0.1603
400.5893	0.1799
400.7952	0.1658
401.0011	0.149
401.207	0.1828
401.4129	0.1594
401.6188	0.1584
401.8247	0.1609
402.0305	0.1552
402.2364	0.1673
402.4422	0.1692
402.648	0.1612
402.8538	0.1622
403.0596	0.1665
403.2654	0.1664
403.4711	0.1731
403.6768	0.1675
403.8826	0.1697
404.0883	0.1726
404.294	0.17
404.4997	0.1556
404.7054	0.1584
404.911	0.1556
405.1167	0.1665
405.3223	0.1671
405.5279	0.1638
405.7335	0.1666
405.9391	0.1598
406.1447	0.1508
406.3502	0.1815
406.5558	0.1612
406.7613	0.1682
406.9668	0.1621
407.1724	0.1558
407.3778	0.1493
407.5833	0.1662
407.7888	0.1495
407.9942	0.1617
408.1997	0.1542
408.4051	0.1524
408.6105	0.1725
408.8159	0.1458
409.0213	0.1473
409.2267	0.1641
409.432	0.1545
409.6374	0.1666
409.8427	0.1604
410.048	0.1606
410.2533	0.1407
410.4586	0.1554
410.6639	0.1421
410.8691	0.1427
411.0744	0.1484
411.2796	0.1424
411.4848	0.1415
411.69	0.1578
411.8952	0.1605
412.1004	0.1366
412.3056	0.1634
412.5107	0.1557
412.7158	0.1717
412.921	0.1634
413.1261	0.1612
413.3312	0.1407
413.5362	0.1368
413.7413	0.1415
413.9464	0.1508
414.1514	0.1443
414.3564	0.1445
414.5614	0.1277
414.7664	0.1578
414.9714	0.151
415.1764	0.143
415.3813	0.1576
415.5863	0.1544
415.7912	0.1455
415.9961	0.1524
416.201	0.1514
416.4059	0.1414
416.6108	0.1504
416.8156	0.1464
417.0205	0.1517
417.2253	0.124
417.4301	0.1339
417.6349	0.1405
417.8397	0.1448
418.0445	0.1304
418.2492	0.1396
418.454	0.1477
418.6587	0.145
418.8634	0.1321
419.0681	0.1428
419.2728	0.1357
419.4775	0.1268
419.6822	0.1294
419.8868	0.1297
420.0915	0.1208
420.2961	0.1093
420.5007	0.1274
420.7053	0.1401
420.9099	0.121
421.1144	0.1384
421.319	0.1433
421.5235	0.1378
421.728	0.1246
421.9325	0.1351
422.137	0.1496
422.3415	0.1461
422.546	0.131
422.7504	0.1337
422.9549	0.14
423.1593	0.1441
423.3637	0.1356
423.5681	0.1299
423.7725	0.1301
423.9769	0.1344
424.1812	0.1275
424.3856	0.1168
424.5899	0.1327
424.7942	0.1264
424.9985	0.1163
425.2028	0.1226
425.4071	0.1391
425.6113	0.1143
425.8156	0.1285
426.0198	0.1394
426.224	0.1175
426.4282	0.1267
426.6324	0.1192
