Data from MonoPyChalIsomerACN10uM420nmA_Absorbance_15-09-56-634.txt Node
Date: Fri Jul 05 15:09:56 BST 2024
User: LASERRRRR
Spectrometer: FLMT03099
Trigger mode: 0
Integration Time (sec): 1.000000E-1
Scans to average: 1
Electric dark correction enabled: true
Nonlinearity correction enabled: false
Boxcar width: 0
XAxis mode: Wavelengths
Number of Pixels in Spectrum: 3648
>>>>>Begin Spectral Data<<<<<
179.3399	0.2533
179.5586	0.2533
179.7771	0.2533
179.9957	0.1865
180.2143	-0.0505
180.4329	-0.0071
180.6514	-0
180.8699	0.1056
181.0885	0.0367
181.307	0.3689
181.5255	-0
181.744	-0
181.9625	-0
182.181	-0.764
182.3994	0.1243
182.6179	-0
182.8363	-0
183.0547	-0.4304
183.2732	-0.0399
183.4916	0.0545
183.71	0.3968
183.9284	0.0891
184.1467	-0.0854
184.3651	-0.0555
184.5835	0.1405
184.8018	0.2135
185.0201	-0.002
185.2385	-0.2238
185.4568	-0.059
185.6751	0.0034
185.8934	0.8237
186.1117	0.0757
186.3299	-0.0561
186.5482	0.1642
186.7664	-0.0955
186.9847	-0.0492
187.2029	0.054
187.4211	0.21
187.6393	-0.0471
187.8575	-0.0025
188.0757	0.3467
188.2939	0.0589
188.512	0.2482
188.7302	-0.0414
188.9483	0.0584
189.1665	0.1131
189.3846	0.0481
189.6027	0.0612
189.8208	0.2406
190.0389	0.0106
190.257	0.1413
190.475	0.1593
190.6931	0.6566
190.9111	0.2812
191.1292	0.0734
191.3472	0.4206
191.5652	0.3162
191.7832	0.1835
192.0012	0.5024
192.2192	0.2631
192.4371	0.4742
192.6551	0.356
192.873	0.4548
193.091	0.3242
193.3089	0.5476
193.5268	0.5952
193.7447	0.5307
193.9626	0.5889
194.1805	0.7199
194.3984	0.6605
194.6162	0.4463
194.8341	0.5156
195.0519	0.7811
195.2697	0.6892
195.4875	0.5267
195.7054	0.994
195.9231	0.5684
196.1409	0.4625
196.3587	0.6695
196.5765	0.546
196.7942	0.5616
197.012	0.502
197.2297	0.772
197.4474	0.6102
197.6651	0.4417
197.8828	0.5468
198.1005	0.6407
198.3182	0.613
198.5358	0.7471
198.7535	0.6647
198.9711	0.5507
199.1888	0.6306
199.4064	1.0728
199.624	0.5868
199.8416	0.4817
200.0592	0.5168
200.2767	0.6539
200.4943	0.7162
200.7119	0.6283
200.9294	0.7468
201.1469	0.559
201.3645	0.6332
201.582	0.6498
201.7995	0.8128
202.017	0.5207
202.2344	0.6756
202.4519	0.6205
202.6694	0.8117
202.8868	0.66
203.1042	0.6762
203.3217	0.6874
203.5391	0.6364
203.7565	0.6699
203.9739	0.599
204.1913	0.6435
204.4086	0.7056
204.626	0.708
204.8433	0.6904
205.0607	0.6329
205.278	0.6733
205.4953	0.6713
205.7126	0.6465
205.9299	0.8456
206.1472	0.7801
206.3644	0.6211
206.5817	0.6874
206.7989	0.7717
207.0162	0.6235
207.2334	0.6642
207.4506	0.7002
207.6678	0.7097
207.885	0.7899
208.1022	0.7295
208.3194	0.703
208.5365	0.742
208.7537	0.6123
208.9708	0.6367
209.1879	0.6443
209.405	0.7251
209.6222	0.6697
209.8392	0.685
210.0563	0.6564
210.2734	0.6316
210.4905	0.6574
210.7075	0.6529
210.9245	0.6014
211.1416	0.6964
211.3586	0.7071
211.5756	0.559
211.7926	0.6327
212.0096	0.678
212.2265	0.5783
212.4435	0.5816
212.6604	0.5844
212.8774	0.5812
213.0943	0.5896
213.3112	0.5774
213.5281	0.5783
213.745	0.5379
213.9619	0.5504
214.1788	0.5034
214.3956	0.4621
214.6125	0.5064
214.8293	0.477
215.0461	0.4715
215.2629	0.4618
215.4798	0.4424
215.6965	0.4477
215.9133	0.479
216.1301	0.4143
216.3469	0.4488
216.5636	0.4468
216.7803	0.3709
216.9971	0.4335
217.2138	0.3848
217.4305	0.382
217.6472	0.3549
217.8639	0.3773
218.0805	0.3767
218.2972	0.3269
218.5138	0.3256
218.7305	0.3397
218.9471	0.324
219.1637	0.3004
219.3803	0.2699
219.5969	0.2926
219.8135	0.257
220.0301	0.2725
220.2466	0.2836
220.4632	0.2721
220.6797	0.2204
220.8962	0.2358
221.1127	0.2581
221.3292	0.2539
221.5457	0.245
221.7622	0.2329
221.9787	0.2414
222.1951	0.2132
222.4116	0.2358
222.628	0.2498
222.8444	0.2599
223.0608	0.2521
223.2772	0.2469
223.4936	0.2526
223.71	0.2371
223.9264	0.2732
224.1427	0.2362
224.3591	0.2308
224.5754	0.2769
224.7917	0.2688
225.008	0.26
225.2243	0.2532
225.4406	0.2923
225.6569	0.2623
225.8732	0.2677
226.0894	0.2705
226.3057	0.2615
226.5219	0.2755
226.7381	0.2677
226.9543	0.2808
227.1705	0.2975
227.3867	0.2658
227.6029	0.2932
227.8191	0.2908
228.0352	0.3046
228.2513	0.3105
228.4675	0.3016
228.6836	0.3021
228.8997	0.3111
229.1158	0.325
229.3319	0.3016
229.548	0.2985
229.764	0.3288
229.9801	0.3221
230.1961	0.3282
230.4121	0.3317
230.6282	0.3352
230.8442	0.3217
231.0602	0.3266
231.2761	0.3493
231.4921	0.3428
231.7081	0.3414
231.924	0.3534
232.14	0.3555
232.3559	0.3318
232.5718	0.3504
232.7877	0.3668
233.0036	0.341
233.2195	0.3528
233.4353	0.3425
233.6512	0.3606
233.867	0.3894
234.0829	0.3555
234.2987	0.3798
234.5145	0.3709
234.7303	0.3673
234.9461	0.3883
235.1619	0.3685
235.3776	0.3849
235.5934	0.3776
235.8091	0.3544
236.0249	0.3469
236.2406	0.372
236.4563	0.3931
236.672	0.3948
236.8877	0.3842
237.1034	0.4013
237.319	0.384
237.5347	0.3876
237.7503	0.3822
237.966	0.4165
238.1816	0.4089
238.3972	0.3973
238.6128	0.4022
238.8284	0.3928
239.0439	0.4244
239.2595	0.4042
239.475	0.4051
239.6906	0.4143
239.9061	0.4175
240.1216	0.3889
240.3371	0.4174
240.5526	0.3957
240.7681	0.4278
240.9836	0.396
241.199	0.4162
241.4145	0.3902
241.6299	0.3952
241.8453	0.3911
242.0607	0.3974
242.2761	0.3804
242.4915	0.3869
242.7069	0.3836
242.9223	0.3765
243.1376	0.3712
243.353	0.359
243.5683	0.3641
243.7836	0.3466
243.9989	0.3694
244.2142	0.3485
244.4295	0.3456
244.6448	0.3274
244.86	0.325
245.0753	0.3147
245.2905	0.3039
245.5057	0.3122
245.721	0.3025
245.9362	0.2978
246.1514	0.3026
246.3665	0.2974
246.5817	0.2828
246.7969	0.2678
247.012	0.2636
247.2271	0.2594
247.4423	0.2883
247.6574	0.259
247.8725	0.2572
248.0876	0.2486
248.3026	0.2548
248.5177	0.2328
248.7328	0.2383
248.9478	0.2398
249.1628	0.2295
249.3779	0.2395
249.5929	0.2155
249.8079	0.2377
250.0228	0.2108
250.2378	0.2173
250.4528	0.2331
250.6677	0.2035
250.8827	0.2217
251.0976	0.1977
251.3125	0.2147
251.5274	0.1977
251.7423	0.1959
251.9572	0.202
252.172	0.19
252.3869	0.1982
252.6017	0.1999
252.8166	0.1788
253.0314	0.1702
253.2462	0.1789
253.461	0.1876
253.6758	0.1805
253.8906	0.196
254.1053	0.1743
254.3201	0.1854
254.5348	0.1912
254.7496	0.1863
254.9643	0.1812
255.179	0.1845
255.3937	0.182
255.6083	0.1679
255.823	0.1726
256.0377	0.1744
256.2523	0.1791
256.467	0.1623
256.6816	0.1803
256.8962	0.1834
257.1108	0.1582
257.3254	0.1746
257.54	0.1736
257.7545	0.17
257.9691	0.1821
258.1836	0.1747
258.3981	0.1768
258.6127	0.1847
258.8272	0.163
259.0417	0.1662
259.2561	0.1757
259.4706	0.1633
259.6851	0.1738
259.8995	0.1653
260.114	0.1656
260.3284	0.1647
260.5428	0.1732
260.7572	0.1705
260.9716	0.1807
261.186	0.1754
261.4003	0.1725
261.6147	0.1774
261.829	0.167
262.0433	0.1763
262.2577	0.1603
262.472	0.1656
262.6863	0.162
262.9005	0.1657
263.1148	0.1604
263.3291	0.1603
263.5433	0.1748
263.7576	0.1693
263.9718	0.167
264.186	0.1728
264.4002	0.1623
264.6144	0.1614
264.8286	0.176
265.0427	0.1778
265.2569	0.1771
265.471	0.1774
265.6851	0.1766
265.8993	0.1669
266.1134	0.1699
266.3275	0.1603
266.5415	0.1707
266.7556	0.1675
266.9697	0.1842
267.1837	0.1699
267.3978	0.1747
267.6118	0.1997
267.8258	0.1742
268.0398	0.169
268.2538	0.1837
268.4677	0.1784
268.6817	0.1741
268.8957	0.1757
269.1096	0.1861
269.3235	0.171
269.5374	0.1682
269.7514	0.1664
269.9652	0.1778
270.1791	0.1651
270.393	0.1741
270.6068	0.1687
270.8207	0.1747
271.0345	0.1604
271.2483	0.177
271.4622	0.1699
271.676	0.1808
271.8897	0.1639
272.1035	0.1655
272.3173	0.166
272.531	0.1724
272.7448	0.1629
272.9585	0.1573
273.1722	0.1656
273.3859	0.162
273.5996	0.1611
273.8133	0.1763
274.0269	0.1619
274.2406	0.1592
274.4542	0.1735
274.6679	0.1644
274.8815	0.1753
275.0951	0.164
275.3087	0.1749
275.5223	0.1762
275.7358	0.1822
275.9494	0.1817
276.1629	0.1712
276.3765	0.1674
276.59	0.1817
276.8035	0.1703
277.017	0.1708
277.2305	0.1686
277.444	0.1846
277.6574	0.1675
277.8709	0.1681
278.0843	0.1552
278.2978	0.1765
278.5112	0.1875
278.7246	0.1787
278.938	0.171
279.1513	0.1794
279.3647	0.1838
279.5781	0.1762
279.7914	0.175
280.0047	0.1868
280.2181	0.186
280.4314	0.184
280.6447	0.179
280.8579	0.172
281.0712	0.1716
281.2845	0.1762
281.4977	0.1615
281.711	0.1747
281.9242	0.1784
282.1374	0.1697
282.3506	0.1703
282.5638	0.1845
282.7769	0.1725
282.9901	0.1716
283.2033	0.1891
283.4164	0.1919
283.6295	0.158
283.8426	0.1501
284.0557	0.1687
284.2688	0.186
284.4819	0.1742
284.695	0.1596
284.908	0.1725
285.1211	0.1599
285.3341	0.1723
285.5471	0.1715
285.7601	0.1638
285.9731	0.1676
286.1861	0.1592
286.3991	0.1765
286.612	0.1675
286.825	0.1681
287.0379	0.1687
287.2508	0.165
287.4637	0.1686
287.6766	0.1635
287.8895	0.166
288.1024	0.1825
288.3152	0.1688
288.5281	0.1495
288.7409	0.1613
288.9538	0.162
289.1666	0.1562
289.3794	0.1598
289.5922	0.1537
289.8049	0.1647
290.0177	0.1568
290.2304	0.1599
290.4432	0.1614
290.6559	0.1512
290.8686	0.1554
291.0813	0.147
291.294	0.1601
291.5067	0.1693
291.7194	0.1553
291.932	0.1745
292.1447	0.1574
292.3573	0.1347
292.5699	0.1488
292.7825	0.1552
292.9951	0.1482
293.2077	0.1537
293.4203	0.157
293.6328	0.142
293.8454	0.1632
294.0579	0.154
294.2704	0.1466
294.4829	0.1482
294.6954	0.1521
294.9079	0.1531
295.1204	0.1506
295.3328	0.1487
295.5453	0.1478
295.7577	0.1484
295.9701	0.1414
296.1825	0.1532
296.3949	0.1496
296.6073	0.1505
296.8197	0.1439
297.0321	0.1584
297.2444	0.1395
297.4567	0.1445
297.6691	0.1562
297.8814	0.1366
298.0937	0.149
298.306	0.158
298.5182	0.1509
298.7305	0.1478
298.9428	0.1463
299.155	0.1541
299.3672	0.1417
299.5794	0.1481
299.7916	0.1445
300.0038	0.1426
300.216	0.15
300.4282	0.1566
300.6403	0.1456
300.8525	0.1521
301.0646	0.1399
301.2767	0.1449
301.4888	0.1529
301.7009	0.1462
301.913	0.1508
302.125	0.1494
302.3371	0.1392
302.5491	0.1476
302.7612	0.1475
302.9732	0.1467
303.1852	0.1501
303.3972	0.1489
303.6092	0.1379
303.8211	0.1441
304.0331	0.1419
304.245	0.1413
304.457	0.133
304.6689	0.1427
304.8808	0.159
305.0927	0.1335
305.3046	0.1431
305.5164	0.1391
305.7283	0.1288
305.9401	0.143
306.152	0.1379
306.3638	0.1442
306.5756	0.136
306.7874	0.1304
306.9992	0.1426
307.2109	0.1454
307.4227	0.1201
307.6344	0.135
307.8462	0.1292
308.0579	0.1247
308.2696	0.1246
308.4813	0.1263
308.693	0.1217
308.9046	0.1291
309.1163	0.1275
309.328	0.1313
309.5396	0.127
309.7512	0.1248
309.9628	0.1223
310.1744	0.1233
310.386	0.1195
310.5976	0.1283
310.8091	0.1152
311.0207	0.1175
311.2322	0.1176
311.4437	0.1186
311.6552	0.1191
311.8667	0.1251
312.0782	0.1044
312.2897	0.1068
312.5012	0.1102
312.7126	0.1165
312.924	0.1035
313.1355	0.1253
313.3469	0.1154
313.5583	0.1196
313.7696	0.1143
313.981	0.1154
314.1924	0.1127
314.4037	0.11
314.6151	0.1209
314.8264	0.1053
315.0377	0.1172
315.249	0.1136
315.4603	0.1181
315.6716	0.1263
315.8828	0.1068
316.0941	0.1105
316.3053	0.1086
316.5165	0.117
316.7277	0.104
316.9389	0.1138
317.1501	0.1062
317.3613	0.121
317.5724	0.109
317.7836	0.1137
317.9947	0.1044
318.2058	0.1143
318.417	0.125
318.6281	0.1064
318.8391	0.116
319.0502	0.1137
319.2613	0.1114
319.4723	0.1166
319.6834	0.1171
319.8944	0.1225
320.1054	0.1256
320.3164	0.1217
320.5274	0.1141
320.7383	0.1081
320.9493	0.1033
321.1602	0.1203
321.3712	0.1118
321.5821	0.1185
321.793	0.1047
322.0039	0.1203
322.2148	0.1162
322.4257	0.1197
322.6365	0.1321
322.8474	0.1195
323.0582	0.1137
323.269	0.1141
323.4798	0.1292
323.6906	0.1235
323.9014	0.114
324.1122	0.1291
324.3229	0.1127
324.5337	0.1173
324.7444	0.1211
324.9551	0.1421
325.1658	0.124
325.3765	0.129
325.5872	0.1215
325.7979	0.1183
326.0085	0.1225
326.2192	0.1164
326.4298	0.1208
326.6404	0.1253
326.851	0.117
327.0616	0.1254
327.2722	0.119
327.4828	0.124
327.6933	0.1185
327.9039	0.1312
328.1144	0.1351
328.3249	0.1257
328.5354	0.1174
328.7459	0.1275
328.9564	0.1296
329.1669	0.1252
329.3773	0.1219
329.5878	0.1281
329.7982	0.1171
330.0086	0.1164
330.219	0.13
330.4294	0.1304
330.6398	0.1219
330.8502	0.1161
331.0605	0.133
331.2708	0.1195
331.4812	0.1392
331.6915	0.1318
331.9018	0.1285
332.1121	0.1229
332.3224	0.1086
332.5326	0.1308
332.7429	0.1431
332.9531	0.1335
333.1633	0.1289
333.3735	0.1253
333.5837	0.1211
333.7939	0.1199
334.0041	0.1346
334.2143	0.1386
334.4244	0.1301
334.6346	0.0995
334.8447	0.1454
335.0548	0.1275
335.2649	0.1274
335.475	0.135
335.685	0.1239
335.8951	0.1358
336.1051	0.1257
336.3152	0.1398
336.5252	0.1328
336.7352	0.1376
336.9452	0.1326
337.1552	0.131
337.3652	0.1208
337.5751	0.1191
337.7851	0.1357
337.995	0.1135
338.2049	0.1306
338.4148	0.1231
338.6247	0.1305
338.8346	0.1248
339.0445	0.1349
339.2543	0.1281
339.4642	0.129
339.674	0.1182
339.8838	0.132
340.0936	0.1334
340.3034	0.1508
340.5132	0.1357
340.7229	0.132
340.9327	0.1438
341.1424	0.1404
341.3522	0.1517
341.5619	0.1404
341.7716	0.1332
341.9813	0.1461
342.1909	0.131
342.4006	0.1459
342.6102	0.1518
342.8199	0.1668
343.0295	0.1485
343.2391	0.1465
343.4487	0.146
343.6583	0.1392
343.8679	0.1498
344.0774	0.1369
344.287	0.1462
344.4965	0.142
344.706	0.1433
344.9155	0.147
345.125	0.1334
345.3345	0.1577
345.544	0.1432
345.7534	0.1484
345.9629	0.1406
346.1723	0.1488
346.3817	0.1529
346.5911	0.1564
346.8005	0.1518
347.0099	0.1392
347.2193	0.1421
347.4286	0.1401
347.638	0.1611
347.8473	0.1404
348.0566	0.1515
348.2659	0.1533
348.4752	0.1487
348.6845	0.1455
348.8937	0.1525
349.103	0.1516
349.3122	0.1291
349.5214	0.1475
349.7306	0.1632
349.9398	0.1436
350.149	0.1472
350.3582	0.1393
350.5674	0.1437
350.7765	0.1509
350.9856	0.1503
351.1948	0.1586
351.4039	0.1319
351.613	0.15
351.822	0.1572
352.0311	0.1595
352.2402	0.1417
352.4492	0.1646
352.6582	0.1703
352.8672	0.1607
353.0762	0.1602
353.2852	0.1593
353.4942	0.1472
353.7032	0.1557
353.9121	0.16
354.1211	0.17
354.33	0.154
354.5389	0.1716
354.7478	0.157
354.9567	0.1589
355.1655	0.1513
355.3744	0.1384
355.5833	0.1691
355.7921	0.1688
356.0009	0.1536
356.2097	0.174
356.4185	0.1659
356.6273	0.1724
356.8361	0.1751
357.0448	0.1532
357.2536	0.1572
357.4623	0.1665
357.671	0.1712
357.8797	0.162
358.0884	0.1674
358.2971	0.1737
358.5057	0.1699
358.7144	0.168
358.923	0.1687
359.1316	0.1766
359.3402	0.1754
359.5488	0.1723
359.7574	0.1539
359.966	0.1792
360.1746	0.1758
360.3831	0.1721
360.5916	0.1711
360.8002	0.1689
361.0087	0.1859
361.2172	0.1835
361.4256	0.182
361.6341	0.1841
361.8426	0.1654
362.051	0.1753
362.2594	0.1718
362.4678	0.1744
362.6762	0.1875
362.8846	0.1741
363.093	0.1783
363.3014	0.1751
363.5097	0.1599
363.718	0.1683
363.9264	0.1893
364.1347	0.1795
364.343	0.1787
364.5513	0.1816
364.7595	0.1902
364.9678	0.18
365.176	0.1818
365.3842	0.1684
365.5925	0.1871
365.8007	0.1736
366.0089	0.1948
366.217	0.1749
366.4252	0.1917
366.6333	0.194
366.8415	0.1894
367.0496	0.1818
367.2577	0.2095
367.4658	0.1974
367.6739	0.1933
367.882	0.1876
368.09	0.1747
368.2981	0.1962
368.5061	0.1896
368.7141	0.1928
368.9221	0.1859
369.1301	0.1832
369.3381	0.1755
369.5461	0.1786
369.754	0.1855
369.962	0.1939
370.1699	0.181
370.3778	0.1878
370.5857	0.1762
370.7936	0.1807
371.0015	0.1916
371.2093	0.1987
371.4172	0.2027
371.625	0.1883
371.8328	0.1955
372.0406	0.1892
372.2484	0.2042
372.4562	0.2041
372.664	0.2051
372.8717	0.1966
373.0795	0.1805
373.2872	0.1809
373.4949	0.1951
373.7026	0.1963
373.9103	0.1943
374.118	0.2019
374.3256	0.1945
374.5333	0.1895
374.7409	0.1942
374.9485	0.1973
375.1561	0.1943
375.3637	0.196
375.5713	0.2032
375.7789	0.1896
375.9864	0.1966
376.194	0.183
376.4015	0.2051
376.609	0.2118
376.8165	0.1975
377.024	0.2052
377.2315	0.1781
377.4389	0.1961
377.6464	0.2031
377.8538	0.1945
378.0612	0.1887
378.2686	0.1962
378.476	0.2258
378.6834	0.1937
378.8908	0.212
379.0981	0.1901
379.3055	0.2095
379.5128	0.1992
379.7201	0.1948
379.9274	0.1956
380.1347	0.1904
380.342	0.2168
380.5492	0.2004
380.7565	0.1911
380.9637	0.2066
381.1709	0.1816
381.3781	0.1994
381.5853	0.2089
381.7925	0.2019
381.9997	0.2116
382.2068	0.2153
382.4139	0.2207
382.6211	0.1973
382.8282	0.2003
383.0353	0.2186
383.2424	0.2038
383.4494	0.2052
383.6565	0.2096
383.8635	0.2034
384.0706	0.2111
384.2776	0.2196
384.4846	0.2078
384.6916	0.2026
384.8986	0.2036
385.1055	0.2239
385.3125	0.2052
385.5194	0.1759
385.7263	0.2079
385.9333	0.2132
386.1402	0.1813
386.347	0.2021
386.5539	0.1907
386.7608	0.2095
386.9676	0.1839
387.1744	0.2022
387.3813	0.1995
387.5881	0.2095
387.7948	0.2026
388.0016	0.1956
388.2084	0.2024
388.4151	0.1748
388.6219	0.2121
388.8286	0.1872
389.0353	0.2094
389.242	0.1857
389.4487	0.1912
389.6553	0.1931
389.862	0.1684
390.0686	0.1822
390.2753	0.2044
390.4819	0.2017
390.6885	0.1811
390.8951	0.1932
391.1016	0.176
391.3082	0.1851
391.5147	0.1728
391.7213	0.1893
391.9278	0.1775
392.1343	0.1777
392.3408	0.1707
392.5473	0.1621
392.7537	0.1769
392.9602	0.1644
393.1666	0.1785
393.373	0.1764
393.5794	0.1819
393.7858	0.1767
393.9922	0.1629
394.1986	0.1866
394.4049	0.177
394.6113	0.1648
394.8176	0.1573
395.0239	0.167
395.2302	0.1679
395.4365	0.1657
395.6428	0.1661
395.8491	0.1676
396.0553	0.171
396.2615	0.1734
396.4678	0.1567
396.674	0.1528
396.8802	0.1683
397.0863	0.1616
397.2925	0.1494
397.4987	0.1537
397.7048	0.1608
397.9109	0.1568
398.117	0.1566
398.3231	0.1536
398.5292	0.1656
398.7353	0.1671
398.9413	0.1596
399.1474	0.1565
399.3534	0.1576
399.5594	0.1413
399.7654	0.1654
399.9714	0.1651
400.1774	0.1598
400.3833	0.1654
400.5893	0.1735
400.7952	0.1663
401.0011	0.1806
401.207	0.1724
401.4129	0.1572
401.6188	0.162
401.8247	0.1622
402.0305	0.1412
402.2364	0.1542
402.4422	0.1733
402.648	0.1809
402.8538	0.1721
403.0596	0.1494
403.2654	0.1638
403.4711	0.1395
403.6768	0.1667
403.8826	0.1579
404.0883	0.1745
404.294	0.1531
404.4997	0.1526
404.7054	0.1638
404.911	0.1388
405.1167	0.1422
405.3223	0.1792
405.5279	0.1591
405.7335	0.1632
405.9391	0.1681
406.1447	0.1589
406.3502	0.1822
406.5558	0.1598
406.7613	0.164
406.9668	0.1685
407.1724	0.1533
407.3778	0.1522
407.5833	0.1525
407.7888	0.1382
407.9942	0.1604
408.1997	0.1495
408.4051	0.1415
408.6105	0.1496
408.8159	0.1573
409.0213	0.145
409.2267	0.1604
409.432	0.1565
409.6374	0.1611
409.8427	0.1431
410.048	0.1627
410.2533	0.1562
410.4586	0.1588
410.6639	0.1631
410.8691	0.1462
411.0744	0.1537
411.2796	0.1304
411.4848	0.1638
411.69	0.1545
411.8952	0.157
412.1004	0.139
412.3056	0.1523
412.5107	0.1426
412.7158	0.1475
412.921	0.1494
413.1261	0.1654
413.3312	0.1364
413.5362	0.1456
413.7413	0.1445
413.9464	0.148
414.1514	0.1322
414.3564	0.1351
414.5614	0.1488
414.7664	0.1339
414.9714	0.1362
415.1764	0.1502
415.3813	0.1622
415.5863	0.1303
415.7912	0.1585
415.9961	0.1501
416.201	0.1491
416.4059	0.1479
416.6108	0.1441
416.8156	0.1695
417.0205	0.1341
417.2253	0.1398
417.4301	0.1505
417.6349	0.1369
417.8397	0.1298
418.0445	0.1431
418.2492	0.1547
418.454	0.1487
418.6587	0.1497
418.8634	0.1459
419.0681	0.1329
419.2728	0.1358
419.4775	0.1339
419.6822	0.1263
419.8868	0.1323
420.0915	0.1565
420.2961	0.1243
420.5007	0.1273
420.7053	0.1394
420.9099	0.1379
421.1144	0.1469
421.319	0.1263
421.5235	0.1409
421.728	0.1306
421.9325	0.1359
422.137	0.1465
422.3415	0.1264
422.546	0.1437
422.7504	0.1188
422.9549	0.1376
423.1593	0.1316
423.3637	0.1423
423.5681	0.1229
423.7725	0.122
423.9769	0.1179
424.1812	0.1122
424.3856	0.1189
424.5899	0.1247
424.7942	0.1078
424.9985	0.1428
425.2028	0.1297
425.4071	0.1432
425.6113	0.1131
425.8156	0.1208
426.0198	0.1176
426.224	0.1031
426.4282	0.1088
426.6324	0.1115
