Data from MonoPyChalIsomerACN10uM420nmA_Absorbance_15-09-54-335.txt Node
Date: Fri Jul 05 15:09:54 BST 2024
User: LASERRRRR
Spectrometer: FLMT03099
Trigger mode: 0
Integration Time (sec): 1.000000E-1
Scans to average: 1
Electric dark correction enabled: true
Nonlinearity correction enabled: false
Boxcar width: 0
XAxis mode: Wavelengths
Number of Pixels in Spectrum: 3648
>>>>>Begin Spectral Data<<<<<
179.3399	0.5136
179.5586	0.5136
179.7771	0.5136
179.9957	0.1146
180.2143	-0.447
180.4329	-0.2532
180.6514	-0.0404
180.8699	-0.3557
181.0885	0.1755
181.307	0.4118
181.5255	-0
181.744	-0.5441
181.9625	-0.0523
182.181	-0.5718
182.3994	-0
182.6179	-0.1412
182.8363	0.0534
183.0547	0.3827
183.2732	0.0514
183.4916	0.3191
183.71	0.0244
183.9284	0.5371
184.1467	-0.1217
184.3651	-0.0137
184.5835	-0.1634
184.8018	0.1487
185.0201	0.2419
185.2385	0.1443
185.4568	0.1511
185.6751	-0.0275
185.8934	0.0473
186.1117	0.3162
186.3299	0.2694
186.5482	0.0426
186.7664	0.0785
186.9847	0.2965
187.2029	0.1154
187.4211	0.1457
187.6393	0.334
187.8575	-0.0282
188.0757	0.2623
188.2939	0.2319
188.512	-0.0522
188.7302	0.0987
188.9483	0.2885
189.1665	0.223
189.3846	-0.2074
189.6027	0.2197
189.8208	0.4165
190.0389	0.1605
190.257	0.0407
190.475	0.4868
190.6931	0.5247
190.9111	0.2077
191.1292	0.0405
191.3472	0.4789
191.5652	0.4228
191.7832	0.2906
192.0012	0.7732
192.2192	0.4668
192.4371	0.4825
192.6551	0.3399
192.873	0.4874
193.091	0.4583
193.3089	0.4812
193.5268	0.4591
193.7447	0.6171
193.9626	0.4193
194.1805	0.7314
194.3984	0.8131
194.6162	0.4744
194.8341	0.4831
195.0519	0.6614
195.2697	0.832
195.4875	0.6644
195.7054	0.7929
195.9231	0.5373
196.1409	0.6481
196.3587	0.7176
196.5765	0.5476
196.7942	0.5746
197.012	0.8312
197.2297	0.4568
197.4474	0.7329
197.6651	0.7438
197.8828	0.6867
198.1005	0.6508
198.3182	0.6742
198.5358	0.7055
198.7535	0.75
198.9711	0.6257
199.1888	0.6661
199.4064	0.7852
199.624	0.7028
199.8416	0.6765
200.0592	0.6137
200.2767	0.8455
200.4943	0.7754
200.7119	0.7857
200.9294	0.7206
201.1469	0.5976
201.3645	0.5306
201.582	0.6292
201.7995	0.7021
202.017	0.7216
202.2344	0.542
202.4519	0.5919
202.6694	0.73
202.8868	0.6999
203.1042	0.753
203.3217	0.7447
203.5391	0.6449
203.7565	0.6015
203.9739	0.7058
204.1913	0.5987
204.4086	0.6969
204.626	0.7116
204.8433	0.6738
205.0607	0.6463
205.278	0.7236
205.4953	0.6548
205.7126	0.7418
205.9299	0.8604
206.1472	0.8383
206.3644	0.6601
206.5817	0.7751
206.7989	0.7659
207.0162	0.6692
207.2334	0.7324
207.4506	0.7167
207.6678	0.6458
207.885	0.6461
208.1022	0.6899
208.3194	0.6662
208.5365	0.7914
208.7537	0.6322
208.9708	0.6345
209.1879	0.6326
209.405	0.7841
209.6222	0.7652
209.8392	0.6627
210.0563	0.6621
210.2734	0.6382
210.4905	0.6463
210.7075	0.7208
210.9245	0.5661
211.1416	0.6939
211.3586	0.6071
211.5756	0.643
211.7926	0.6207
212.0096	0.6065
212.2265	0.6227
212.4435	0.5722
212.6604	0.6374
212.8774	0.6032
213.0943	0.6177
213.3112	0.5831
213.5281	0.5583
213.745	0.5061
213.9619	0.5104
214.1788	0.5144
214.3956	0.4373
214.6125	0.472
214.8293	0.4774
215.0461	0.4821
215.2629	0.5055
215.4798	0.4585
215.6965	0.4276
215.9133	0.4246
216.1301	0.4184
216.3469	0.4689
216.5636	0.4217
216.7803	0.3752
216.9971	0.4243
217.2138	0.349
217.4305	0.3729
217.6472	0.3768
217.8639	0.3776
218.0805	0.3487
218.2972	0.335
218.5138	0.2938
218.7305	0.3441
218.9471	0.3152
219.1637	0.3045
219.3803	0.2945
219.5969	0.2788
219.8135	0.2686
220.0301	0.2816
220.2466	0.2757
220.4632	0.2715
220.6797	0.2423
220.8962	0.243
221.1127	0.2406
221.3292	0.241
221.5457	0.2349
221.7622	0.2305
221.9787	0.2547
222.1951	0.2467
222.4116	0.2654
222.628	0.2527
222.8444	0.2562
223.0608	0.2708
223.2772	0.271
223.4936	0.2644
223.71	0.2594
223.9264	0.2715
224.1427	0.284
224.3591	0.2511
224.5754	0.2718
224.7917	0.2762
225.008	0.2616
225.2243	0.2682
225.4406	0.2998
225.6569	0.2451
225.8732	0.2463
226.0894	0.2879
226.3057	0.2651
226.5219	0.2823
226.7381	0.2715
226.9543	0.2903
227.1705	0.2813
227.3867	0.2783
227.6029	0.3054
227.8191	0.2937
228.0352	0.2788
228.2513	0.3068
228.4675	0.3167
228.6836	0.3031
228.8997	0.3002
229.1158	0.3009
229.3319	0.3351
229.548	0.308
229.764	0.3276
229.9801	0.3214
230.1961	0.3182
230.4121	0.3316
230.6282	0.3257
230.8442	0.3391
231.0602	0.3451
231.2761	0.3685
231.4921	0.3382
231.7081	0.3506
231.924	0.3729
232.14	0.3559
232.3559	0.3499
232.5718	0.3727
232.7877	0.3576
233.0036	0.3453
233.2195	0.3518
233.4353	0.3652
233.6512	0.3704
233.867	0.3752
234.0829	0.3611
234.2987	0.3567
234.5145	0.3754
234.7303	0.3627
234.9461	0.3959
235.1619	0.3865
235.3776	0.3858
235.5934	0.3739
235.8091	0.3738
236.0249	0.3739
236.2406	0.3996
236.4563	0.3876
236.672	0.3723
236.8877	0.4152
237.1034	0.3998
237.319	0.4071
237.5347	0.4038
237.7503	0.3906
237.966	0.4072
238.1816	0.4186
238.3972	0.3875
238.6128	0.3979
238.8284	0.4047
239.0439	0.4226
239.2595	0.3932
239.475	0.4177
239.6906	0.4107
239.9061	0.4078
240.1216	0.3998
240.3371	0.4135
240.5526	0.4023
240.7681	0.4261
240.9836	0.3898
241.199	0.3982
241.4145	0.4164
241.6299	0.3921
241.8453	0.3891
242.0607	0.3913
242.2761	0.3683
242.4915	0.3907
242.7069	0.3877
242.9223	0.3843
243.1376	0.3681
243.353	0.3825
243.5683	0.3638
243.7836	0.3524
243.9989	0.3658
244.2142	0.3377
244.4295	0.3374
244.6448	0.3446
244.86	0.3103
245.0753	0.3173
245.2905	0.3111
245.5057	0.2921
245.721	0.3095
245.9362	0.2916
246.1514	0.2887
246.3665	0.2656
246.5817	0.295
246.7969	0.2543
247.012	0.2627
247.2271	0.2525
247.4423	0.254
247.6574	0.2572
247.8725	0.2456
248.0876	0.2472
248.3026	0.2469
248.5177	0.231
248.7328	0.2358
248.9478	0.2182
249.1628	0.2318
249.3779	0.242
249.5929	0.2125
249.8079	0.2366
250.0228	0.2277
250.2378	0.2119
250.4528	0.2283
250.6677	0.1939
250.8827	0.2081
251.0976	0.2117
251.3125	0.2034
251.5274	0.1916
251.7423	0.1992
251.9572	0.1947
252.172	0.1944
252.3869	0.1856
252.6017	0.1884
252.8166	0.1717
253.0314	0.1788
253.2462	0.184
253.461	0.201
253.6758	0.1741
253.8906	0.1811
254.1053	0.1849
254.3201	0.1881
254.5348	0.182
254.7496	0.1929
254.9643	0.186
255.179	0.1807
255.3937	0.1687
255.6083	0.1703
255.823	0.1794
256.0377	0.1742
256.2523	0.1808
256.467	0.1659
256.6816	0.1903
256.8962	0.1707
257.1108	0.1654
257.3254	0.1757
257.54	0.1655
257.7545	0.1706
257.9691	0.1925
258.1836	0.1639
258.3981	0.178
258.6127	0.1917
258.8272	0.1637
259.0417	0.166
259.2561	0.1764
259.4706	0.1712
259.6851	0.1766
259.8995	0.1694
260.114	0.1679
260.3284	0.165
260.5428	0.1704
260.7572	0.18
260.9716	0.1754
261.186	0.1606
261.4003	0.1634
261.6147	0.171
261.829	0.1798
262.0433	0.1852
262.2577	0.1694
262.472	0.1744
262.6863	0.1659
262.9005	0.1727
263.1148	0.1828
263.3291	0.1514
263.5433	0.1679
263.7576	0.1729
263.9718	0.1778
264.186	0.1801
264.4002	0.1604
264.6144	0.1684
264.8286	0.1702
265.0427	0.1704
265.2569	0.1692
265.471	0.168
265.6851	0.1674
265.8993	0.1705
266.1134	0.1668
266.3275	0.1786
266.5415	0.1693
266.7556	0.1911
266.9697	0.1665
267.1837	0.1763
267.3978	0.176
267.6118	0.1814
267.8258	0.193
268.0398	0.1616
268.2538	0.1794
268.4677	0.1822
268.6817	0.1646
268.8957	0.1818
269.1096	0.1789
269.3235	0.1785
269.5374	0.1631
269.7514	0.1648
269.9652	0.1669
270.1791	0.1638
270.393	0.1585
270.6068	0.1608
270.8207	0.1664
271.0345	0.164
271.2483	0.1729
271.4622	0.1658
271.676	0.1868
271.8897	0.1553
272.1035	0.1492
272.3173	0.1487
272.531	0.1546
272.7448	0.156
272.9585	0.1522
273.1722	0.1655
273.3859	0.1722
273.5996	0.1552
273.8133	0.1532
274.0269	0.1607
274.2406	0.1623
274.4542	0.1703
274.6679	0.1501
274.8815	0.1526
275.0951	0.1652
275.3087	0.1739
275.5223	0.172
275.7358	0.1808
275.9494	0.1744
276.1629	0.1499
276.3765	0.1615
276.59	0.1618
276.8035	0.172
277.017	0.1676
277.2305	0.1655
277.444	0.1706
277.6574	0.1564
277.8709	0.1681
278.0843	0.161
278.2978	0.1739
278.5112	0.1577
278.7246	0.1728
278.938	0.1607
279.1513	0.1661
279.3647	0.1683
279.5781	0.1645
279.7914	0.1641
280.0047	0.1705
280.2181	0.1765
280.4314	0.1698
280.6447	0.1683
280.8579	0.1589
281.0712	0.1794
281.2845	0.1787
281.4977	0.1769
281.711	0.167
281.9242	0.1679
282.1374	0.1734
282.3506	0.1601
282.5638	0.1763
282.7769	0.1678
282.9901	0.1742
283.2033	0.1783
283.4164	0.1739
283.6295	0.1588
283.8426	0.1598
284.0557	0.1756
284.2688	0.1798
284.4819	0.1744
284.695	0.1639
284.908	0.1779
285.1211	0.1596
285.3341	0.1729
285.5471	0.1718
285.7601	0.1626
285.9731	0.1614
286.1861	0.1627
286.3991	0.1734
286.612	0.172
286.825	0.1583
287.0379	0.1737
287.2508	0.1676
287.4637	0.1687
287.6766	0.1708
287.8895	0.1717
288.1024	0.1815
288.3152	0.1738
288.5281	0.1488
288.7409	0.1658
288.9538	0.1493
289.1666	0.1574
289.3794	0.1683
289.5922	0.155
289.8049	0.1548
290.0177	0.1683
290.2304	0.171
290.4432	0.1801
290.6559	0.1678
290.8686	0.1706
291.0813	0.1555
291.294	0.1605
291.5067	0.1668
291.7194	0.1562
291.932	0.1681
292.1447	0.1529
292.3573	0.1556
292.5699	0.1596
292.7825	0.1539
292.9951	0.1493
293.2077	0.1568
293.4203	0.1503
293.6328	0.1478
293.8454	0.1628
294.0579	0.1585
294.2704	0.1525
294.4829	0.1529
294.6954	0.1649
294.9079	0.1602
295.1204	0.1537
295.3328	0.1331
295.5453	0.1592
295.7577	0.1565
295.9701	0.1515
296.1825	0.1637
296.3949	0.1554
296.6073	0.1455
296.8197	0.1491
297.0321	0.1631
297.2444	0.1407
297.4567	0.1492
297.6691	0.1553
297.8814	0.1512
298.0937	0.1507
298.306	0.1529
298.5182	0.1528
298.7305	0.1617
298.9428	0.1607
299.155	0.1581
299.3672	0.1449
299.5794	0.1478
299.7916	0.1574
300.0038	0.1481
300.216	0.1555
300.4282	0.1624
300.6403	0.1528
300.8525	0.1657
301.0646	0.1382
301.2767	0.1571
301.4888	0.1482
301.7009	0.1601
301.913	0.1541
302.125	0.1574
302.3371	0.1559
302.5491	0.1456
302.7612	0.1574
302.9732	0.1612
303.1852	0.1603
303.3972	0.1551
303.6092	0.1489
303.8211	0.1439
304.0331	0.1506
304.245	0.1358
304.457	0.1484
304.6689	0.1497
304.8808	0.158
305.0927	0.1311
305.3046	0.1438
305.5164	0.1453
305.7283	0.1465
305.9401	0.1461
306.152	0.1427
306.3638	0.1526
306.5756	0.1485
306.7874	0.1394
306.9992	0.1419
307.2109	0.1347
307.4227	0.1267
307.6344	0.1417
307.8462	0.1376
308.0579	0.1316
308.2696	0.1274
308.4813	0.1301
308.693	0.1396
308.9046	0.1279
309.1163	0.1295
309.328	0.1195
309.5396	0.1266
309.7512	0.1281
309.9628	0.1243
310.1744	0.1185
310.386	0.1276
310.5976	0.1163
310.8091	0.1187
311.0207	0.1213
311.2322	0.1138
311.4437	0.1134
311.6552	0.1127
311.8667	0.1262
312.0782	0.1071
312.2897	0.1111
312.5012	0.1137
312.7126	0.1224
312.924	0.1111
313.1355	0.1204
313.3469	0.1166
313.5583	0.1197
313.7696	0.1116
313.981	0.1195
314.1924	0.1099
314.4037	0.0988
314.6151	0.1206
314.8264	0.1025
315.0377	0.112
315.249	0.1188
315.4603	0.1265
315.6716	0.1096
315.8828	0.103
316.0941	0.1107
316.3053	0.1267
316.5165	0.1126
316.7277	0.1015
316.9389	0.1158
317.1501	0.105
317.3613	0.1103
317.5724	0.109
317.7836	0.1113
317.9947	0.1078
318.2058	0.1096
318.417	0.1037
318.6281	0.0941
318.8391	0.1102
319.0502	0.1175
319.2613	0.1038
319.4723	0.1119
319.6834	0.1241
319.8944	0.1045
320.1054	0.1135
320.3164	0.1142
320.5274	0.1107
320.7383	0.103
320.9493	0.1223
321.1602	0.1187
321.3712	0.0996
321.5821	0.1187
321.793	0.1185
322.0039	0.1056
322.2148	0.1119
322.4257	0.1149
322.6365	0.1186
322.8474	0.1186
323.0582	0.1108
323.269	0.1246
323.4798	0.1307
323.6906	0.1146
323.9014	0.1234
324.1122	0.1188
324.3229	0.118
324.5337	0.1258
324.7444	0.1063
324.9551	0.1151
325.1658	0.114
325.3765	0.115
325.5872	0.1103
325.7979	0.1207
326.0085	0.1186
326.2192	0.1252
326.4298	0.1091
326.6404	0.1027
326.851	0.1186
327.0616	0.1115
327.2722	0.1193
327.4828	0.1214
327.6933	0.1068
327.9039	0.1224
328.1144	0.1318
328.3249	0.1282
328.5354	0.1132
328.7459	0.1241
328.9564	0.0967
329.1669	0.1206
329.3773	0.1091
329.5878	0.116
329.7982	0.1196
330.0086	0.1164
330.219	0.1321
330.4294	0.1136
330.6398	0.1236
330.8502	0.1183
331.0605	0.1213
331.2708	0.1281
331.4812	0.1221
331.6915	0.1091
331.9018	0.1216
332.1121	0.1247
332.3224	0.1279
332.5326	0.1255
332.7429	0.1236
332.9531	0.1339
333.1633	0.1193
333.3735	0.118
333.5837	0.1241
333.7939	0.1161
334.0041	0.1315
334.2143	0.1248
334.4244	0.1236
334.6346	0.1102
334.8447	0.1275
335.0548	0.1172
335.2649	0.1213
335.475	0.1201
335.685	0.1305
335.8951	0.1411
336.1051	0.1254
336.3152	0.13
336.5252	0.1211
336.7352	0.1201
336.9452	0.1232
337.1552	0.1317
337.3652	0.1181
337.5751	0.1212
337.7851	0.1256
337.995	0.1312
338.2049	0.1189
338.4148	0.1254
338.6247	0.1309
338.8346	0.122
339.0445	0.1207
339.2543	0.1189
339.4642	0.1185
339.674	0.1162
339.8838	0.1339
340.0936	0.127
340.3034	0.1468
340.5132	0.1392
340.7229	0.1284
340.9327	0.1259
341.1424	0.1149
341.3522	0.1304
341.5619	0.1463
341.7716	0.1508
341.9813	0.152
342.1909	0.1349
342.4006	0.1326
342.6102	0.1418
342.8199	0.1393
343.0295	0.1351
343.2391	0.1324
343.4487	0.1516
343.6583	0.1432
343.8679	0.1495
344.0774	0.1437
344.287	0.1485
344.4965	0.1386
344.706	0.145
344.9155	0.1319
345.125	0.1354
345.3345	0.1515
345.544	0.1291
345.7534	0.1462
345.9629	0.1324
346.1723	0.1456
346.3817	0.1373
346.5911	0.1387
346.8005	0.1516
347.0099	0.1302
347.2193	0.1498
347.4286	0.1348
347.638	0.1492
347.8473	0.1395
348.0566	0.156
348.2659	0.1493
348.4752	0.1392
348.6845	0.1378
348.8937	0.1361
349.103	0.1602
349.3122	0.136
349.5214	0.1414
349.7306	0.146
349.9398	0.1363
350.149	0.1464
350.3582	0.1328
350.5674	0.1604
350.7765	0.1469
350.9856	0.137
351.1948	0.1685
351.4039	0.1374
351.613	0.1416
351.822	0.1565
352.0311	0.1498
352.2402	0.1429
352.4492	0.1566
352.6582	0.1695
352.8672	0.1425
353.0762	0.1536
353.2852	0.149
353.4942	0.1419
353.7032	0.16
353.9121	0.1618
354.1211	0.1539
354.33	0.1625
354.5389	0.1598
354.7478	0.1656
354.9567	0.1642
355.1655	0.1512
355.3744	0.1649
355.5833	0.1687
355.7921	0.1752
356.0009	0.1591
356.2097	0.1674
356.4185	0.1678
356.6273	0.1724
356.8361	0.1635
357.0448	0.1583
357.2536	0.1553
357.4623	0.1622
357.671	0.1713
357.8797	0.1726
358.0884	0.1668
358.2971	0.1563
358.5057	0.1807
358.7144	0.1729
358.923	0.1738
359.1316	0.1681
359.3402	0.1641
359.5488	0.18
359.7574	0.1569
359.966	0.1658
360.1746	0.1785
360.3831	0.1813
360.5916	0.1646
360.8002	0.1615
361.0087	0.1753
361.2172	0.1804
361.4256	0.1788
361.6341	0.1816
361.8426	0.1717
362.051	0.1879
362.2594	0.1753
362.4678	0.174
362.6762	0.1992
362.8846	0.1868
363.093	0.1655
363.3014	0.1836
363.5097	0.1623
363.718	0.1797
363.9264	0.1803
364.1347	0.1861
364.343	0.188
364.5513	0.1948
364.7595	0.1958
364.9678	0.1884
365.176	0.1982
365.3842	0.1875
365.5925	0.1816
365.8007	0.2043
366.0089	0.199
366.217	0.1759
366.4252	0.1996
366.6333	0.1996
366.8415	0.2019
367.0496	0.1907
367.2577	0.1922
367.4658	0.2093
367.6739	0.1958
367.882	0.2118
368.09	0.1864
368.2981	0.2057
368.5061	0.1901
368.7141	0.1871
368.9221	0.1984
369.1301	0.1974
369.3381	0.1982
369.5461	0.1923
369.754	0.1965
369.962	0.2021
370.1699	0.1922
370.3778	0.207
370.5857	0.1812
370.7936	0.2026
371.0015	0.2028
371.2093	0.1973
371.4172	0.2042
371.625	0.1863
371.8328	0.1876
372.0406	0.2009
372.2484	0.2043
372.4562	0.2075
372.664	0.2016
372.8717	0.2108
373.0795	0.1937
373.2872	0.2033
373.4949	0.2084
373.7026	0.1958
373.9103	0.2104
374.118	0.2028
374.3256	0.2189
374.5333	0.2035
374.7409	0.193
374.9485	0.2154
375.1561	0.2213
375.3637	0.2109
375.5713	0.2065
375.7789	0.2066
375.9864	0.2055
376.194	0.2208
376.4015	0.2218
376.609	0.2267
376.8165	0.2088
377.024	0.2029
377.2315	0.1934
377.4389	0.2046
377.6464	0.2209
377.8538	0.2142
378.0612	0.2193
378.2686	0.2241
378.476	0.2113
378.6834	0.208
378.8908	0.2176
379.0981	0.2136
379.3055	0.2219
379.5128	0.2162
379.7201	0.2366
379.9274	0.2163
380.1347	0.2055
380.342	0.2332
380.5492	0.2133
380.7565	0.2113
380.9637	0.2077
381.1709	0.2137
381.3781	0.203
381.5853	0.2272
381.7925	0.2298
381.9997	0.227
382.2068	0.2213
382.4139	0.2169
382.6211	0.204
382.8282	0.228
383.0353	0.2151
383.2424	0.2263
383.4494	0.2216
383.6565	0.2097
383.8635	0.2288
384.0706	0.2188
384.2776	0.2285
384.4846	0.2075
384.6916	0.2144
384.8986	0.2099
385.1055	0.2187
385.3125	0.215
385.5194	0.198
385.7263	0.2235
385.9333	0.2144
386.1402	0.2146
386.347	0.2205
386.5539	0.2144
386.7608	0.2175
386.9676	0.1966
387.1744	0.2332
387.3813	0.2102
387.5881	0.2269
387.7948	0.2147
388.0016	0.2154
388.2084	0.2155
388.4151	0.2093
388.6219	0.2132
388.8286	0.2013
389.0353	0.2265
389.242	0.2115
389.4487	0.1978
389.6553	0.1936
389.862	0.1977
390.0686	0.2166
390.2753	0.2201
390.4819	0.219
390.6885	0.2014
390.8951	0.2044
391.1016	0.204
391.3082	0.1978
391.5147	0.209
391.7213	0.2072
391.9278	0.1956
392.1343	0.2038
392.3408	0.1923
392.5473	0.1871
392.7537	0.2063
392.9602	0.2002
393.1666	0.1942
393.373	0.1981
393.5794	0.211
393.7858	0.21
393.9922	0.1866
394.1986	0.2036
394.4049	0.1874
394.6113	0.1838
394.8176	0.1695
395.0239	0.1889
395.2302	0.206
395.4365	0.192
395.6428	0.1901
395.8491	0.1836
396.0553	0.1876
396.2615	0.1849
396.4678	0.1784
396.674	0.1639
396.8802	0.1826
397.0863	0.1894
397.2925	0.1864
397.4987	0.1836
397.7048	0.1799
397.9109	0.1836
398.117	0.1785
398.3231	0.1775
398.5292	0.1958
398.7353	0.1881
398.9413	0.1776
399.1474	0.1686
399.3534	0.1843
399.5594	0.1564
399.7654	0.1832
399.9714	0.2049
400.1774	0.183
400.3833	0.1661
400.5893	0.1709
400.7952	0.1818
401.0011	0.1725
401.207	0.188
401.4129	0.1745
401.6188	0.188
401.8247	0.201
402.0305	0.1647
402.2364	0.1858
402.4422	0.1817
402.648	0.1839
402.8538	0.207
403.0596	0.1671
403.2654	0.1909
403.4711	0.1589
403.6768	0.1854
403.8826	0.1871
404.0883	0.1906
404.294	0.1941
404.4997	0.1748
404.7054	0.1862
404.911	0.1753
405.1167	0.1802
405.3223	0.1915
405.5279	0.1816
405.7335	0.1877
405.9391	0.1844
406.1447	0.1871
406.3502	0.1821
406.5558	0.1776
406.7613	0.1691
406.9668	0.1841
407.1724	0.164
407.3778	0.1706
407.5833	0.18
407.7888	0.151
407.9942	0.1833
408.1997	0.1724
408.4051	0.167
408.6105	0.1761
408.8159	0.1566
409.0213	0.1735
409.2267	0.1786
409.432	0.1747
409.6374	0.1735
409.8427	0.1655
410.048	0.1708
410.2533	0.1636
410.4586	0.1762
410.6639	0.1526
410.8691	0.1724
411.0744	0.1719
411.2796	0.1801
411.4848	0.1795
411.69	0.1575
411.8952	0.1949
412.1004	0.1673
412.3056	0.1939
412.5107	0.1681
412.7158	0.1865
412.921	0.1709
413.1261	0.1569
413.3312	0.1596
413.5362	0.1552
413.7413	0.153
413.9464	0.175
414.1514	0.1678
414.3564	0.1545
414.5614	0.15
414.7664	0.1765
414.9714	0.1748
415.1764	0.1676
415.3813	0.1757
415.5863	0.1507
415.7912	0.1701
415.9961	0.1694
416.201	0.179
416.4059	0.1629
416.6108	0.1581
416.8156	0.1649
417.0205	0.1625
417.2253	0.1595
417.4301	0.1747
417.6349	0.1705
417.8397	0.1509
418.0445	0.152
418.2492	0.1719
418.454	0.1634
418.6587	0.1599
418.8634	0.1583
419.0681	0.1584
419.2728	0.1601
419.4775	0.154
419.6822	0.1499
419.8868	0.1456
420.0915	0.1648
420.2961	0.1419
420.5007	0.1524
420.7053	0.1507
420.9099	0.1637
421.1144	0.1447
421.319	0.1451
421.5235	0.1604
421.728	0.1503
421.9325	0.1468
422.137	0.1572
422.3415	0.1616
422.546	0.1556
422.7504	0.1537
422.9549	0.1637
423.1593	0.1467
423.3637	0.1476
423.5681	0.1416
423.7725	0.1366
423.9769	0.1485
424.1812	0.1294
424.3856	0.1447
424.5899	0.1416
424.7942	0.134
424.9985	0.1454
425.2028	0.1311
425.4071	0.1467
425.6113	0.1308
425.8156	0.1423
426.0198	0.131
426.224	0.1294
