Data from MonoPyChalIsomerACN10uM420nmA_Absorbance_15-09-57-334.txt Node
Date: Fri Jul 05 15:09:57 BST 2024
User: LASERRRRR
Spectrometer: FLMT03099
Trigger mode: 0
Integration Time (sec): 1.000000E-1
Scans to average: 1
Electric dark correction enabled: true
Nonlinearity correction enabled: false
Boxcar width: 0
XAxis mode: Wavelengths
Number of Pixels in Spectrum: 3648
>>>>>Begin Spectral Data<<<<<
179.3399	0.1489
179.5586	0.1489
179.7771	0.1489
179.9957	-0
180.2143	-0
180.4329	-0.1514
180.6514	0.4375
180.8699	-0
181.0885	-0.172
181.307	0.6909
181.5255	-0.6657
181.744	-0
181.9625	-0
182.181	-0
182.3994	-0
182.6179	0.4726
182.8363	0.2211
183.0547	-0.3781
183.2732	-0.1636
183.4916	0.3722
183.71	-0.0635
183.9284	0.053
184.1467	0.0548
184.3651	-0.0958
184.5835	-0.1331
184.8018	-0.1662
185.0201	-0.0214
185.2385	-0.0076
185.4568	0.0743
185.6751	0.0931
185.8934	0.1019
186.1117	0.1374
186.3299	-0.0595
186.5482	0.2915
186.7664	-0.2153
186.9847	-0.1475
187.2029	-0.0733
187.4211	0.1387
187.6393	-0.0706
187.8575	-0.121
188.0757	0.2239
188.2939	-0.0421
188.512	0.0741
188.7302	0.1246
188.9483	-0.1472
189.1665	0.0821
189.3846	-0.1879
189.6027	0.0303
189.8208	0.121
190.0389	-0.0268
190.257	0.0979
190.475	0.1226
190.6931	0.2663
190.9111	0.3213
191.1292	0.2049
191.3472	0.3027
191.5652	0.2754
191.7832	0.123
192.0012	0.5087
192.2192	0.4348
192.4371	0.3511
192.6551	0.3604
192.873	0.3037
193.091	0.3166
193.3089	0.4066
193.5268	0.4157
193.7447	0.2922
193.9626	0.3687
194.1805	0.4323
194.3984	0.753
194.6162	0.5168
194.8341	0.4737
195.0519	0.5433
195.2697	0.6528
195.4875	0.6779
195.7054	0.5278
195.9231	0.5215
196.1409	0.5822
196.3587	0.5904
196.5765	0.5005
196.7942	0.4605
197.012	0.538
197.2297	0.5559
197.4474	0.6633
197.6651	0.5829
197.8828	0.5106
198.1005	0.6135
198.3182	0.6602
198.5358	0.7858
198.7535	0.6399
198.9711	0.5963
199.1888	0.5233
199.4064	0.7062
199.624	0.7477
199.8416	0.4543
200.0592	0.5512
200.2767	0.6757
200.4943	0.5395
200.7119	0.8115
200.9294	0.5985
201.1469	0.5678
201.3645	0.5904
201.582	0.5918
201.7995	0.6445
202.017	0.5671
202.2344	0.5232
202.4519	0.6866
202.6694	0.5454
202.8868	0.6336
203.1042	0.7607
203.3217	0.663
203.5391	0.5538
203.7565	0.6315
203.9739	0.5724
204.1913	0.5701
204.4086	0.7396
204.626	0.7323
204.8433	0.6254
205.0607	0.6247
205.278	0.7433
205.4953	0.5454
205.7126	0.7992
205.9299	0.7201
206.1472	0.7435
206.3644	0.5777
206.5817	0.6294
206.7989	0.6136
207.0162	0.6384
207.2334	0.642
207.4506	0.591
207.6678	0.6165
207.885	0.6784
208.1022	0.6434
208.3194	0.6383
208.5365	0.6948
208.7537	0.669
208.9708	0.5941
209.1879	0.6286
209.405	0.7131
209.6222	0.6783
209.8392	0.6475
210.0563	0.6436
210.2734	0.6433
210.4905	0.6425
210.7075	0.6043
210.9245	0.5666
211.1416	0.6392
211.3586	0.6154
211.5756	0.5865
211.7926	0.5466
212.0096	0.5589
212.2265	0.5919
212.4435	0.601
212.6604	0.55
212.8774	0.5746
213.0943	0.6262
213.3112	0.5295
213.5281	0.5014
213.745	0.5205
213.9619	0.5008
214.1788	0.4694
214.3956	0.4755
214.6125	0.5024
214.8293	0.4296
215.0461	0.4738
215.2629	0.4484
215.4798	0.49
215.6965	0.4265
215.9133	0.3846
216.1301	0.4043
216.3469	0.4356
216.5636	0.3841
216.7803	0.4149
216.9971	0.3573
217.2138	0.3796
217.4305	0.4019
217.6472	0.3469
217.8639	0.3688
218.0805	0.3337
218.2972	0.3516
218.5138	0.3292
218.7305	0.3138
218.9471	0.3057
219.1637	0.2782
219.3803	0.2711
219.5969	0.2914
219.8135	0.2198
220.0301	0.2631
220.2466	0.2657
220.4632	0.2628
220.6797	0.2184
220.8962	0.2401
221.1127	0.2573
221.3292	0.2381
221.5457	0.2556
221.7622	0.2201
221.9787	0.242
222.1951	0.222
222.4116	0.2733
222.628	0.247
222.8444	0.2507
223.0608	0.2466
223.2772	0.239
223.4936	0.2683
223.71	0.2327
223.9264	0.2543
224.1427	0.2315
224.3591	0.221
224.5754	0.2475
224.7917	0.2619
225.008	0.2467
225.2243	0.2369
225.4406	0.2603
225.6569	0.2629
225.8732	0.2421
226.0894	0.2699
226.3057	0.272
226.5219	0.2711
226.7381	0.2716
226.9543	0.2856
227.1705	0.2809
227.3867	0.2661
227.6029	0.2968
227.8191	0.2897
228.0352	0.3054
228.2513	0.3002
228.4675	0.3029
228.6836	0.2994
228.8997	0.2809
229.1158	0.3108
229.3319	0.2945
229.548	0.2987
229.764	0.3215
229.9801	0.3151
230.1961	0.3307
230.4121	0.3213
230.6282	0.3351
230.8442	0.3115
231.0602	0.3434
231.2761	0.3507
231.4921	0.3119
231.7081	0.3433
231.924	0.3423
232.14	0.343
232.3559	0.3495
232.5718	0.357
232.7877	0.3684
233.0036	0.3381
233.2195	0.3606
233.4353	0.3327
233.6512	0.3317
233.867	0.3622
234.0829	0.3658
234.2987	0.3831
234.5145	0.3711
234.7303	0.3612
234.9461	0.3938
235.1619	0.3658
235.3776	0.3607
235.5934	0.3879
235.8091	0.3523
236.0249	0.3756
236.2406	0.3725
236.4563	0.3773
236.672	0.3853
236.8877	0.3972
237.1034	0.3911
237.319	0.3814
237.5347	0.3873
237.7503	0.4007
237.966	0.3878
238.1816	0.3974
238.3972	0.4025
238.6128	0.4072
238.8284	0.3982
239.0439	0.3992
239.2595	0.4091
239.475	0.42
239.6906	0.3998
239.9061	0.4048
240.1216	0.4123
240.3371	0.3947
240.5526	0.3875
240.7681	0.4188
240.9836	0.3952
241.199	0.4035
241.4145	0.3998
241.6299	0.3864
241.8453	0.3906
242.0607	0.4093
242.2761	0.3743
242.4915	0.3806
242.7069	0.3857
242.9223	0.376
243.1376	0.371
243.353	0.3747
243.5683	0.3848
243.7836	0.3669
243.9989	0.3532
244.2142	0.3232
244.4295	0.3371
244.6448	0.3387
244.86	0.3169
245.0753	0.3194
245.2905	0.3161
245.5057	0.3029
245.721	0.3025
245.9362	0.2945
246.1514	0.2934
246.3665	0.2852
246.5817	0.2866
246.7969	0.2715
247.012	0.2677
247.2271	0.269
247.4423	0.2652
247.6574	0.2683
247.8725	0.2494
248.0876	0.2595
248.3026	0.2436
248.5177	0.2448
248.7328	0.2419
248.9478	0.2237
249.1628	0.2462
249.3779	0.235
249.5929	0.2125
249.8079	0.2306
250.0228	0.2112
250.2378	0.2097
250.4528	0.2221
250.6677	0.195
250.8827	0.2125
251.0976	0.2092
251.3125	0.1946
251.5274	0.1931
251.7423	0.2016
251.9572	0.1923
252.172	0.1939
252.3869	0.1981
252.6017	0.182
252.8166	0.1781
253.0314	0.1905
253.2462	0.1751
253.461	0.1883
253.6758	0.1833
253.8906	0.1859
254.1053	0.1771
254.3201	0.1814
254.5348	0.1895
254.7496	0.1851
254.9643	0.1843
255.179	0.1696
255.3937	0.1779
255.6083	0.186
255.823	0.1752
256.0377	0.1725
256.2523	0.1708
256.467	0.148
256.6816	0.1714
256.8962	0.1703
257.1108	0.159
257.3254	0.182
257.54	0.1631
257.7545	0.1745
257.9691	0.1804
258.1836	0.1619
258.3981	0.1817
258.6127	0.1749
258.8272	0.1691
259.0417	0.1579
259.2561	0.1691
259.4706	0.1673
259.6851	0.1715
259.8995	0.1535
260.114	0.1559
260.3284	0.1732
260.5428	0.1599
260.7572	0.1898
260.9716	0.1708
261.186	0.174
261.4003	0.1789
261.6147	0.1732
261.829	0.1724
262.0433	0.1857
262.2577	0.1762
262.472	0.17
262.6863	0.1642
262.9005	0.1727
263.1148	0.1737
263.3291	0.165
263.5433	0.1676
263.7576	0.1657
263.9718	0.1797
264.186	0.1711
264.4002	0.1755
264.6144	0.1679
264.8286	0.1814
265.0427	0.182
265.2569	0.172
265.471	0.1704
265.6851	0.1611
265.8993	0.1707
266.1134	0.168
266.3275	0.1692
266.5415	0.1673
266.7556	0.1842
266.9697	0.1769
267.1837	0.1633
267.3978	0.1646
267.6118	0.1778
267.8258	0.1905
268.0398	0.173
268.2538	0.1872
268.4677	0.169
268.6817	0.1626
268.8957	0.173
269.1096	0.1773
269.3235	0.1709
269.5374	0.16
269.7514	0.1807
269.9652	0.1595
270.1791	0.1614
270.393	0.1621
270.6068	0.1767
270.8207	0.1651
271.0345	0.1669
271.2483	0.1833
271.4622	0.1586
271.676	0.1725
271.8897	0.1613
272.1035	0.1618
272.3173	0.1621
272.531	0.1748
272.7448	0.1618
272.9585	0.1548
273.1722	0.1723
273.3859	0.17
273.5996	0.1613
273.8133	0.186
274.0269	0.1576
274.2406	0.1698
274.4542	0.1661
274.6679	0.1617
274.8815	0.1783
275.0951	0.1759
275.3087	0.1737
275.5223	0.1765
275.7358	0.1674
275.9494	0.1731
276.1629	0.1616
276.3765	0.1791
276.59	0.1692
276.8035	0.1654
277.017	0.1672
277.2305	0.1719
277.444	0.176
277.6574	0.1728
277.8709	0.1734
278.0843	0.1673
278.2978	0.1626
278.5112	0.1633
278.7246	0.1707
278.938	0.1824
279.1513	0.1686
279.3647	0.1825
279.5781	0.1666
279.7914	0.1835
280.0047	0.1783
280.2181	0.1826
280.4314	0.1822
280.6447	0.1684
280.8579	0.1741
281.0712	0.1818
281.2845	0.1777
281.4977	0.1729
281.711	0.1617
281.9242	0.1677
282.1374	0.1815
282.3506	0.1764
282.5638	0.1841
282.7769	0.1729
282.9901	0.172
283.2033	0.1777
283.4164	0.1698
283.6295	0.1636
283.8426	0.1822
284.0557	0.1777
284.2688	0.1812
284.4819	0.171
284.695	0.166
284.908	0.1769
285.1211	0.1675
285.3341	0.1637
285.5471	0.1764
285.7601	0.1744
285.9731	0.16
286.1861	0.1663
286.3991	0.1758
286.612	0.1753
286.825	0.1554
287.0379	0.177
287.2508	0.1687
287.4637	0.1602
287.6766	0.154
287.8895	0.162
288.1024	0.1644
288.3152	0.1653
288.5281	0.1576
288.7409	0.1679
288.9538	0.1677
289.1666	0.1614
289.3794	0.1556
289.5922	0.1453
289.8049	0.1509
290.0177	0.159
290.2304	0.152
290.4432	0.1594
290.6559	0.1611
290.8686	0.1657
291.0813	0.1393
291.294	0.1523
291.5067	0.1562
291.7194	0.1582
291.932	0.1744
292.1447	0.1443
292.3573	0.1441
292.5699	0.1521
292.7825	0.1569
292.9951	0.1474
293.2077	0.1526
293.4203	0.1452
293.6328	0.1438
293.8454	0.1604
294.0579	0.1493
294.2704	0.1468
294.4829	0.1479
294.6954	0.1509
294.9079	0.1479
295.1204	0.1453
295.3328	0.1375
295.5453	0.1503
295.7577	0.146
295.9701	0.1408
296.1825	0.1571
296.3949	0.1411
296.6073	0.1475
296.8197	0.1358
297.0321	0.1504
297.2444	0.1271
297.4567	0.1473
297.6691	0.1427
297.8814	0.1418
298.0937	0.1366
298.306	0.1482
298.5182	0.147
298.7305	0.1443
298.9428	0.1348
299.155	0.1555
299.3672	0.1384
299.5794	0.1439
299.7916	0.142
300.0038	0.1506
300.216	0.1618
300.4282	0.1465
300.6403	0.129
300.8525	0.1444
301.0646	0.1425
301.2767	0.1406
301.4888	0.1499
301.7009	0.1463
301.913	0.1368
302.125	0.146
302.3371	0.1434
302.5491	0.1331
302.7612	0.1474
302.9732	0.1511
303.1852	0.145
303.3972	0.1382
303.6092	0.1436
303.8211	0.1401
304.0331	0.1323
304.245	0.1362
304.457	0.1396
304.6689	0.1261
304.8808	0.1431
305.0927	0.1378
305.3046	0.129
305.5164	0.1449
305.7283	0.1298
305.9401	0.1485
306.152	0.134
306.3638	0.1442
306.5756	0.1421
306.7874	0.133
306.9992	0.1393
307.2109	0.1322
307.4227	0.1176
307.6344	0.1329
307.8462	0.1259
308.0579	0.1263
308.2696	0.1266
308.4813	0.1257
308.693	0.1281
308.9046	0.1328
309.1163	0.1292
309.328	0.1161
309.5396	0.1204
309.7512	0.1241
309.9628	0.1144
310.1744	0.1192
310.386	0.1174
310.5976	0.1173
310.8091	0.1185
311.0207	0.1265
311.2322	0.1316
311.4437	0.1169
311.6552	0.1176
311.8667	0.125
312.0782	0.0997
312.2897	0.1034
312.5012	0.118
312.7126	0.1106
312.924	0.1093
313.1355	0.124
313.3469	0.1189
313.5583	0.1134
313.7696	0.1246
313.981	0.1086
314.1924	0.1078
314.4037	0.1118
314.6151	0.1273
314.8264	0.108
315.0377	0.1062
315.249	0.1141
315.4603	0.1136
315.6716	0.1138
315.8828	0.1117
316.0941	0.116
316.3053	0.1183
316.5165	0.117
316.7277	0.104
316.9389	0.1265
317.1501	0.1057
317.3613	0.1137
317.5724	0.0943
317.7836	0.1068
317.9947	0.1169
318.2058	0.1183
318.417	0.1085
318.6281	0.1048
318.8391	0.1092
319.0502	0.1044
319.2613	0.1084
319.4723	0.118
319.6834	0.1153
319.8944	0.1063
320.1054	0.1129
320.3164	0.1261
320.5274	0.1076
320.7383	0.1047
320.9493	0.1155
321.1602	0.1146
321.3712	0.1103
321.5821	0.1168
321.793	0.1101
322.0039	0.121
322.2148	0.1046
322.4257	0.117
322.6365	0.1241
322.8474	0.1186
323.0582	0.1069
323.269	0.1212
323.4798	0.1274
323.6906	0.1163
323.9014	0.1179
324.1122	0.1157
324.3229	0.0977
324.5337	0.1274
324.7444	0.1087
324.9551	0.1412
325.1658	0.1197
325.3765	0.1147
325.5872	0.1314
325.7979	0.1181
326.0085	0.1287
326.2192	0.1215
326.4298	0.1304
326.6404	0.1073
326.851	0.1127
327.0616	0.1176
327.2722	0.1259
327.4828	0.1229
327.6933	0.1271
327.9039	0.1316
328.1144	0.1246
328.3249	0.1254
328.5354	0.107
328.7459	0.1253
328.9564	0.115
329.1669	0.1208
329.3773	0.1217
329.5878	0.1237
329.7982	0.1256
330.0086	0.121
330.219	0.1201
330.4294	0.1294
330.6398	0.121
330.8502	0.1266
331.0605	0.1146
331.2708	0.1316
331.4812	0.1187
331.6915	0.1195
331.9018	0.1198
332.1121	0.1123
332.3224	0.1282
332.5326	0.1258
332.7429	0.1333
332.9531	0.1329
333.1633	0.1277
333.3735	0.1261
333.5837	0.1247
333.7939	0.1275
334.0041	0.1379
334.2143	0.1349
334.4244	0.131
334.6346	0.1155
334.8447	0.1349
335.0548	0.1285
335.2649	0.114
335.475	0.1296
335.685	0.1185
335.8951	0.149
336.1051	0.1371
336.3152	0.1333
336.5252	0.1177
336.7352	0.1357
336.9452	0.1235
337.1552	0.1282
337.3652	0.1265
337.5751	0.1311
337.7851	0.1287
337.995	0.1206
338.2049	0.1249
338.4148	0.1323
338.6247	0.1339
338.8346	0.1259
339.0445	0.1253
339.2543	0.1327
339.4642	0.1327
339.674	0.1213
339.8838	0.1385
340.0936	0.1381
340.3034	0.1446
340.5132	0.1443
340.7229	0.1433
340.9327	0.1193
341.1424	0.1282
341.3522	0.149
341.5619	0.1374
341.7716	0.1426
341.9813	0.1454
342.1909	0.1425
342.4006	0.1401
342.6102	0.1424
342.8199	0.1304
343.0295	0.1404
343.2391	0.1436
343.4487	0.1325
343.6583	0.1403
343.8679	0.1454
344.0774	0.1479
344.287	0.1403
344.4965	0.1373
344.706	0.1361
344.9155	0.1439
345.125	0.1442
345.3345	0.1413
345.544	0.1419
345.7534	0.138
345.9629	0.1455
346.1723	0.1411
346.3817	0.1382
346.5911	0.1389
346.8005	0.142
347.0099	0.1404
347.2193	0.1477
347.4286	0.1485
347.638	0.1497
347.8473	0.1409
348.0566	0.1445
348.2659	0.1383
348.4752	0.1533
348.6845	0.1396
348.8937	0.1405
349.103	0.1594
349.3122	0.1378
349.5214	0.1398
349.7306	0.1515
349.9398	0.1532
350.149	0.1528
350.3582	0.145
350.5674	0.1447
350.7765	0.157
350.9856	0.139
351.1948	0.1533
351.4039	0.1379
351.613	0.1374
351.822	0.1439
352.0311	0.1515
352.2402	0.158
352.4492	0.1548
352.6582	0.149
352.8672	0.1458
353.0762	0.1507
353.2852	0.1523
353.4942	0.1489
353.7032	0.1644
353.9121	0.1525
354.1211	0.1478
354.33	0.1598
354.5389	0.1526
354.7478	0.1563
354.9567	0.1383
355.1655	0.1467
355.3744	0.149
355.5833	0.1681
355.7921	0.1772
356.0009	0.1721
356.2097	0.1715
356.4185	0.1666
356.6273	0.1632
356.8361	0.1714
357.0448	0.1551
357.2536	0.16
357.4623	0.1685
357.671	0.1654
357.8797	0.1604
358.0884	0.1655
358.2971	0.1575
358.5057	0.153
358.7144	0.17
358.923	0.1587
359.1316	0.1706
359.3402	0.1587
359.5488	0.1635
359.7574	0.1577
359.966	0.188
360.1746	0.1684
360.3831	0.1633
360.5916	0.1569
360.8002	0.1579
361.0087	0.1711
361.2172	0.1731
361.4256	0.1811
361.6341	0.1843
361.8426	0.17
362.051	0.1657
362.2594	0.1783
362.4678	0.165
362.6762	0.188
362.8846	0.1824
363.093	0.1684
363.3014	0.1816
363.5097	0.1535
363.718	0.1768
363.9264	0.184
364.1347	0.1712
364.343	0.1709
364.5513	0.1969
364.7595	0.1896
364.9678	0.1894
365.176	0.191
365.3842	0.1693
365.5925	0.1777
365.8007	0.1729
366.0089	0.1756
366.217	0.1796
366.4252	0.1833
366.6333	0.1982
366.8415	0.1881
367.0496	0.1716
367.2577	0.184
367.4658	0.1913
367.6739	0.1977
367.882	0.1842
368.09	0.1861
368.2981	0.1748
368.5061	0.1853
368.7141	0.1788
368.9221	0.1885
369.1301	0.1921
369.3381	0.1669
369.5461	0.1751
369.754	0.1746
369.962	0.192
370.1699	0.2068
370.3778	0.1819
370.5857	0.1875
370.7936	0.1832
371.0015	0.1847
371.2093	0.1796
371.4172	0.1987
371.625	0.1942
371.8328	0.1947
372.0406	0.1988
372.2484	0.1856
372.4562	0.1949
372.664	0.1974
372.8717	0.2129
373.0795	0.1663
373.2872	0.1956
373.4949	0.1884
373.7026	0.1913
373.9103	0.1937
374.118	0.1856
374.3256	0.1918
374.5333	0.1968
374.7409	0.1781
374.9485	0.2022
375.1561	0.1831
375.3637	0.1999
375.5713	0.1924
375.7789	0.1785
375.9864	0.1735
376.194	0.1916
376.4015	0.2117
376.609	0.1977
376.8165	0.1944
377.024	0.1881
377.2315	0.1744
377.4389	0.2007
377.6464	0.1876
377.8538	0.1877
378.0612	0.1834
378.2686	0.2168
378.476	0.2012
378.6834	0.1966
378.8908	0.1829
379.0981	0.2031
379.3055	0.1905
379.5128	0.1789
379.7201	0.2062
379.9274	0.1949
380.1347	0.19
380.342	0.2137
380.5492	0.1784
380.7565	0.2102
380.9637	0.199
381.1709	0.1743
381.3781	0.1982
381.5853	0.204
381.7925	0.2051
381.9997	0.1984
382.2068	0.2124
382.4139	0.1962
382.6211	0.179
382.8282	0.1945
383.0353	0.1996
383.2424	0.1941
383.4494	0.2248
383.6565	0.1821
383.8635	0.1794
384.0706	0.1835
384.2776	0.1901
384.4846	0.1961
384.6916	0.1803
384.8986	0.1821
385.1055	0.2064
385.3125	0.1901
385.5194	0.1767
385.7263	0.2127
385.9333	0.2007
386.1402	0.1989
386.347	0.2062
386.5539	0.1922
386.7608	0.1992
386.9676	0.188
387.1744	0.1967
387.3813	0.1883
387.5881	0.1944
387.7948	0.1856
388.0016	0.1841
388.2084	0.1908
388.4151	0.1734
388.6219	0.2028
388.8286	0.1912
389.0353	0.1973
389.242	0.2183
389.4487	0.1816
389.6553	0.1759
389.862	0.1604
390.0686	0.1717
390.2753	0.1861
390.4819	0.1764
390.6885	0.1805
390.8951	0.1821
391.1016	0.1849
391.3082	0.1731
391.5147	0.178
391.7213	0.1737
391.9278	0.1704
392.1343	0.1683
392.3408	0.1841
392.5473	0.1737
392.7537	0.1661
392.9602	0.1623
393.1666	0.1818
393.373	0.18
393.5794	0.1829
393.7858	0.1864
393.9922	0.1659
394.1986	0.1709
394.4049	0.1663
394.6113	0.1568
394.8176	0.1385
395.0239	0.1613
395.2302	0.1698
395.4365	0.1548
395.6428	0.1778
395.8491	0.1485
396.0553	0.1537
396.2615	0.1465
396.4678	0.1559
396.674	0.1468
396.8802	0.1584
397.0863	0.1614
397.2925	0.1518
397.4987	0.1636
397.7048	0.1638
397.9109	0.1597
398.117	0.1493
398.3231	0.1394
398.5292	0.1617
398.7353	0.1673
398.9413	0.1536
399.1474	0.1388
399.3534	0.1622
399.5594	0.1264
399.7654	0.1709
399.9714	0.1683
400.1774	0.1578
400.3833	0.1507
400.5893	0.1511
400.7952	0.156
401.0011	0.1501
401.207	0.1699
401.4129	0.1604
401.6188	0.1553
401.8247	0.1485
402.0305	0.1345
402.2364	0.1501
402.4422	0.1467
402.648	0.1515
402.8538	0.1616
403.0596	0.1419
403.2654	0.1675
403.4711	0.1403
403.6768	0.1589
403.8826	0.1653
404.0883	0.1627
404.294	0.1416
404.4997	0.1552
404.7054	0.1666
404.911	0.1376
405.1167	0.1491
405.3223	0.1564
405.5279	0.1409
405.7335	0.1742
405.9391	0.1514
406.1447	0.1574
406.3502	0.1776
406.5558	0.1619
406.7613	0.1541
406.9668	0.1588
407.1724	0.1446
407.3778	0.1496
407.5833	0.1338
407.7888	0.1424
407.9942	0.1651
408.1997	0.1465
408.4051	0.1522
408.6105	0.1532
408.8159	0.1452
409.0213	0.1281
409.2267	0.1477
409.432	0.1278
409.6374	0.1538
409.8427	0.1225
410.048	0.1477
410.2533	0.1436
410.4586	0.1421
410.6639	0.1223
410.8691	0.143
411.0744	0.1502
411.2796	0.1392
411.4848	0.146
411.69	0.1281
411.8952	0.1595
412.1004	0.1208
412.3056	0.1647
412.5107	0.137
412.7158	0.1562
412.921	0.1533
413.1261	0.1357
413.3312	0.141
413.5362	0.1387
413.7413	0.1245
413.9464	0.1465
414.1514	0.147
414.3564	0.1338
414.5614	0.1317
414.7664	0.1244
414.9714	0.1475
415.1764	0.132
415.3813	0.138
415.5863	0.1385
415.7912	0.1462
415.9961	0.1422
416.201	0.1417
416.4059	0.1423
416.6108	0.1308
416.8156	0.1447
417.0205	0.1338
417.2253	0.1359
417.4301	0.124
417.6349	0.1341
417.8397	0.1347
418.0445	0.1366
418.2492	0.1386
418.454	0.1334
418.6587	0.1412
418.8634	0.1337
419.0681	0.1147
419.2728	0.1355
419.4775	0.1356
419.6822	0.1284
419.8868	0.1123
420.0915	0.1406
420.2961	0.1139
420.5007	0.122
420.7053	0.1339
420.9099	0.1429
421.1144	0.1357
421.319	0.1297
421.5235	0.1338
421.728	0.1315
421.9325	0.1489
422.137	0.1358
422.3415	0.1262
422.546	0.1132
422.7504	0.1262
422.9549	0.1196
423.1593	0.1298
423.3637	0.1387
423.5681	0.1236
423.7725	0.111
423.9769	0.13
424.1812	0.1153
424.3856	0.1065
424.5899	0.1279
424.7942	0.1202
424.9985	0.1243
425.2028	0.1043
425.4071	0.1391
425.6113	0.1048
425.8156	0.1139
426.0198	0.1195
426.224	0.098
426.4282	0.1122
426.6324	0.1172
