Data from MonoPyChalIsomerACN10uM420nmA_Absorbance_15-09-54-134.txt Node
Date: Fri Jul 05 15:09:54 BST 2024
User: LASERRRRR
Spectrometer: FLMT03099
Trigger mode: 0
Integration Time (sec): 1.000000E-1
Scans to average: 1
Electric dark correction enabled: true
Nonlinearity correction enabled: false
Boxcar width: 0
XAxis mode: Wavelengths
Number of Pixels in Spectrum: 3648
>>>>>Begin Spectral Data<<<<<
179.3399	-0.3424
179.5586	-0.3424
179.7771	-0.3424
179.9957	-0
180.2143	-0
180.4329	-0.0787
180.6514	0.3213
180.8699	-0
181.0885	-0.2482
181.307	0.179
181.5255	-0
181.744	-0.2001
181.9625	-0
182.181	-0.9899
182.3994	0.075
182.6179	-0
182.8363	-0
183.0547	0.417
183.2732	-0.0804
183.4916	0.1277
183.71	0.2319
183.9284	0.2286
184.1467	0.1469
184.3651	0.0781
184.5835	0.0377
184.8018	0.0175
185.0201	0.3357
185.2385	-0.1531
185.4568	0.2229
185.6751	0.0117
185.8934	0.414
186.1117	-0.056
186.3299	0.0886
186.5482	-0.0302
186.7664	-0.0232
186.9847	-0.0266
187.2029	0.0066
187.4211	0.0648
187.6393	0.1007
187.8575	-0.1407
188.0757	0.1891
188.2939	0.1412
188.512	0.1088
188.7302	0.0562
188.9483	0.0263
189.1665	0.2026
189.3846	-0.4067
189.6027	0.1862
189.8208	0.1192
190.0389	0.12
190.257	0.1641
190.475	0.3874
190.6931	0.1183
190.9111	0.4194
191.1292	0.1416
191.3472	0.3127
191.5652	0.24
191.7832	0.1355
192.0012	0.5801
192.2192	0.4371
192.4371	0.7934
192.6551	0.3218
192.873	0.5607
193.091	0.2973
193.3089	0.5074
193.5268	0.5979
193.7447	0.5543
193.9626	0.6172
194.1805	0.8352
194.3984	0.9175
194.6162	0.7167
194.8341	0.3045
195.0519	0.4972
195.2697	0.6918
195.4875	0.8708
195.7054	0.7144
195.9231	0.4627
196.1409	0.4801
196.3587	0.4893
196.5765	0.5874
196.7942	0.5936
197.012	0.4212
197.2297	0.6269
197.4474	0.6656
197.6651	0.6486
197.8828	0.5904
198.1005	0.6754
198.3182	0.6008
198.5358	0.7973
198.7535	0.7367
198.9711	0.5035
199.1888	0.5291
199.4064	0.8365
199.624	0.6207
199.8416	0.5236
200.0592	0.8281
200.2767	0.5923
200.4943	0.6551
200.7119	0.6695
200.9294	0.7136
201.1469	0.5806
201.3645	0.6006
201.582	0.5022
201.7995	0.5862
202.017	0.7783
202.2344	0.5927
202.4519	0.677
202.6694	0.5744
202.8868	0.6013
203.1042	0.7559
203.3217	0.8974
203.5391	0.6471
203.7565	0.6732
203.9739	0.672
204.1913	0.5873
204.4086	0.5706
204.626	0.7162
204.8433	0.7291
205.0607	0.5765
205.278	0.5752
205.4953	0.693
205.7126	0.7518
205.9299	0.6842
206.1472	0.7662
206.3644	0.6824
206.5817	0.7072
206.7989	0.792
207.0162	0.7463
207.2334	0.7003
207.4506	0.6225
207.6678	0.6834
207.885	0.6605
208.1022	0.6509
208.3194	0.7333
208.5365	0.6399
208.7537	0.6682
208.9708	0.5775
209.1879	0.7609
209.405	0.7121
209.6222	0.6517
209.8392	0.6977
210.0563	0.6127
210.2734	0.714
210.4905	0.6858
210.7075	0.6775
210.9245	0.6154
211.1416	0.673
211.3586	0.6887
211.5756	0.6166
211.7926	0.6206
212.0096	0.5829
212.2265	0.5867
212.4435	0.5993
212.6604	0.6143
212.8774	0.5928
213.0943	0.6256
213.3112	0.5508
213.5281	0.5415
213.745	0.5282
213.9619	0.5369
214.1788	0.5099
214.3956	0.4735
214.6125	0.4845
214.8293	0.4327
215.0461	0.4909
215.2629	0.4642
215.4798	0.462
215.6965	0.4192
215.9133	0.4483
216.1301	0.4202
216.3469	0.4497
216.5636	0.4065
216.7803	0.3798
216.9971	0.4143
217.2138	0.3764
217.4305	0.3935
217.6472	0.3741
217.8639	0.3654
218.0805	0.3639
218.2972	0.3562
218.5138	0.3346
218.7305	0.307
218.9471	0.3251
219.1637	0.2788
219.3803	0.2785
219.5969	0.2716
219.8135	0.2632
220.0301	0.2936
220.2466	0.2753
220.4632	0.2775
220.6797	0.2388
220.8962	0.2512
221.1127	0.2755
221.3292	0.2807
221.5457	0.2541
221.7622	0.2209
221.9787	0.2831
222.1951	0.2414
222.4116	0.2543
222.628	0.2524
222.8444	0.2568
223.0608	0.2641
223.2772	0.258
223.4936	0.2832
223.71	0.2557
223.9264	0.2847
224.1427	0.2392
224.3591	0.26
224.5754	0.2742
224.7917	0.268
225.008	0.2754
225.2243	0.2567
225.4406	0.2782
225.6569	0.2702
225.8732	0.2596
226.0894	0.2747
226.3057	0.2683
226.5219	0.3032
226.7381	0.2763
226.9543	0.2729
227.1705	0.2861
227.3867	0.2817
227.6029	0.3109
227.8191	0.292
228.0352	0.2896
228.2513	0.3276
228.4675	0.3042
228.6836	0.3061
228.8997	0.3007
229.1158	0.3079
229.3319	0.3245
229.548	0.3168
229.764	0.325
229.9801	0.3391
230.1961	0.3383
230.4121	0.3494
230.6282	0.3548
230.8442	0.3453
231.0602	0.3462
231.2761	0.3511
231.4921	0.3537
231.7081	0.3345
231.924	0.346
232.14	0.3418
232.3559	0.3249
232.5718	0.3543
232.7877	0.3485
233.0036	0.3716
233.2195	0.3586
233.4353	0.3785
233.6512	0.3645
233.867	0.3514
234.0829	0.3668
234.2987	0.3652
234.5145	0.3876
234.7303	0.38
234.9461	0.3701
235.1619	0.3638
235.3776	0.3726
235.5934	0.3813
235.8091	0.374
236.0249	0.3871
236.2406	0.3762
236.4563	0.3704
236.672	0.4193
236.8877	0.3885
237.1034	0.3953
237.319	0.3833
237.5347	0.3882
237.7503	0.3803
237.966	0.3967
238.1816	0.4313
238.3972	0.4006
238.6128	0.4136
238.8284	0.3895
239.0439	0.4164
239.2595	0.3948
239.475	0.4039
239.6906	0.4206
239.9061	0.4002
240.1216	0.4047
240.3371	0.3928
240.5526	0.3973
240.7681	0.4282
240.9836	0.3928
241.199	0.4137
241.4145	0.3829
241.6299	0.3759
241.8453	0.4005
242.0607	0.3891
242.2761	0.3621
242.4915	0.3793
242.7069	0.3696
242.9223	0.358
243.1376	0.3653
243.353	0.3695
243.5683	0.3708
243.7836	0.3415
243.9989	0.346
244.2142	0.334
244.4295	0.339
244.6448	0.3441
244.86	0.3253
245.0753	0.3207
245.2905	0.2979
245.5057	0.299
245.721	0.3053
245.9362	0.2876
246.1514	0.2988
246.3665	0.2724
246.5817	0.2688
246.7969	0.2696
247.012	0.2672
247.2271	0.2511
247.4423	0.257
247.6574	0.2635
247.8725	0.254
248.0876	0.23
248.3026	0.2448
248.5177	0.2442
248.7328	0.243
248.9478	0.2108
249.1628	0.2312
249.3779	0.2357
249.5929	0.2266
249.8079	0.2284
250.0228	0.2266
250.2378	0.2123
250.4528	0.2133
250.6677	0.206
250.8827	0.2147
251.0976	0.2048
251.3125	0.2052
251.5274	0.183
251.7423	0.1964
251.9572	0.1832
252.172	0.2016
252.3869	0.1883
252.6017	0.1903
252.8166	0.1799
253.0314	0.1869
253.2462	0.1787
253.461	0.1773
253.6758	0.1795
253.8906	0.1873
254.1053	0.173
254.3201	0.1734
254.5348	0.1863
254.7496	0.1794
254.9643	0.1715
255.179	0.1698
255.3937	0.1794
255.6083	0.1831
255.823	0.1743
256.0377	0.1701
256.2523	0.1807
256.467	0.1563
256.6816	0.1967
256.8962	0.1714
257.1108	0.169
257.3254	0.1812
257.54	0.1677
257.7545	0.1745
257.9691	0.1876
258.1836	0.1726
258.3981	0.183
258.6127	0.1853
258.8272	0.1769
259.0417	0.1579
259.2561	0.1707
259.4706	0.1637
259.6851	0.1716
259.8995	0.1633
260.114	0.1691
260.3284	0.1829
260.5428	0.1663
260.7572	0.1865
260.9716	0.1854
261.186	0.1769
261.4003	0.1627
261.6147	0.1675
261.829	0.1739
262.0433	0.1695
262.2577	0.166
262.472	0.1864
262.6863	0.1714
262.9005	0.1626
263.1148	0.1742
263.3291	0.1582
263.5433	0.1855
263.7576	0.1789
263.9718	0.1759
264.186	0.1762
264.4002	0.1616
264.6144	0.1689
264.8286	0.1826
265.0427	0.1795
265.2569	0.1649
265.471	0.1721
265.6851	0.1621
265.8993	0.1688
266.1134	0.1674
266.3275	0.169
266.5415	0.1649
266.7556	0.176
266.9697	0.1671
267.1837	0.166
267.3978	0.177
267.6118	0.181
267.8258	0.1787
268.0398	0.1727
268.2538	0.171
268.4677	0.1731
268.6817	0.1653
268.8957	0.1685
269.1096	0.1797
269.3235	0.1818
269.5374	0.1795
269.7514	0.1638
269.9652	0.1547
270.1791	0.1673
270.393	0.165
270.6068	0.1716
270.8207	0.1622
271.0345	0.1544
271.2483	0.1621
271.4622	0.1635
271.676	0.1751
271.8897	0.1596
272.1035	0.158
272.3173	0.1468
272.531	0.1621
272.7448	0.1581
272.9585	0.1543
273.1722	0.1698
273.3859	0.169
273.5996	0.1552
273.8133	0.1596
274.0269	0.1489
274.2406	0.1501
274.4542	0.167
274.6679	0.1492
274.8815	0.1496
275.0951	0.1765
275.3087	0.171
275.5223	0.1689
275.7358	0.1617
275.9494	0.1661
276.1629	0.1514
276.3765	0.1661
276.59	0.1676
276.8035	0.1639
277.017	0.163
277.2305	0.1535
277.444	0.1651
277.6574	0.1612
277.8709	0.1686
278.0843	0.1623
278.2978	0.1562
278.5112	0.1542
278.7246	0.1621
278.938	0.1631
279.1513	0.1684
279.3647	0.1753
279.5781	0.1578
279.7914	0.1756
280.0047	0.1717
280.2181	0.1695
280.4314	0.1612
280.6447	0.1762
280.8579	0.1717
281.0712	0.1611
281.2845	0.1697
281.4977	0.173
281.711	0.1682
281.9242	0.1641
282.1374	0.1698
282.3506	0.1784
282.5638	0.178
282.7769	0.1622
282.9901	0.1716
283.2033	0.1772
283.4164	0.1777
283.6295	0.1644
283.8426	0.1572
284.0557	0.1637
284.2688	0.1816
284.4819	0.1721
284.695	0.168
284.908	0.1791
285.1211	0.1624
285.3341	0.1625
285.5471	0.1697
285.7601	0.1762
285.9731	0.1586
286.1861	0.1569
286.3991	0.1677
286.612	0.1715
286.825	0.1668
287.0379	0.1599
287.2508	0.1519
287.4637	0.1781
287.6766	0.164
287.8895	0.1693
288.1024	0.1733
288.3152	0.1692
288.5281	0.1525
288.7409	0.1593
288.9538	0.1701
289.1666	0.1538
289.3794	0.1567
289.5922	0.1532
289.8049	0.1629
290.0177	0.1506
290.2304	0.1629
290.4432	0.1549
290.6559	0.1555
290.8686	0.1587
291.0813	0.1606
291.294	0.1677
291.5067	0.1771
291.7194	0.1645
291.932	0.1691
292.1447	0.1612
292.3573	0.1394
292.5699	0.1513
292.7825	0.1584
292.9951	0.1448
293.2077	0.1486
293.4203	0.1591
293.6328	0.1505
293.8454	0.172
294.0579	0.155
294.2704	0.1563
294.4829	0.1405
294.6954	0.1551
294.9079	0.1548
295.1204	0.1582
295.3328	0.1456
295.5453	0.1519
295.7577	0.1611
295.9701	0.1483
296.1825	0.1568
296.3949	0.1537
296.6073	0.1553
296.8197	0.1487
297.0321	0.1648
297.2444	0.1514
297.4567	0.1537
297.6691	0.1574
297.8814	0.1597
298.0937	0.1565
298.306	0.1622
298.5182	0.1538
298.7305	0.1566
298.9428	0.1509
299.155	0.1579
299.3672	0.1485
299.5794	0.1528
299.7916	0.1494
300.0038	0.1613
300.216	0.1591
300.4282	0.1551
300.6403	0.1522
300.8525	0.1444
301.0646	0.1509
301.2767	0.1428
301.4888	0.1457
301.7009	0.1678
301.913	0.1576
302.125	0.1547
302.3371	0.1529
302.5491	0.1599
302.7612	0.1589
302.9732	0.1552
303.1852	0.1542
303.3972	0.1484
303.6092	0.1425
303.8211	0.1466
304.0331	0.1514
304.245	0.1504
304.457	0.1454
304.6689	0.1437
304.8808	0.162
305.0927	0.1397
305.3046	0.1441
305.5164	0.155
305.7283	0.1438
305.9401	0.1557
306.152	0.1397
306.3638	0.1522
306.5756	0.1381
306.7874	0.1363
306.9992	0.1449
307.2109	0.1386
307.4227	0.1222
307.6344	0.1424
307.8462	0.1277
308.0579	0.134
308.2696	0.1375
308.4813	0.1298
308.693	0.1334
308.9046	0.1317
309.1163	0.1296
309.328	0.1292
309.5396	0.1245
309.7512	0.1192
309.9628	0.1273
310.1744	0.1274
310.386	0.126
310.5976	0.1237
310.8091	0.1146
311.0207	0.1278
311.2322	0.122
311.4437	0.1138
311.6552	0.1173
311.8667	0.1114
312.0782	0.1014
312.2897	0.1083
312.5012	0.1142
312.7126	0.1144
312.924	0.1102
313.1355	0.1087
313.3469	0.1112
313.5583	0.1163
313.7696	0.1223
313.981	0.1069
314.1924	0.1197
314.4037	0.1033
314.6151	0.1264
314.8264	0.1022
315.0377	0.1082
315.249	0.1139
315.4603	0.1192
315.6716	0.1041
315.8828	0.0994
316.0941	0.1172
316.3053	0.1129
316.5165	0.1129
316.7277	0.1009
316.9389	0.1145
317.1501	0.1156
317.3613	0.1033
317.5724	0.1027
317.7836	0.1122
317.9947	0.109
318.2058	0.1147
318.417	0.0958
318.6281	0.1034
318.8391	0.1029
319.0502	0.1117
319.2613	0.1111
319.4723	0.1143
319.6834	0.1126
319.8944	0.0962
320.1054	0.1162
320.3164	0.1149
320.5274	0.1026
320.7383	0.1093
320.9493	0.1033
321.1602	0.1137
321.3712	0.0954
321.5821	0.1194
321.793	0.1133
322.0039	0.1119
322.2148	0.1169
322.4257	0.1158
322.6365	0.1245
322.8474	0.1182
323.0582	0.0988
323.269	0.1214
323.4798	0.1271
323.6906	0.1077
323.9014	0.1147
324.1122	0.1263
324.3229	0.1113
324.5337	0.1105
324.7444	0.1082
324.9551	0.117
325.1658	0.1067
325.3765	0.1141
325.5872	0.1148
325.7979	0.1042
326.0085	0.118
326.2192	0.1216
326.4298	0.1189
326.6404	0.1211
326.851	0.1142
327.0616	0.1085
327.2722	0.1149
327.4828	0.1183
327.6933	0.1125
327.9039	0.1275
328.1144	0.1312
328.3249	0.1209
328.5354	0.1242
328.7459	0.1245
328.9564	0.1191
329.1669	0.1165
329.3773	0.1192
329.5878	0.1066
329.7982	0.1223
330.0086	0.1104
330.219	0.1207
330.4294	0.1223
330.6398	0.1158
330.8502	0.1214
331.0605	0.1224
331.2708	0.1202
331.4812	0.1159
331.6915	0.1205
331.9018	0.1134
332.1121	0.1128
332.3224	0.1272
332.5326	0.1206
332.7429	0.1173
332.9531	0.1295
333.1633	0.1219
333.3735	0.1287
333.5837	0.1168
333.7939	0.1159
334.0041	0.1303
334.2143	0.1236
334.4244	0.1087
334.6346	0.1021
334.8447	0.1272
335.0548	0.1061
335.2649	0.1132
335.475	0.1286
335.685	0.12
335.8951	0.1393
336.1051	0.1154
336.3152	0.1274
336.5252	0.1078
336.7352	0.1229
336.9452	0.1295
337.1552	0.1462
337.3652	0.1211
337.5751	0.1143
337.7851	0.1202
337.995	0.1204
338.2049	0.1226
338.4148	0.1224
338.6247	0.128
338.8346	0.1225
339.0445	0.1051
339.2543	0.1233
339.4642	0.1245
339.674	0.123
339.8838	0.131
340.0936	0.1238
340.3034	0.1454
340.5132	0.1476
340.7229	0.1287
340.9327	0.1392
341.1424	0.1068
341.3522	0.1501
341.5619	0.1399
341.7716	0.1379
341.9813	0.13
342.1909	0.1226
342.4006	0.1268
342.6102	0.1412
342.8199	0.132
343.0295	0.1469
343.2391	0.14
343.4487	0.1484
343.6583	0.1431
343.8679	0.1289
344.0774	0.1395
344.287	0.1341
344.4965	0.1221
344.706	0.1432
344.9155	0.1305
345.125	0.1267
345.3345	0.1515
345.544	0.1415
345.7534	0.1376
345.9629	0.1233
346.1723	0.138
346.3817	0.1325
346.5911	0.1418
346.8005	0.1419
347.0099	0.14
347.2193	0.1408
347.4286	0.1322
347.638	0.1399
347.8473	0.1521
348.0566	0.1356
348.2659	0.1509
348.4752	0.1487
348.6845	0.1515
348.8937	0.1374
349.103	0.1399
349.3122	0.1293
349.5214	0.1382
349.7306	0.1463
349.9398	0.1522
350.149	0.133
350.3582	0.1368
350.5674	0.1582
350.7765	0.1576
350.9856	0.1438
351.1948	0.1462
351.4039	0.1271
351.613	0.1422
351.822	0.1574
352.0311	0.1536
352.2402	0.151
352.4492	0.1518
352.6582	0.1543
352.8672	0.1567
353.0762	0.1548
353.2852	0.1474
353.4942	0.1477
353.7032	0.1488
353.9121	0.1623
354.1211	0.1606
354.33	0.1552
354.5389	0.1674
354.7478	0.1456
354.9567	0.1557
355.1655	0.1507
355.3744	0.161
355.5833	0.1676
355.7921	0.174
356.0009	0.1573
356.2097	0.1632
356.4185	0.1759
356.6273	0.1603
356.8361	0.1669
357.0448	0.1488
357.2536	0.1453
357.4623	0.1498
357.671	0.167
357.8797	0.1728
358.0884	0.1607
358.2971	0.1676
358.5057	0.1761
358.7144	0.1754
358.923	0.1728
359.1316	0.1805
359.3402	0.1849
359.5488	0.1757
359.7574	0.1647
359.966	0.175
360.1746	0.1835
360.3831	0.1788
360.5916	0.1692
360.8002	0.1703
361.0087	0.1825
361.2172	0.1791
361.4256	0.1878
361.6341	0.1819
361.8426	0.1816
362.051	0.1804
362.2594	0.1803
362.4678	0.1787
362.6762	0.1956
362.8846	0.1852
363.093	0.1809
363.3014	0.1938
363.5097	0.1688
363.718	0.182
363.9264	0.1892
364.1347	0.1782
364.343	0.1887
364.5513	0.1831
364.7595	0.199
364.9678	0.194
365.176	0.1796
365.3842	0.1881
365.5925	0.1776
365.8007	0.191
366.0089	0.1857
366.217	0.1727
366.4252	0.1949
366.6333	0.1909
366.8415	0.1975
367.0496	0.1865
367.2577	0.1973
367.4658	0.1993
367.6739	0.1927
367.882	0.2015
368.09	0.1784
368.2981	0.2037
368.5061	0.2146
368.7141	0.18
368.9221	0.1945
369.1301	0.2046
369.3381	0.1904
369.5461	0.19
369.754	0.2075
369.962	0.2044
370.1699	0.2017
370.3778	0.219
370.5857	0.1849
370.7936	0.2187
371.0015	0.2046
371.2093	0.2153
371.4172	0.1994
371.625	0.1937
371.8328	0.1966
372.0406	0.1931
372.2484	0.2074
372.4562	0.2069
372.664	0.1955
372.8717	0.2165
373.0795	0.1943
373.2872	0.2139
373.4949	0.2084
373.7026	0.1901
373.9103	0.2208
374.118	0.2167
374.3256	0.2013
374.5333	0.2004
374.7409	0.2061
374.9485	0.2168
375.1561	0.2074
375.3637	0.2146
375.5713	0.2154
375.7789	0.1973
375.9864	0.2164
376.194	0.2147
376.4015	0.2164
376.609	0.2142
376.8165	0.208
377.024	0.2031
377.2315	0.2033
377.4389	0.218
377.6464	0.2327
377.8538	0.2269
378.0612	0.202
378.2686	0.2093
378.476	0.2287
378.6834	0.2075
378.8908	0.2257
379.0981	0.2175
379.3055	0.2169
379.5128	0.1971
379.7201	0.2217
379.9274	0.2269
380.1347	0.2295
380.342	0.2315
380.5492	0.2141
380.7565	0.2175
380.9637	0.2244
381.1709	0.2102
381.3781	0.2262
381.5853	0.2321
381.7925	0.2212
381.9997	0.2312
382.2068	0.2412
382.4139	0.2104
382.6211	0.2103
382.8282	0.2164
383.0353	0.2217
383.2424	0.2185
383.4494	0.2315
383.6565	0.2325
383.8635	0.2135
384.0706	0.2031
384.2776	0.2315
384.4846	0.2127
384.6916	0.2325
384.8986	0.2153
385.1055	0.2218
385.3125	0.2257
385.5194	0.1977
385.7263	0.2294
385.9333	0.2229
386.1402	0.2223
386.347	0.2185
386.5539	0.2097
386.7608	0.2264
386.9676	0.2074
387.1744	0.2205
387.3813	0.2067
387.5881	0.2107
387.7948	0.2009
388.0016	0.2137
388.2084	0.217
388.4151	0.1991
388.6219	0.2182
388.8286	0.2133
389.0353	0.2167
389.242	0.2207
389.4487	0.2043
389.6553	0.2022
389.862	0.1854
390.0686	0.2182
390.2753	0.2081
390.4819	0.2163
390.6885	0.1934
390.8951	0.199
391.1016	0.1982
391.3082	0.1848
391.5147	0.2237
391.7213	0.1985
391.9278	0.2024
392.1343	0.1954
392.3408	0.194
392.5473	0.2166
392.7537	0.2079
392.9602	0.2006
393.1666	0.1969
393.373	0.2023
393.5794	0.1954
393.7858	0.2011
393.9922	0.1811
394.1986	0.204
394.4049	0.1904
394.6113	0.1856
394.8176	0.1814
395.0239	0.1881
395.2302	0.1718
395.4365	0.1871
395.6428	0.1898
395.8491	0.1765
396.0553	0.1967
396.2615	0.1832
396.4678	0.186
396.674	0.1791
396.8802	0.1901
397.0863	0.1971
397.2925	0.1746
397.4987	0.1641
397.7048	0.1819
397.9109	0.2018
398.117	0.1822
398.3231	0.1999
398.5292	0.1855
398.7353	0.1873
398.9413	0.1775
399.1474	0.1769
399.3534	0.174
399.5594	0.1632
399.7654	0.1803
399.9714	0.2021
400.1774	0.172
400.3833	0.1618
400.5893	0.1841
400.7952	0.1803
401.0011	0.2014
401.207	0.1868
401.4129	0.1937
401.6188	0.1777
401.8247	0.171
402.0305	0.1764
402.2364	0.1785
402.4422	0.1893
402.648	0.196
402.8538	0.1776
403.0596	0.1662
403.2654	0.1853
403.4711	0.1711
403.6768	0.1728
403.8826	0.1979
404.0883	0.1831
404.294	0.1828
404.4997	0.1758
404.7054	0.1697
404.911	0.1736
405.1167	0.1787
405.3223	0.1944
405.5279	0.1832
405.7335	0.1795
405.9391	0.1914
406.1447	0.1891
406.3502	0.1919
406.5558	0.1699
406.7613	0.1841
406.9668	0.1797
407.1724	0.1662
407.3778	0.1754
407.5833	0.1814
407.7888	0.1658
407.9942	0.193
408.1997	0.1647
408.4051	0.1569
408.6105	0.1847
408.8159	0.1645
409.0213	0.1596
409.2267	0.1805
409.432	0.1737
409.6374	0.1905
409.8427	0.1689
410.048	0.2057
410.2533	0.1645
410.4586	0.1899
410.6639	0.156
410.8691	0.1699
411.0744	0.1765
411.2796	0.1579
411.4848	0.1921
411.69	0.1622
411.8952	0.1961
412.1004	0.1605
412.3056	0.1801
412.5107	0.1648
412.7158	0.1857
412.921	0.1733
413.1261	0.176
413.3312	0.1544
413.5362	0.1663
413.7413	0.1603
413.9464	0.1597
414.1514	0.1486
414.3564	0.1667
414.5614	0.1614
414.7664	0.1595
414.9714	0.1722
415.1764	0.1821
415.3813	0.1885
415.5863	0.1737
415.7912	0.1848
415.9961	0.1671
416.201	0.1657
416.4059	0.1679
416.6108	0.1609
416.8156	0.1857
417.0205	0.1494
417.2253	0.1588
417.4301	0.1762
417.6349	0.157
417.8397	0.1614
418.0445	0.1714
418.2492	0.1599
418.454	0.1469
418.6587	0.1533
418.8634	0.1759
419.0681	0.1532
419.2728	0.1636
419.4775	0.1363
419.6822	0.1537
419.8868	0.1318
420.0915	0.1514
420.2961	0.1447
420.5007	0.1371
420.7053	0.1757
420.9099	0.1522
421.1144	0.1572
421.319	0.1502
421.5235	0.1569
421.728	0.1711
421.9325	0.1404
422.137	0.1768
422.3415	0.1324
422.546	0.1528
422.7504	0.1464
422.9549	0.1562
423.1593	0.1608
423.3637	0.1636
423.5681	0.1273
423.7725	0.1575
423.9769	0.1439
424.1812	0.1375
424.3856	0.137
424.5899	0.1416
424.7942	0.13
424.9985	0.1441
425.2028	0.1327
425.4071	0.1609
425.6113	0.1435
425.8156	0.1343
426.0198	0.1431
426.224	0.141
426.4282	0.1228
