Data from MonoPyChalIsomerACN10uM420nmA_Absorbance_15-09-50-934.txt Node
Date: Fri Jul 05 15:09:50 BST 2024
User: LASERRRRR
Spectrometer: FLMT03099
Trigger mode: 0
Integration Time (sec): 1.000000E-1
Scans to average: 1
Electric dark correction enabled: true
Nonlinearity correction enabled: false
Boxcar width: 0
XAxis mode: Wavelengths
Number of Pixels in Spectrum: 3648
>>>>>Begin Spectral Data<<<<<
179.3399	0.2713
179.5586	0.2713
179.7771	0.2713
179.9957	0.1998
180.2143	0.2737
180.4329	0.1922
180.6514	0.8138
180.8699	-0.0754
181.0885	-0
181.307	0.1897
181.5255	-0.8451
181.744	-0.6817
181.9625	-0.4493
182.181	-0
182.3994	0.812
182.6179	-0
182.8363	0.3884
183.0547	-0.2525
183.2732	0.109
183.4916	0.0321
183.71	0.2188
183.9284	0.0913
184.1467	0.0967
184.3651	0.0896
184.5835	-0.0968
184.8018	0.0175
185.0201	0.0099
185.2385	-0.1707
185.4568	0.0885
185.6751	-0.0057
185.8934	0.1986
186.1117	0.0391
186.3299	-0.0736
186.5482	0.1232
186.7664	-0.199
186.9847	-0.0977
187.2029	-0.0253
187.4211	0.187
187.6393	0.8668
187.8575	-0.2082
188.0757	0.0457
188.2939	0.1799
188.512	0.0247
188.7302	-0.0701
188.9483	0.1419
189.1665	0.2328
189.3846	-0.1015
189.6027	0.181
189.8208	0.1579
190.0389	0.0867
190.257	0.2098
190.475	0.0911
190.6931	0.2693
190.9111	0.2264
191.1292	0.1454
191.3472	0.3377
191.5652	0.1577
191.7832	0.1075
192.0012	0.6606
192.2192	0.3042
192.4371	0.4933
192.6551	0.424
192.873	0.436
193.091	0.2394
193.3089	0.468
193.5268	0.5368
193.7447	0.5158
193.9626	0.4812
194.1805	0.4625
194.3984	1.0139
194.6162	0.7033
194.8341	0.6679
195.0519	0.6819
195.2697	0.5397
195.4875	0.6478
195.7054	0.6726
195.9231	0.513
196.1409	0.4481
196.3587	0.4956
196.5765	0.5909
196.7942	0.6481
197.012	0.509
197.2297	0.9272
197.4474	0.647
197.6651	0.5228
197.8828	0.49
198.1005	0.7352
198.3182	0.5412
198.5358	1.0019
198.7535	0.6348
198.9711	0.5493
199.1888	0.6957
199.4064	0.7591
199.624	0.5788
199.8416	0.5308
200.0592	0.6843
200.2767	0.5923
200.4943	0.6135
200.7119	0.7236
200.9294	0.5749
201.1469	0.5532
201.3645	0.6468
201.582	0.529
201.7995	0.6431
202.017	0.6739
202.2344	0.5602
202.4519	0.7567
202.6694	0.5924
202.8868	0.5622
203.1042	0.7788
203.3217	0.6439
203.5391	0.5877
203.7565	0.6094
203.9739	0.6199
204.1913	0.5351
204.4086	0.6453
204.626	0.726
204.8433	0.6245
205.0607	0.5642
205.278	0.6344
205.4953	0.517
205.7126	0.7543
205.9299	0.77
206.1472	0.7424
206.3644	0.6201
206.5817	0.7698
206.7989	0.7071
207.0162	0.6895
207.2334	0.6922
207.4506	0.7851
207.6678	0.6405
207.885	0.6568
208.1022	0.7145
208.3194	0.6777
208.5365	0.6432
208.7537	0.7005
208.9708	0.5698
209.1879	0.594
209.405	0.6857
209.6222	0.6936
209.8392	0.63
210.0563	0.6305
210.2734	0.6704
210.4905	0.6019
210.7075	0.6535
210.9245	0.6007
211.1416	0.6715
211.3586	0.6502
211.5756	0.6243
211.7926	0.6282
212.0096	0.5933
212.2265	0.5902
212.4435	0.616
212.6604	0.6646
212.8774	0.5817
213.0943	0.6657
213.3112	0.5686
213.5281	0.5282
213.745	0.5095
213.9619	0.58
214.1788	0.5055
214.3956	0.4546
214.6125	0.489
214.8293	0.468
215.0461	0.4749
215.2629	0.4433
215.4798	0.512
215.6965	0.4269
215.9133	0.4617
216.1301	0.4312
216.3469	0.4314
216.5636	0.4241
216.7803	0.4197
216.9971	0.3946
217.2138	0.373
217.4305	0.3642
217.6472	0.3643
217.8639	0.4006
218.0805	0.3471
218.2972	0.3436
218.5138	0.3272
218.7305	0.3498
218.9471	0.2965
219.1637	0.2979
219.3803	0.2809
219.5969	0.2842
219.8135	0.2505
220.0301	0.2618
220.2466	0.2741
220.4632	0.259
220.6797	0.2482
220.8962	0.2283
221.1127	0.2606
221.3292	0.2512
221.5457	0.2541
221.7622	0.2526
221.9787	0.2546
222.1951	0.2439
222.4116	0.2702
222.628	0.2399
222.8444	0.2834
223.0608	0.2625
223.2772	0.264
223.4936	0.2755
223.71	0.2547
223.9264	0.287
224.1427	0.2481
224.3591	0.2502
224.5754	0.2612
224.7917	0.2795
225.008	0.254
225.2243	0.2618
225.4406	0.288
225.6569	0.2596
225.8732	0.2492
226.0894	0.2531
226.3057	0.2654
226.5219	0.3006
226.7381	0.28
226.9543	0.2857
227.1705	0.2892
227.3867	0.272
227.6029	0.3036
227.8191	0.3091
228.0352	0.3064
228.2513	0.3111
228.4675	0.3158
228.6836	0.3044
228.8997	0.293
229.1158	0.3076
229.3319	0.2847
229.548	0.3218
229.764	0.3301
229.9801	0.3458
230.1961	0.3111
230.4121	0.3377
230.6282	0.339
230.8442	0.3138
231.0602	0.3585
231.2761	0.3565
231.4921	0.3577
231.7081	0.3526
231.924	0.3367
232.14	0.3647
232.3559	0.3608
232.5718	0.3713
232.7877	0.3636
233.0036	0.348
233.2195	0.3841
233.4353	0.3773
233.6512	0.38
233.867	0.3777
234.0829	0.3734
234.2987	0.376
234.5145	0.3948
234.7303	0.3693
234.9461	0.3903
235.1619	0.3813
235.3776	0.3924
235.5934	0.3832
235.8091	0.3872
236.0249	0.4031
236.2406	0.4064
236.4563	0.3886
236.672	0.3846
236.8877	0.4028
237.1034	0.4056
237.319	0.396
237.5347	0.3969
237.7503	0.3927
237.966	0.4022
238.1816	0.4063
238.3972	0.3936
238.6128	0.3986
238.8284	0.386
239.0439	0.4199
239.2595	0.4204
239.475	0.4299
239.6906	0.4066
239.9061	0.3952
240.1216	0.413
240.3371	0.4004
240.5526	0.4002
240.7681	0.4202
240.9836	0.3976
241.199	0.4134
241.4145	0.3873
241.6299	0.3791
241.8453	0.4005
242.0607	0.4053
242.2761	0.3786
242.4915	0.3704
242.7069	0.3775
242.9223	0.3564
243.1376	0.3457
243.353	0.3637
243.5683	0.3446
243.7836	0.3467
243.9989	0.3332
244.2142	0.3214
244.4295	0.3131
244.6448	0.3174
244.86	0.3117
245.0753	0.3016
245.2905	0.2902
245.5057	0.2863
245.721	0.2714
245.9362	0.2838
246.1514	0.2839
246.3665	0.2636
246.5817	0.2492
246.7969	0.2617
247.012	0.242
247.2271	0.2476
247.4423	0.2642
247.6574	0.2455
247.8725	0.2351
248.0876	0.219
248.3026	0.2459
248.5177	0.2478
248.7328	0.2249
248.9478	0.2168
249.1628	0.2236
249.3779	0.2197
249.5929	0.2052
249.8079	0.239
250.0228	0.2035
250.2378	0.2016
250.4528	0.2192
250.6677	0.1772
250.8827	0.1986
251.0976	0.1929
251.3125	0.2014
251.5274	0.1825
251.7423	0.1969
251.9572	0.1895
252.172	0.1806
252.3869	0.1953
252.6017	0.1859
252.8166	0.1689
253.0314	0.1648
253.2462	0.168
253.461	0.1917
253.6758	0.1834
253.8906	0.1889
254.1053	0.1695
254.3201	0.1784
254.5348	0.1899
254.7496	0.179
254.9643	0.1728
255.179	0.1789
255.3937	0.1735
255.6083	0.1844
255.823	0.1708
256.0377	0.1783
256.2523	0.1729
256.467	0.1504
256.6816	0.1763
256.8962	0.1673
257.1108	0.1672
257.3254	0.1789
257.54	0.1731
257.7545	0.1683
257.9691	0.1718
258.1836	0.173
258.3981	0.1827
258.6127	0.1746
258.8272	0.1592
259.0417	0.1612
259.2561	0.1711
259.4706	0.175
259.6851	0.1697
259.8995	0.1599
260.114	0.1645
260.3284	0.1572
260.5428	0.1741
260.7572	0.1783
260.9716	0.1661
261.186	0.1563
261.4003	0.1621
261.6147	0.1809
261.829	0.1696
262.0433	0.1735
262.2577	0.1664
262.472	0.1744
262.6863	0.1658
262.9005	0.1741
263.1148	0.1647
263.3291	0.1598
263.5433	0.1649
263.7576	0.1581
263.9718	0.1522
264.186	0.1731
264.4002	0.1537
264.6144	0.1691
264.8286	0.1819
265.0427	0.1676
265.2569	0.1682
265.471	0.1646
265.6851	0.1605
265.8993	0.1642
266.1134	0.1606
266.3275	0.1731
266.5415	0.1622
266.7556	0.1661
266.9697	0.1639
267.1837	0.1703
267.3978	0.1659
267.6118	0.1771
267.8258	0.1679
268.0398	0.1514
268.2538	0.1728
268.4677	0.174
268.6817	0.1708
268.8957	0.1681
269.1096	0.1712
269.3235	0.1755
269.5374	0.1538
269.7514	0.1683
269.9652	0.1572
270.1791	0.1572
270.393	0.1461
270.6068	0.1592
270.8207	0.1496
271.0345	0.1612
271.2483	0.1576
271.4622	0.1543
271.676	0.1586
271.8897	0.1484
272.1035	0.1498
272.3173	0.1519
272.531	0.1444
272.7448	0.1478
272.9585	0.1512
273.1722	0.1505
273.3859	0.1555
273.5996	0.136
273.8133	0.1587
274.0269	0.1485
274.2406	0.1412
274.4542	0.1548
274.6679	0.1406
274.8815	0.1558
275.0951	0.1551
275.3087	0.1667
275.5223	0.1654
275.7358	0.166
275.9494	0.1576
276.1629	0.1459
276.3765	0.1425
276.59	0.1605
276.8035	0.1562
277.017	0.1452
277.2305	0.1456
277.444	0.155
277.6574	0.1478
277.8709	0.16
278.0843	0.1478
278.2978	0.1505
278.5112	0.1425
278.7246	0.1582
278.938	0.1616
279.1513	0.1495
279.3647	0.1603
279.5781	0.1413
279.7914	0.16
280.0047	0.1585
280.2181	0.1649
280.4314	0.1565
280.6447	0.163
280.8579	0.163
281.0712	0.1571
281.2845	0.1631
281.4977	0.1569
281.711	0.1503
281.9242	0.1587
282.1374	0.164
282.3506	0.1604
282.5638	0.1578
282.7769	0.1663
282.9901	0.158
283.2033	0.1737
283.4164	0.1662
283.6295	0.1417
283.8426	0.151
284.0557	0.1638
284.2688	0.1741
284.4819	0.1619
284.695	0.1525
284.908	0.1719
285.1211	0.1629
285.3341	0.1673
285.5471	0.169
285.7601	0.1575
285.9731	0.1612
286.1861	0.1619
286.3991	0.1763
286.612	0.169
286.825	0.1556
287.0379	0.1677
287.2508	0.165
287.4637	0.1566
287.6766	0.1541
287.8895	0.1626
288.1024	0.1771
288.3152	0.1616
288.5281	0.1531
288.7409	0.1561
288.9538	0.1664
289.1666	0.1718
289.3794	0.1558
289.5922	0.1639
289.8049	0.1681
290.0177	0.163
290.2304	0.1632
290.4432	0.1754
290.6559	0.1762
290.8686	0.175
291.0813	0.1652
291.294	0.1609
291.5067	0.1876
291.7194	0.1624
291.932	0.1829
292.1447	0.1675
292.3573	0.157
292.5699	0.1631
292.7825	0.1742
292.9951	0.1629
293.2077	0.1758
293.4203	0.1716
293.6328	0.1544
293.8454	0.1764
294.0579	0.1542
294.2704	0.1593
294.4829	0.1627
294.6954	0.1846
294.9079	0.1681
295.1204	0.1679
295.3328	0.1598
295.5453	0.1652
295.7577	0.1569
295.9701	0.1644
296.1825	0.1674
296.3949	0.1656
296.6073	0.1565
296.8197	0.1538
297.0321	0.1691
297.2444	0.1555
297.4567	0.1578
297.6691	0.172
297.8814	0.1565
298.0937	0.1548
298.306	0.1644
298.5182	0.1713
298.7305	0.1713
298.9428	0.1578
299.155	0.1682
299.3672	0.1596
299.5794	0.1591
299.7916	0.1596
300.0038	0.1687
300.216	0.1639
300.4282	0.1535
300.6403	0.1639
300.8525	0.1648
301.0646	0.1621
301.2767	0.1548
301.4888	0.1613
301.7009	0.1639
301.913	0.1567
302.125	0.1707
302.3371	0.1585
302.5491	0.1644
302.7612	0.1627
302.9732	0.1775
303.1852	0.1674
303.3972	0.1542
303.6092	0.1589
303.8211	0.1624
304.0331	0.1465
304.245	0.1549
304.457	0.1505
304.6689	0.1511
304.8808	0.1647
305.0927	0.1546
305.3046	0.1498
305.5164	0.1545
305.7283	0.1527
305.9401	0.1478
306.152	0.1481
306.3638	0.1498
306.5756	0.1403
306.7874	0.1513
306.9992	0.1511
307.2109	0.1484
307.4227	0.1264
307.6344	0.1466
307.8462	0.1342
308.0579	0.1428
308.2696	0.1221
308.4813	0.1416
308.693	0.1337
308.9046	0.135
309.1163	0.128
309.328	0.1287
309.5396	0.125
309.7512	0.1264
309.9628	0.1247
310.1744	0.1239
310.386	0.1202
310.5976	0.1173
310.8091	0.1147
311.0207	0.1183
311.2322	0.1247
311.4437	0.1194
311.6552	0.1147
311.8667	0.1186
312.0782	0.0992
312.2897	0.1021
312.5012	0.1146
312.7126	0.1076
312.924	0.1017
313.1355	0.1247
313.3469	0.1125
313.5583	0.1134
313.7696	0.1103
313.981	0.1099
314.1924	0.1106
314.4037	0.1168
314.6151	0.1134
314.8264	0.1025
315.0377	0.0999
315.249	0.1015
315.4603	0.1061
315.6716	0.0989
315.8828	0.0951
316.0941	0.1071
316.3053	0.0986
316.5165	0.0966
316.7277	0.0944
316.9389	0.1035
317.1501	0.0959
317.3613	0.1028
317.5724	0.0846
317.7836	0.0995
317.9947	0.0942
318.2058	0.103
318.417	0.0905
318.6281	0.0906
318.8391	0.1006
319.0502	0.1009
319.2613	0.1021
319.4723	0.1023
319.6834	0.0953
319.8944	0.092
320.1054	0.1107
320.3164	0.1023
320.5274	0.0921
320.7383	0.0887
320.9493	0.0979
321.1602	0.108
321.3712	0.0922
321.5821	0.1122
321.793	0.1128
322.0039	0.0945
322.2148	0.1002
322.4257	0.1071
322.6365	0.1118
322.8474	0.1004
323.0582	0.0995
323.269	0.1098
323.4798	0.1114
323.6906	0.1024
323.9014	0.1134
324.1122	0.1163
324.3229	0.1048
324.5337	0.1028
324.7444	0.101
324.9551	0.122
325.1658	0.1052
325.3765	0.1053
325.5872	0.1057
325.7979	0.101
326.0085	0.0973
326.2192	0.0968
326.4298	0.1028
326.6404	0.0968
326.851	0.0966
327.0616	0.0949
327.2722	0.1057
327.4828	0.1075
327.6933	0.1093
327.9039	0.1107
328.1144	0.1222
328.3249	0.1179
328.5354	0.098
328.7459	0.1018
328.9564	0.1024
329.1669	0.1009
329.3773	0.1067
329.5878	0.1076
329.7982	0.1055
330.0086	0.1057
330.219	0.1159
330.4294	0.1086
330.6398	0.1008
330.8502	0.0954
331.0605	0.1095
331.2708	0.112
331.4812	0.1181
331.6915	0.1037
331.9018	0.105
332.1121	0.0927
332.3224	0.1133
332.5326	0.1151
332.7429	0.1104
332.9531	0.1196
333.1633	0.108
333.3735	0.1022
333.5837	0.129
333.7939	0.1026
334.0041	0.1253
334.2143	0.1177
334.4244	0.111
334.6346	0.0964
334.8447	0.1154
335.0548	0.1064
335.2649	0.0951
335.475	0.1178
335.685	0.1008
335.8951	0.1192
336.1051	0.1142
336.3152	0.1099
336.5252	0.1055
336.7352	0.1222
336.9452	0.1146
337.1552	0.118
337.3652	0.1112
337.5751	0.1206
337.7851	0.1099
337.995	0.1077
338.2049	0.114
338.4148	0.1038
338.6247	0.1145
338.8346	0.1132
339.0445	0.1153
339.2543	0.1077
339.4642	0.1163
339.674	0.1019
339.8838	0.1133
340.0936	0.1152
340.3034	0.1189
340.5132	0.1207
340.7229	0.1208
340.9327	0.1021
341.1424	0.1088
341.3522	0.1311
341.5619	0.1234
341.7716	0.1357
341.9813	0.122
342.1909	0.113
342.4006	0.1231
342.6102	0.1243
342.8199	0.122
343.0295	0.1307
343.2391	0.1246
343.4487	0.1241
343.6583	0.121
343.8679	0.1288
344.0774	0.1327
344.287	0.1278
344.4965	0.1291
344.706	0.1331
344.9155	0.127
345.125	0.1167
345.3345	0.1339
345.544	0.1229
345.7534	0.1258
345.9629	0.1292
346.1723	0.1333
346.3817	0.1312
346.5911	0.1328
346.8005	0.1318
347.0099	0.134
347.2193	0.1332
347.4286	0.1149
347.638	0.1388
347.8473	0.14
348.0566	0.1428
348.2659	0.1505
348.4752	0.1369
348.6845	0.136
348.8937	0.1356
349.103	0.1447
349.3122	0.1308
349.5214	0.1411
349.7306	0.1562
349.9398	0.1448
350.149	0.1225
350.3582	0.1362
350.5674	0.1391
350.7765	0.1493
350.9856	0.1488
351.1948	0.1379
351.4039	0.1249
351.613	0.1399
351.822	0.1437
352.0311	0.1473
352.2402	0.1284
352.4492	0.1574
352.6582	0.1594
352.8672	0.1511
353.0762	0.1405
353.2852	0.142
353.4942	0.1419
353.7032	0.142
353.9121	0.1504
354.1211	0.1517
354.33	0.1523
354.5389	0.15
354.7478	0.1424
354.9567	0.1505
355.1655	0.1415
355.3744	0.1549
355.5833	0.1491
355.7921	0.1705
356.0009	0.1645
356.2097	0.1728
356.4185	0.1762
356.6273	0.1613
356.8361	0.1671
357.0448	0.1494
357.2536	0.145
357.4623	0.1482
357.671	0.1613
357.8797	0.1605
358.0884	0.1583
358.2971	0.1609
358.5057	0.1683
358.7144	0.1705
358.923	0.1501
359.1316	0.1718
359.3402	0.161
359.5488	0.1694
359.7574	0.1618
359.966	0.1805
360.1746	0.18
360.3831	0.1773
360.5916	0.1606
360.8002	0.1641
361.0087	0.1893
361.2172	0.1643
361.4256	0.1702
361.6341	0.184
361.8426	0.172
362.051	0.1782
362.2594	0.176
362.4678	0.1826
362.6762	0.1954
362.8846	0.183
363.093	0.2022
363.3014	0.1918
363.5097	0.1709
363.718	0.1988
363.9264	0.1876
364.1347	0.189
364.343	0.1962
364.5513	0.1969
364.7595	0.2055
364.9678	0.1799
365.176	0.2076
365.3842	0.1831
365.5925	0.1944
365.8007	0.1753
366.0089	0.2045
366.217	0.1901
366.4252	0.1984
366.6333	0.2129
366.8415	0.2008
367.0496	0.1935
367.2577	0.2064
367.4658	0.2158
367.6739	0.2019
367.882	0.2061
368.09	0.1899
368.2981	0.2093
368.5061	0.1941
368.7141	0.203
368.9221	0.2227
369.1301	0.2074
369.3381	0.2018
369.5461	0.2157
369.754	0.2037
369.962	0.2255
370.1699	0.2098
370.3778	0.2196
370.5857	0.1958
370.7936	0.2044
371.0015	0.2144
371.2093	0.2324
371.4172	0.2232
371.625	0.214
371.8328	0.2199
372.0406	0.2195
372.2484	0.2151
372.4562	0.2206
372.664	0.2206
372.8717	0.2136
373.0795	0.2014
373.2872	0.2111
373.4949	0.2137
373.7026	0.2265
373.9103	0.2283
374.118	0.227
374.3256	0.226
374.5333	0.2266
374.7409	0.2191
374.9485	0.2303
375.1561	0.2201
375.3637	0.2355
375.5713	0.2484
375.7789	0.2334
375.9864	0.2319
376.194	0.2201
376.4015	0.2133
376.609	0.2353
376.8165	0.231
377.024	0.2372
377.2315	0.2231
377.4389	0.2336
377.6464	0.2243
377.8538	0.2248
378.0612	0.2325
378.2686	0.2355
378.476	0.2485
378.6834	0.248
378.8908	0.247
379.0981	0.243
379.3055	0.2326
379.5128	0.2285
379.7201	0.2438
379.9274	0.2302
380.1347	0.234
380.342	0.2538
380.5492	0.2269
380.7565	0.2385
380.9637	0.248
381.1709	0.2413
381.3781	0.229
381.5853	0.2625
381.7925	0.2265
381.9997	0.2547
382.2068	0.2436
382.4139	0.2444
382.6211	0.2294
382.8282	0.2524
383.0353	0.252
383.2424	0.2384
383.4494	0.2462
383.6565	0.254
383.8635	0.2438
384.0706	0.2333
384.2776	0.2591
384.4846	0.2407
384.6916	0.2669
384.8986	0.2487
385.1055	0.2432
385.3125	0.2501
385.5194	0.2322
385.7263	0.2598
385.9333	0.2451
386.1402	0.2513
386.347	0.2508
386.5539	0.2481
386.7608	0.256
386.9676	0.2314
387.1744	0.2323
387.3813	0.2409
387.5881	0.2564
387.7948	0.2561
388.0016	0.2302
388.2084	0.2503
388.4151	0.243
388.6219	0.2555
388.8286	0.2519
389.0353	0.2435
389.242	0.2409
389.4487	0.2436
389.6553	0.2309
389.862	0.2196
390.0686	0.2363
390.2753	0.2362
390.4819	0.2216
390.6885	0.2361
390.8951	0.2356
391.1016	0.2277
391.3082	0.2432
391.5147	0.2399
391.7213	0.227
391.9278	0.2251
392.1343	0.253
392.3408	0.232
392.5473	0.2359
392.7537	0.2285
392.9602	0.2295
393.1666	0.2236
393.373	0.2242
393.5794	0.2391
393.7858	0.2248
393.9922	0.2126
394.1986	0.2494
394.4049	0.2066
394.6113	0.2104
394.8176	0.1965
395.0239	0.2133
395.2302	0.2129
395.4365	0.1963
395.6428	0.2059
395.8491	0.2088
396.0553	0.2078
396.2615	0.1856
396.4678	0.2027
396.674	0.1995
396.8802	0.2079
397.0863	0.2378
397.2925	0.2167
397.4987	0.2171
397.7048	0.1887
397.9109	0.2153
398.117	0.2016
398.3231	0.1994
398.5292	0.2113
398.7353	0.2065
398.9413	0.2065
399.1474	0.2057
399.3534	0.214
399.5594	0.1866
399.7654	0.2062
399.9714	0.2207
400.1774	0.2077
400.3833	0.2081
400.5893	0.2049
400.7952	0.2113
401.0011	0.196
401.207	0.2035
401.4129	0.2091
401.6188	0.2264
401.8247	0.2109
402.0305	0.1911
402.2364	0.2116
402.4422	0.2211
402.648	0.2222
402.8538	0.2133
403.0596	0.2076
403.2654	0.2024
403.4711	0.1908
403.6768	0.2297
403.8826	0.2234
404.0883	0.2061
404.294	0.2044
404.4997	0.2115
404.7054	0.2022
404.911	0.1962
405.1167	0.2183
405.3223	0.2142
405.5279	0.2249
405.7335	0.2015
405.9391	0.222
406.1447	0.1909
406.3502	0.2152
406.5558	0.2071
406.7613	0.1984
406.9668	0.2203
407.1724	0.1928
407.3778	0.2047
407.5833	0.1919
407.7888	0.2038
407.9942	0.2417
408.1997	0.2129
408.4051	0.1992
408.6105	0.2049
408.8159	0.2034
409.0213	0.2008
409.2267	0.2107
409.432	0.2004
409.6374	0.2194
409.8427	0.2078
410.048	0.2225
410.2533	0.2111
410.4586	0.2132
410.6639	0.1948
410.8691	0.2001
411.0744	0.1972
411.2796	0.1909
411.4848	0.1923
411.69	0.2043
411.8952	0.2031
412.1004	0.1758
412.3056	0.2103
412.5107	0.1851
412.7158	0.2188
412.921	0.2027
413.1261	0.1946
413.3312	0.189
413.5362	0.1829
413.7413	0.1867
413.9464	0.1975
414.1514	0.1987
414.3564	0.1817
414.5614	0.1795
414.7664	0.2017
414.9714	0.1915
415.1764	0.2023
415.3813	0.1961
415.5863	0.1947
415.7912	0.1956
415.9961	0.1946
416.201	0.1919
416.4059	0.1948
416.6108	0.1981
416.8156	0.1921
417.0205	0.2109
417.2253	0.1885
417.4301	0.2116
417.6349	0.208
417.8397	0.1772
418.0445	0.1899
418.2492	0.2037
418.454	0.2022
418.6587	0.1981
418.8634	0.203
419.0681	0.1843
419.2728	0.1869
419.4775	0.1882
419.6822	0.1936
419.8868	0.1553
420.0915	0.1822
420.2961	0.1742
420.5007	0.1743
420.7053	0.1896
420.9099	0.1945
421.1144	0.1792
421.319	0.1797
421.5235	0.189
421.728	0.181
421.9325	0.1715
422.137	0.1657
422.3415	0.171
422.546	0.1678
422.7504	0.1869
422.9549	0.1738
423.1593	0.1792
423.3637	0.1925
423.5681	0.1771
423.7725	0.1713
423.9769	0.1807
424.1812	0.1542
424.3856	0.1612
424.5899	0.1618
424.7942	0.1804
424.9985	0.1818
425.2028	0.1609
425.4071	0.1825
425.6113	0.1574
425.8156	0.177
426.0198	0.1746
426.224	0.1397
426.4282	0.152
426.6324	0.1639
