Data from MonoPyChalIsomerACN10uM420nmA_Absorbance_15-09-52-834.txt Node
Date: Fri Jul 05 15:09:52 BST 2024
User: LASERRRRR
Spectrometer: FLMT03099
Trigger mode: 0
Integration Time (sec): 1.000000E-1
Scans to average: 1
Electric dark correction enabled: true
Nonlinearity correction enabled: false
Boxcar width: 0
XAxis mode: Wavelengths
Number of Pixels in Spectrum: 3648
>>>>>Begin Spectral Data<<<<<
179.3399	-0.1638
179.5586	-0.1638
179.7771	-0.1638
179.9957	-0.1126
180.2143	-0
180.4329	-0.4076
180.6514	0.683
180.8699	-0
181.0885	-0.012
181.307	-0.0081
181.5255	-0.5136
181.744	0.1656
181.9625	-0
182.181	0.2109
182.3994	0.0773
182.6179	-0.0223
182.8363	-0.1108
183.0547	-0.3633
183.2732	0.1932
183.4916	0.249
183.71	0.0622
183.9284	0.0851
184.1467	-0.0116
184.3651	-0.0544
184.5835	0.0177
184.8018	1.2449
185.0201	0.3666
185.2385	0.02
185.4568	0.2295
185.6751	-0.05
185.8934	0.5085
186.1117	0.0069
186.3299	0.0879
186.5482	0.3507
186.7664	-0.1312
186.9847	-0.0142
187.2029	0.2532
187.4211	0.1065
187.6393	-0.0507
187.8575	0.1984
188.0757	0.3233
188.2939	0.1084
188.512	0.3132
188.7302	0.3606
188.9483	-0.1502
189.1665	0.1344
189.3846	0.0662
189.6027	0.1801
189.8208	0.2321
190.0389	0.0722
190.257	0.2654
190.475	0.0904
190.6931	0.2121
190.9111	0.1795
191.1292	0.2942
191.3472	0.4716
191.5652	0.2731
191.7832	0.1571
192.0012	0.5252
192.2192	0.2767
192.4371	0.3958
192.6551	0.3525
192.873	0.4157
193.091	0.384
193.3089	0.7597
193.5268	0.4002
193.7447	0.4952
193.9626	0.41
194.1805	0.6091
194.3984	0.8195
194.6162	0.7088
194.8341	0.6726
195.0519	0.5855
195.2697	0.6971
195.4875	0.7215
195.7054	0.6818
195.9231	0.5848
196.1409	0.7209
196.3587	0.6081
196.5765	0.6756
196.7942	0.6474
197.012	0.6263
197.2297	0.6608
197.4474	0.7206
197.6651	0.5947
197.8828	0.6713
198.1005	0.7199
198.3182	0.571
198.5358	0.8782
198.7535	0.5896
198.9711	0.5814
199.1888	0.6621
199.4064	0.6027
199.624	0.6591
199.8416	0.5956
200.0592	0.7356
200.2767	0.8035
200.4943	0.8587
200.7119	0.8256
200.9294	0.7662
201.1469	0.6044
201.3645	0.6388
201.582	0.6477
201.7995	0.7429
202.017	0.5749
202.2344	0.6178
202.4519	0.6739
202.6694	0.5566
202.8868	0.6229
203.1042	0.7816
203.3217	0.6264
203.5391	0.5584
203.7565	0.5852
203.9739	0.6905
204.1913	0.6954
204.4086	0.5911
204.626	0.6364
204.8433	0.7437
205.0607	0.6154
205.278	0.8519
205.4953	0.6394
205.7126	0.6215
205.9299	0.6642
206.1472	0.7443
206.3644	0.5883
206.5817	0.7898
206.7989	0.913
207.0162	0.7046
207.2334	0.6216
207.4506	0.7202
207.6678	0.6611
207.885	0.6351
208.1022	0.6803
208.3194	0.7124
208.5365	0.599
208.7537	0.6829
208.9708	0.5812
209.1879	0.6726
209.405	0.7297
209.6222	0.6399
209.8392	0.6434
210.0563	0.6364
210.2734	0.6379
210.4905	0.6503
210.7075	0.6471
210.9245	0.6355
211.1416	0.6728
211.3586	0.6265
211.5756	0.6076
211.7926	0.6528
212.0096	0.5827
212.2265	0.597
212.4435	0.6499
212.6604	0.6207
212.8774	0.644
213.0943	0.6278
213.3112	0.5634
213.5281	0.5271
213.745	0.4956
213.9619	0.5252
214.1788	0.5177
214.3956	0.4856
214.6125	0.4988
214.8293	0.4648
215.0461	0.4819
215.2629	0.4662
215.4798	0.4577
215.6965	0.4385
215.9133	0.4318
216.1301	0.4363
216.3469	0.4313
216.5636	0.4347
216.7803	0.3844
216.9971	0.448
217.2138	0.3792
217.4305	0.3911
217.6472	0.3374
217.8639	0.3812
218.0805	0.3374
218.2972	0.3326
218.5138	0.3198
218.7305	0.3431
218.9471	0.3042
219.1637	0.2876
219.3803	0.28
219.5969	0.29
219.8135	0.2628
220.0301	0.273
220.2466	0.2833
220.4632	0.2648
220.6797	0.2436
220.8962	0.243
221.1127	0.2561
221.3292	0.2494
221.5457	0.2547
221.7622	0.2522
221.9787	0.2472
222.1951	0.2342
222.4116	0.2666
222.628	0.2462
222.8444	0.2555
223.0608	0.2446
223.2772	0.2466
223.4936	0.264
223.71	0.264
223.9264	0.2834
224.1427	0.2342
224.3591	0.2538
224.5754	0.2617
224.7917	0.2758
225.008	0.2711
225.2243	0.2799
225.4406	0.2747
225.6569	0.2861
225.8732	0.2585
226.0894	0.2758
226.3057	0.2792
226.5219	0.3049
226.7381	0.2711
226.9543	0.269
227.1705	0.2906
227.3867	0.2684
227.6029	0.2935
227.8191	0.2972
228.0352	0.289
228.2513	0.3051
228.4675	0.306
228.6836	0.2956
228.8997	0.2929
229.1158	0.3067
229.3319	0.3102
229.548	0.3251
229.764	0.3263
229.9801	0.3304
230.1961	0.2998
230.4121	0.3271
230.6282	0.3545
230.8442	0.3113
231.0602	0.3582
231.2761	0.3652
231.4921	0.3662
231.7081	0.3497
231.924	0.3347
232.14	0.3761
232.3559	0.3284
232.5718	0.361
232.7877	0.3597
233.0036	0.3442
233.2195	0.3632
233.4353	0.3702
233.6512	0.378
233.867	0.3609
234.0829	0.3816
234.2987	0.346
234.5145	0.3704
234.7303	0.3763
234.9461	0.3894
235.1619	0.3823
235.3776	0.3795
235.5934	0.394
235.8091	0.386
236.0249	0.3813
236.2406	0.3947
236.4563	0.3854
236.672	0.4031
236.8877	0.3822
237.1034	0.3872
237.319	0.3954
237.5347	0.4234
237.7503	0.4065
237.966	0.4168
238.1816	0.4183
238.3972	0.3987
238.6128	0.3801
238.8284	0.3882
239.0439	0.4094
239.2595	0.3975
239.475	0.4165
239.6906	0.4337
239.9061	0.4196
240.1216	0.4166
240.3371	0.4108
240.5526	0.3999
240.7681	0.4155
240.9836	0.4047
241.199	0.4137
241.4145	0.3991
241.6299	0.3974
241.8453	0.3883
242.0607	0.4127
242.2761	0.3833
242.4915	0.3926
242.7069	0.3648
242.9223	0.3686
243.1376	0.3594
243.353	0.3744
243.5683	0.3586
243.7836	0.348
243.9989	0.3473
244.2142	0.3281
244.4295	0.3459
244.6448	0.3335
244.86	0.3138
245.0753	0.3123
245.2905	0.2962
245.5057	0.2887
245.721	0.2951
245.9362	0.2825
246.1514	0.2903
246.3665	0.2749
246.5817	0.2805
246.7969	0.264
247.012	0.2688
247.2271	0.2598
247.4423	0.247
247.6574	0.2682
247.8725	0.2411
248.0876	0.246
248.3026	0.2373
248.5177	0.2277
248.7328	0.2194
248.9478	0.2105
249.1628	0.2365
249.3779	0.24
249.5929	0.223
249.8079	0.2301
250.0228	0.2203
250.2378	0.2129
250.4528	0.2094
250.6677	0.1937
250.8827	0.2039
251.0976	0.1929
251.3125	0.1975
251.5274	0.1751
251.7423	0.1941
251.9572	0.1933
252.172	0.1866
252.3869	0.1899
252.6017	0.1965
252.8166	0.1661
253.0314	0.173
253.2462	0.1733
253.461	0.1898
253.6758	0.1842
253.8906	0.1886
254.1053	0.1891
254.3201	0.177
254.5348	0.186
254.7496	0.1876
254.9643	0.1733
255.179	0.1799
255.3937	0.1721
255.6083	0.1779
255.823	0.1768
256.0377	0.1667
256.2523	0.1865
256.467	0.1634
256.6816	0.1809
256.8962	0.1734
257.1108	0.1602
257.3254	0.1812
257.54	0.1768
257.7545	0.1725
257.9691	0.1895
258.1836	0.1733
258.3981	0.1808
258.6127	0.195
258.8272	0.1623
259.0417	0.179
259.2561	0.1708
259.4706	0.1659
259.6851	0.173
259.8995	0.1664
260.114	0.1763
260.3284	0.1701
260.5428	0.1656
260.7572	0.1921
260.9716	0.1745
261.186	0.1665
261.4003	0.1838
261.6147	0.1696
261.829	0.1754
262.0433	0.1617
262.2577	0.1671
262.472	0.1633
262.6863	0.1676
262.9005	0.179
263.1148	0.1811
263.3291	0.1573
263.5433	0.1692
263.7576	0.1729
263.9718	0.1799
264.186	0.173
264.4002	0.1693
264.6144	0.1594
264.8286	0.1717
265.0427	0.1729
265.2569	0.1694
265.471	0.1764
265.6851	0.1615
265.8993	0.1647
266.1134	0.1705
266.3275	0.1703
266.5415	0.1699
266.7556	0.1787
266.9697	0.1718
267.1837	0.163
267.3978	0.1691
267.6118	0.1733
267.8258	0.1971
268.0398	0.1531
268.2538	0.1732
268.4677	0.1769
268.6817	0.17
268.8957	0.1605
269.1096	0.1817
269.3235	0.1867
269.5374	0.1711
269.7514	0.1633
269.9652	0.1636
270.1791	0.1665
270.393	0.1559
270.6068	0.1658
270.8207	0.1512
271.0345	0.16
271.2483	0.1627
271.4622	0.1619
271.676	0.1728
271.8897	0.1497
272.1035	0.1535
272.3173	0.1628
272.531	0.1582
272.7448	0.1594
272.9585	0.1475
273.1722	0.1523
273.3859	0.1505
273.5996	0.1401
273.8133	0.1615
274.0269	0.1564
274.2406	0.1507
274.4542	0.1561
274.6679	0.1545
274.8815	0.1571
275.0951	0.1483
275.3087	0.1709
275.5223	0.1661
275.7358	0.1582
275.9494	0.1667
276.1629	0.1515
276.3765	0.1604
276.59	0.1629
276.8035	0.1635
277.017	0.1592
277.2305	0.1593
277.444	0.1609
277.6574	0.1596
277.8709	0.168
278.0843	0.1617
278.2978	0.1491
278.5112	0.1469
278.7246	0.1656
278.938	0.1684
279.1513	0.1761
279.3647	0.1678
279.5781	0.1535
279.7914	0.1696
280.0047	0.1715
280.2181	0.1657
280.4314	0.1653
280.6447	0.1646
280.8579	0.169
281.0712	0.1678
281.2845	0.1635
281.4977	0.1736
281.711	0.1618
281.9242	0.1614
282.1374	0.1692
282.3506	0.1632
282.5638	0.1584
282.7769	0.1666
282.9901	0.1621
283.2033	0.1787
283.4164	0.1748
283.6295	0.1631
283.8426	0.1511
284.0557	0.1633
284.2688	0.1787
284.4819	0.1666
284.695	0.1625
284.908	0.1764
285.1211	0.1674
285.3341	0.1769
285.5471	0.174
285.7601	0.1698
285.9731	0.1656
286.1861	0.1656
286.3991	0.1753
286.612	0.174
286.825	0.1614
287.0379	0.1743
287.2508	0.1696
287.4637	0.1595
287.6766	0.1463
287.8895	0.1688
288.1024	0.1774
288.3152	0.1748
288.5281	0.1587
288.7409	0.1637
288.9538	0.1669
289.1666	0.1602
289.3794	0.1634
289.5922	0.1592
289.8049	0.1618
290.0177	0.1536
290.2304	0.1583
290.4432	0.1627
290.6559	0.1665
290.8686	0.1605
291.0813	0.1615
291.294	0.1638
291.5067	0.1744
291.7194	0.1539
291.932	0.1715
292.1447	0.1697
292.3573	0.157
292.5699	0.1583
292.7825	0.1578
292.9951	0.1594
293.2077	0.1595
293.4203	0.1602
293.6328	0.1438
293.8454	0.1691
294.0579	0.1607
294.2704	0.1552
294.4829	0.148
294.6954	0.1552
294.9079	0.1582
295.1204	0.1531
295.3328	0.1622
295.5453	0.152
295.7577	0.1717
295.9701	0.1493
296.1825	0.1521
296.3949	0.1602
296.6073	0.1469
296.8197	0.1476
297.0321	0.1617
297.2444	0.1387
297.4567	0.1605
297.6691	0.1575
297.8814	0.1489
298.0937	0.1586
298.306	0.1682
298.5182	0.1643
298.7305	0.1717
298.9428	0.1527
299.155	0.159
299.3672	0.1618
299.5794	0.1551
299.7916	0.1497
300.0038	0.1642
300.216	0.1652
300.4282	0.1625
300.6403	0.1521
300.8525	0.1605
301.0646	0.1657
301.2767	0.1623
301.4888	0.1526
301.7009	0.161
301.913	0.148
302.125	0.1524
302.3371	0.1485
302.5491	0.1563
302.7612	0.1595
302.9732	0.1567
303.1852	0.1649
303.3972	0.1551
303.6092	0.157
303.8211	0.1431
304.0331	0.1482
304.245	0.142
304.457	0.1421
304.6689	0.1525
304.8808	0.1635
305.0927	0.1391
305.3046	0.1467
305.5164	0.1488
305.7283	0.1474
305.9401	0.1473
306.152	0.1394
306.3638	0.1454
306.5756	0.1399
306.7874	0.1442
306.9992	0.1464
307.2109	0.1381
307.4227	0.1277
307.6344	0.1342
307.8462	0.1331
308.0579	0.1417
308.2696	0.1389
308.4813	0.1399
308.693	0.137
308.9046	0.1455
309.1163	0.1254
309.328	0.1133
309.5396	0.1206
309.7512	0.1218
309.9628	0.1198
310.1744	0.1181
310.386	0.1276
310.5976	0.1244
310.8091	0.1176
311.0207	0.1137
311.2322	0.1203
311.4437	0.103
311.6552	0.1148
311.8667	0.122
312.0782	0.1098
312.2897	0.1069
312.5012	0.1195
312.7126	0.1152
312.924	0.1071
313.1355	0.1285
313.3469	0.1118
313.5583	0.1207
313.7696	0.1112
313.981	0.1139
314.1924	0.1104
314.4037	0.1096
314.6151	0.1136
314.8264	0.0941
315.0377	0.1045
315.249	0.1076
315.4603	0.1098
315.6716	0.1134
315.8828	0.0985
316.0941	0.1164
316.3053	0.102
316.5165	0.0943
316.7277	0.0967
316.9389	0.1205
317.1501	0.1036
317.3613	0.1106
317.5724	0.0945
317.7836	0.1094
317.9947	0.1004
318.2058	0.1194
318.417	0.1017
318.6281	0.098
318.8391	0.101
319.0502	0.1078
319.2613	0.1014
319.4723	0.105
319.6834	0.1126
319.8944	0.0975
320.1054	0.105
320.3164	0.1182
320.5274	0.0971
320.7383	0.1083
320.9493	0.1118
321.1602	0.1173
321.3712	0.0906
321.5821	0.1104
321.793	0.1032
322.0039	0.1054
322.2148	0.1051
322.4257	0.1098
322.6365	0.1084
322.8474	0.1094
323.0582	0.1014
323.269	0.1075
323.4798	0.1241
323.6906	0.1264
323.9014	0.1046
324.1122	0.1155
324.3229	0.1115
324.5337	0.1076
324.7444	0.1045
324.9551	0.1233
325.1658	0.118
325.3765	0.1173
325.5872	0.1103
325.7979	0.1
326.0085	0.111
326.2192	0.1171
326.4298	0.1083
326.6404	0.0974
326.851	0.1023
327.0616	0.1073
327.2722	0.1184
327.4828	0.126
327.6933	0.1137
327.9039	0.1116
328.1144	0.1237
328.3249	0.1146
328.5354	0.1057
328.7459	0.1096
328.9564	0.1079
329.1669	0.1073
329.3773	0.118
329.5878	0.1188
329.7982	0.1164
330.0086	0.1252
330.219	0.1129
330.4294	0.1121
330.6398	0.1028
330.8502	0.1057
331.0605	0.1249
331.2708	0.1169
331.4812	0.1201
331.6915	0.1292
331.9018	0.12
332.1121	0.1092
332.3224	0.119
332.5326	0.1222
332.7429	0.1244
332.9531	0.1211
333.1633	0.1197
333.3735	0.1253
333.5837	0.1128
333.7939	0.1084
334.0041	0.1216
334.2143	0.1162
334.4244	0.1049
334.6346	0.1187
334.8447	0.1271
335.0548	0.1097
335.2649	0.1021
335.475	0.1207
335.685	0.1078
335.8951	0.1385
336.1051	0.1211
336.3152	0.1216
336.5252	0.1197
336.7352	0.1245
336.9452	0.1293
337.1552	0.1257
337.3652	0.121
337.5751	0.1164
337.7851	0.1298
337.995	0.1231
338.2049	0.1181
338.4148	0.1136
338.6247	0.1288
338.8346	0.1222
339.0445	0.1131
339.2543	0.1218
339.4642	0.1266
339.674	0.1101
339.8838	0.1156
340.0936	0.1263
340.3034	0.1318
340.5132	0.1337
340.7229	0.1241
340.9327	0.1192
341.1424	0.1159
341.3522	0.1471
341.5619	0.1234
341.7716	0.1303
341.9813	0.1331
342.1909	0.1281
342.4006	0.1417
342.6102	0.1409
342.8199	0.1307
343.0295	0.1341
343.2391	0.1347
343.4487	0.1378
343.6583	0.1312
343.8679	0.1308
344.0774	0.1396
344.287	0.1327
344.4965	0.1261
344.706	0.1417
344.9155	0.1311
345.125	0.1293
345.3345	0.1363
345.544	0.1278
345.7534	0.1345
345.9629	0.1355
346.1723	0.1417
346.3817	0.1346
346.5911	0.1334
346.8005	0.1388
347.0099	0.1333
347.2193	0.1381
347.4286	0.1319
347.638	0.1476
347.8473	0.1411
348.0566	0.1406
348.2659	0.1482
348.4752	0.1361
348.6845	0.1359
348.8937	0.1451
349.103	0.1466
349.3122	0.1253
349.5214	0.1325
349.7306	0.1461
349.9398	0.136
350.149	0.1472
350.3582	0.1411
350.5674	0.1511
350.7765	0.1383
350.9856	0.1516
351.1948	0.15
351.4039	0.1441
351.613	0.1396
351.822	0.1461
352.0311	0.1652
352.2402	0.1602
352.4492	0.153
352.6582	0.1549
352.8672	0.1436
353.0762	0.1525
353.2852	0.1393
353.4942	0.129
353.7032	0.162
353.9121	0.1481
354.1211	0.1576
354.33	0.1605
354.5389	0.1568
354.7478	0.1455
354.9567	0.157
355.1655	0.1395
355.3744	0.1582
355.5833	0.169
355.7921	0.1715
356.0009	0.1467
356.2097	0.1766
356.4185	0.1642
356.6273	0.1655
356.8361	0.1746
357.0448	0.1521
357.2536	0.1519
357.4623	0.1575
357.671	0.1636
357.8797	0.1734
358.0884	0.1721
358.2971	0.1541
358.5057	0.1717
358.7144	0.1661
358.923	0.164
359.1316	0.172
359.3402	0.1806
359.5488	0.1532
359.7574	0.1589
359.966	0.1788
360.1746	0.1841
360.3831	0.1697
360.5916	0.1744
360.8002	0.1632
361.0087	0.1852
361.2172	0.1846
361.4256	0.1808
361.6341	0.2043
361.8426	0.1937
362.051	0.1736
362.2594	0.1749
362.4678	0.1797
362.6762	0.1982
362.8846	0.1958
363.093	0.1844
363.3014	0.1836
363.5097	0.172
363.718	0.1729
363.9264	0.179
364.1347	0.1853
364.343	0.1898
364.5513	0.1898
364.7595	0.1979
364.9678	0.1799
365.176	0.1892
365.3842	0.1816
365.5925	0.1917
365.8007	0.1867
366.0089	0.2011
366.217	0.184
366.4252	0.1921
366.6333	0.204
366.8415	0.2013
367.0496	0.1901
367.2577	0.2044
367.4658	0.1969
367.6739	0.2097
367.882	0.2071
368.09	0.1993
368.2981	0.2006
368.5061	0.1908
368.7141	0.1978
368.9221	0.204
369.1301	0.212
369.3381	0.2039
369.5461	0.1924
369.754	0.2083
369.962	0.2009
370.1699	0.2007
370.3778	0.2173
370.5857	0.1979
370.7936	0.205
371.0015	0.1985
371.2093	0.2128
371.4172	0.2215
371.625	0.2
371.8328	0.2009
372.0406	0.2163
372.2484	0.2116
372.4562	0.2123
372.664	0.229
372.8717	0.2259
373.0795	0.2022
373.2872	0.2141
373.4949	0.2075
373.7026	0.2073
373.9103	0.2226
374.118	0.2089
374.3256	0.2043
374.5333	0.219
374.7409	0.2059
374.9485	0.2375
375.1561	0.233
375.3637	0.2204
375.5713	0.2248
375.7789	0.2174
375.9864	0.2258
376.194	0.2226
376.4015	0.2299
376.609	0.2207
376.8165	0.2095
377.024	0.2062
377.2315	0.2089
377.4389	0.2149
377.6464	0.2209
377.8538	0.2154
378.0612	0.2116
378.2686	0.2209
378.476	0.2335
378.6834	0.2257
378.8908	0.2279
379.0981	0.2386
379.3055	0.2412
379.5128	0.2078
379.7201	0.2267
379.9274	0.2301
380.1347	0.2354
380.342	0.2411
380.5492	0.218
380.7565	0.2395
380.9637	0.2396
381.1709	0.2441
381.3781	0.2351
381.5853	0.2342
381.7925	0.244
381.9997	0.2362
382.2068	0.2457
382.4139	0.2216
382.6211	0.2196
382.8282	0.2323
383.0353	0.235
383.2424	0.2326
383.4494	0.2453
383.6565	0.2405
383.8635	0.2283
384.0706	0.2351
384.2776	0.2515
384.4846	0.2382
384.6916	0.229
384.8986	0.2172
385.1055	0.2288
385.3125	0.239
385.5194	0.2189
385.7263	0.2289
385.9333	0.2286
386.1402	0.2225
386.347	0.2298
386.5539	0.2118
386.7608	0.2406
386.9676	0.2268
387.1744	0.2293
387.3813	0.2215
387.5881	0.2246
387.7948	0.2086
388.0016	0.2244
388.2084	0.2456
388.4151	0.212
388.6219	0.2561
388.8286	0.2189
389.0353	0.2541
389.242	0.217
389.4487	0.226
389.6553	0.211
389.862	0.2241
390.0686	0.2265
390.2753	0.2218
390.4819	0.2198
390.6885	0.2215
390.8951	0.2216
391.1016	0.2136
391.3082	0.1999
391.5147	0.2197
391.7213	0.2125
391.9278	0.1983
392.1343	0.2138
392.3408	0.2126
392.5473	0.2117
392.7537	0.2039
392.9602	0.2058
393.1666	0.2151
393.373	0.2003
393.5794	0.2227
393.7858	0.2029
393.9922	0.2018
394.1986	0.1935
394.4049	0.2087
394.6113	0.2125
394.8176	0.201
395.0239	0.2104
395.2302	0.1912
395.4365	0.1907
395.6428	0.1987
395.8491	0.2038
396.0553	0.2089
396.2615	0.1916
396.4678	0.1925
396.674	0.1953
396.8802	0.1869
397.0863	0.2119
397.2925	0.1717
397.4987	0.1877
397.7048	0.1871
397.9109	0.2105
398.117	0.2008
398.3231	0.194
398.5292	0.1961
398.7353	0.1896
398.9413	0.1833
399.1474	0.1871
399.3534	0.1974
399.5594	0.174
399.7654	0.1972
399.9714	0.1917
400.1774	0.1907
400.3833	0.1861
400.5893	0.1955
400.7952	0.1907
401.0011	0.1934
401.207	0.199
401.4129	0.1791
401.6188	0.172
401.8247	0.1898
402.0305	0.1939
402.2364	0.1789
402.4422	0.204
402.648	0.1911
402.8538	0.193
403.0596	0.1954
403.2654	0.1963
403.4711	0.1763
403.6768	0.1939
403.8826	0.2093
404.0883	0.1826
404.294	0.1971
404.4997	0.1871
404.7054	0.208
404.911	0.1686
405.1167	0.1852
405.3223	0.2011
405.5279	0.188
405.7335	0.207
405.9391	0.2033
406.1447	0.1925
406.3502	0.203
406.5558	0.1804
406.7613	0.1942
406.9668	0.1867
407.1724	0.1934
407.3778	0.1714
407.5833	0.1804
407.7888	0.1891
407.9942	0.199
408.1997	0.1801
408.4051	0.1874
408.6105	0.1909
408.8159	0.1647
409.0213	0.1715
409.2267	0.1888
409.432	0.1737
409.6374	0.1779
409.8427	0.191
410.048	0.193
410.2533	0.1744
410.4586	0.1759
410.6639	0.1826
410.8691	0.1831
411.0744	0.1858
411.2796	0.1953
411.4848	0.1797
411.69	0.1893
411.8952	0.2021
412.1004	0.1903
412.3056	0.21
412.5107	0.1748
412.7158	0.192
412.921	0.1781
413.1261	0.187
413.3312	0.1791
413.5362	0.1831
413.7413	0.179
413.9464	0.187
414.1514	0.1743
414.3564	0.1887
414.5614	0.178
414.7664	0.1732
414.9714	0.1726
415.1764	0.1856
415.3813	0.2121
415.5863	0.1808
415.7912	0.1795
415.9961	0.1677
416.201	0.1657
416.4059	0.1823
416.6108	0.152
416.8156	0.1823
417.0205	0.1657
417.2253	0.1698
417.4301	0.1793
417.6349	0.1938
417.8397	0.1707
418.0445	0.1869
418.2492	0.1844
418.454	0.1616
418.6587	0.1653
418.8634	0.1847
419.0681	0.1521
419.2728	0.1636
419.4775	0.1621
419.6822	0.1492
419.8868	0.1501
420.0915	0.1799
420.2961	0.1783
420.5007	0.15
420.7053	0.1748
420.9099	0.1653
421.1144	0.1639
421.319	0.1546
421.5235	0.1758
421.728	0.1767
421.9325	0.1668
422.137	0.1834
422.3415	0.1563
422.546	0.163
422.7504	0.1486
422.9549	0.1641
423.1593	0.1662
423.3637	0.1659
423.5681	0.1742
423.7725	0.1525
423.9769	0.1414
424.1812	0.1558
424.3856	0.1495
424.5899	0.1562
424.7942	0.1578
424.9985	0.1602
425.2028	0.1419
425.4071	0.1538
425.6113	0.1445
425.8156	0.1529
426.0198	0.1484
426.224	0.1363
426.4282	0.1411
426.6324	0.1454
