Data from MonoPyChalIsomerACN10uM420nmA_Absorbance_15-09-51-235.txt Node
Date: Fri Jul 05 15:09:51 BST 2024
User: LASERRRRR
Spectrometer: FLMT03099
Trigger mode: 0
Integration Time (sec): 1.000000E-1
Scans to average: 1
Electric dark correction enabled: true
Nonlinearity correction enabled: false
Boxcar width: 0
XAxis mode: Wavelengths
Number of Pixels in Spectrum: 3648
>>>>>Begin Spectral Data<<<<<
179.3399	0.0201
179.5586	0.0201
179.7771	0.0201
179.9957	-0
180.2143	0.6824
180.4329	1.0328
180.6514	-0
180.8699	0.0046
181.0885	-0.1126
181.307	0.5073
181.5255	-1.0223
181.744	-0
181.9625	0.2185
182.181	-0.8498
182.3994	-0
182.6179	0.1715
182.8363	0.6447
183.0547	-0.058
183.2732	0.3498
183.4916	0.066
183.71	0.0402
183.9284	0.4404
184.1467	0.1307
184.3651	-0.0329
184.5835	-0.1081
184.8018	0.5138
185.0201	0.0732
185.2385	0.246
185.4568	0.7257
185.6751	-0.2115
185.8934	0.4029
186.1117	0.0551
186.3299	0.1203
186.5482	0.0269
186.7664	-0.1683
186.9847	-0.0358
187.2029	0.2417
187.4211	0.685
187.6393	0.4328
187.8575	0.1625
188.0757	0.2939
188.2939	0.1633
188.512	-0.0814
188.7302	0.322
188.9483	0.3813
189.1665	0.0182
189.3846	-0
189.6027	0.2126
189.8208	0.2419
190.0389	0.1899
190.257	0.1678
190.475	0.3406
190.6931	0.2282
190.9111	0.5298
191.1292	0.2109
191.3472	0.3774
191.5652	0.256
191.7832	0.2594
192.0012	0.4118
192.2192	0.4605
192.4371	0.7484
192.6551	0.3083
192.873	0.4908
193.091	0.5765
193.3089	0.4732
193.5268	0.7718
193.7447	0.6158
193.9626	0.4424
194.1805	0.5975
194.3984	0.8371
194.6162	0.6957
194.8341	0.4642
195.0519	0.5293
195.2697	1.095
195.4875	0.7966
195.7054	0.6768
195.9231	0.577
196.1409	0.5397
196.3587	0.6427
196.5765	0.7255
196.7942	0.7045
197.012	0.5085
197.2297	0.6139
197.4474	0.9412
197.6651	0.5947
197.8828	0.5929
198.1005	0.7058
198.3182	0.7466
198.5358	0.7523
198.7535	0.6146
198.9711	0.5866
199.1888	0.6168
199.4064	0.7668
199.624	0.727
199.8416	0.6825
200.0592	0.6666
200.2767	0.6768
200.4943	0.794
200.7119	0.866
200.9294	0.7815
201.1469	0.612
201.3645	0.7502
201.582	0.6128
201.7995	0.6426
202.017	0.7207
202.2344	0.7771
202.4519	0.7659
202.6694	0.7486
202.8868	0.639
203.1042	0.8318
203.3217	0.6826
203.5391	0.6394
203.7565	0.7649
203.9739	0.6426
204.1913	0.6156
204.4086	0.6383
204.626	0.7183
204.8433	0.6521
205.0607	0.6375
205.278	0.6558
205.4953	0.732
205.7126	0.6827
205.9299	0.7332
206.1472	0.7443
206.3644	0.6884
206.5817	0.7005
206.7989	0.7109
207.0162	0.6239
207.2334	0.6723
207.4506	0.5885
207.6678	0.6385
207.885	0.7173
208.1022	0.7161
208.3194	0.6149
208.5365	0.7343
208.7537	0.6041
208.9708	0.5865
209.1879	0.6642
209.405	0.7022
209.6222	0.7604
209.8392	0.6313
210.0563	0.6783
210.2734	0.6438
210.4905	0.673
210.7075	0.6707
210.9245	0.6202
211.1416	0.6213
211.3586	0.6159
211.5756	0.6014
211.7926	0.6216
212.0096	0.5714
212.2265	0.6138
212.4435	0.677
212.6604	0.6274
212.8774	0.6465
213.0943	0.6106
213.3112	0.528
213.5281	0.5403
213.745	0.5572
213.9619	0.5598
214.1788	0.496
214.3956	0.4815
214.6125	0.4889
214.8293	0.471
215.0461	0.4717
215.2629	0.4922
215.4798	0.5198
215.6965	0.4519
215.9133	0.5061
216.1301	0.415
216.3469	0.4666
216.5636	0.429
216.7803	0.4202
216.9971	0.4254
217.2138	0.3792
217.4305	0.3917
217.6472	0.3819
217.8639	0.3753
218.0805	0.3569
218.2972	0.342
218.5138	0.3387
218.7305	0.3228
218.9471	0.3223
219.1637	0.2992
219.3803	0.294
219.5969	0.2857
219.8135	0.2643
220.0301	0.2856
220.2466	0.276
220.4632	0.2401
220.6797	0.2728
220.8962	0.2519
221.1127	0.2578
221.3292	0.261
221.5457	0.2543
221.7622	0.2127
221.9787	0.2578
222.1951	0.2495
222.4116	0.2637
222.628	0.2483
222.8444	0.2681
223.0608	0.2556
223.2772	0.2807
223.4936	0.2761
223.71	0.265
223.9264	0.2671
224.1427	0.2442
224.3591	0.2556
224.5754	0.2699
224.7917	0.2396
225.008	0.2675
225.2243	0.2564
225.4406	0.3013
225.6569	0.2828
225.8732	0.2907
226.0894	0.2671
226.3057	0.2579
226.5219	0.2879
226.7381	0.2683
226.9543	0.284
227.1705	0.3067
227.3867	0.2734
227.6029	0.3241
227.8191	0.3048
228.0352	0.317
228.2513	0.3141
228.4675	0.3249
228.6836	0.2903
228.8997	0.3225
229.1158	0.3236
229.3319	0.3242
229.548	0.3234
229.764	0.3213
229.9801	0.3327
230.1961	0.3251
230.4121	0.3285
230.6282	0.3453
230.8442	0.3148
231.0602	0.3516
231.2761	0.3556
231.4921	0.342
231.7081	0.3624
231.924	0.3667
232.14	0.3507
232.3559	0.3431
232.5718	0.3706
232.7877	0.3514
233.0036	0.3429
233.2195	0.3687
233.4353	0.3604
233.6512	0.362
233.867	0.3701
234.0829	0.3613
234.2987	0.3676
234.5145	0.3856
234.7303	0.3832
234.9461	0.363
235.1619	0.3926
235.3776	0.3723
235.5934	0.398
235.8091	0.3868
236.0249	0.3648
236.2406	0.3907
236.4563	0.3948
236.672	0.4124
236.8877	0.4135
237.1034	0.4061
237.319	0.3943
237.5347	0.396
237.7503	0.39
237.966	0.4087
238.1816	0.4101
238.3972	0.4222
238.6128	0.3898
238.8284	0.4233
239.0439	0.4118
239.2595	0.4269
239.475	0.4355
239.6906	0.4167
239.9061	0.4297
240.1216	0.4031
240.3371	0.4228
240.5526	0.4099
240.7681	0.4111
240.9836	0.3828
241.199	0.4017
241.4145	0.404
241.6299	0.38
241.8453	0.3888
242.0607	0.3835
242.2761	0.376
242.4915	0.3936
242.7069	0.3788
242.9223	0.3627
243.1376	0.3511
243.353	0.355
243.5683	0.3653
243.7836	0.3361
243.9989	0.3368
244.2142	0.3179
244.4295	0.3347
244.6448	0.3229
244.86	0.3091
245.0753	0.2895
245.2905	0.2999
245.5057	0.2848
245.721	0.2892
245.9362	0.2736
246.1514	0.2831
246.3665	0.2689
246.5817	0.2697
246.7969	0.2399
247.012	0.2548
247.2271	0.2497
247.4423	0.2525
247.6574	0.2488
247.8725	0.2311
248.0876	0.2308
248.3026	0.2325
248.5177	0.2499
248.7328	0.2093
248.9478	0.2322
249.1628	0.2067
249.3779	0.226
249.5929	0.2154
249.8079	0.2243
250.0228	0.2093
250.2378	0.203
250.4528	0.2188
250.6677	0.1889
250.8827	0.2014
251.0976	0.1989
251.3125	0.1969
251.5274	0.1874
251.7423	0.1863
251.9572	0.1919
252.172	0.1845
252.3869	0.189
252.6017	0.1874
252.8166	0.184
253.0314	0.182
253.2462	0.1703
253.461	0.1741
253.6758	0.1802
253.8906	0.1942
254.1053	0.17
254.3201	0.18
254.5348	0.1759
254.7496	0.1809
254.9643	0.1732
255.179	0.1857
255.3937	0.1854
255.6083	0.1779
255.823	0.181
256.0377	0.1905
256.2523	0.1673
256.467	0.1645
256.6816	0.1779
256.8962	0.1763
257.1108	0.1619
257.3254	0.1739
257.54	0.1751
257.7545	0.1729
257.9691	0.1774
258.1836	0.1716
258.3981	0.1802
258.6127	0.1802
258.8272	0.1674
259.0417	0.1694
259.2561	0.1672
259.4706	0.1823
259.6851	0.1713
259.8995	0.173
260.114	0.165
260.3284	0.1601
260.5428	0.1596
260.7572	0.1789
260.9716	0.1763
261.186	0.1602
261.4003	0.1823
261.6147	0.178
261.829	0.1799
262.0433	0.1645
262.2577	0.1631
262.472	0.1755
262.6863	0.1716
262.9005	0.1841
263.1148	0.1716
263.3291	0.1623
263.5433	0.1743
263.7576	0.1695
263.9718	0.1667
264.186	0.1732
264.4002	0.1597
264.6144	0.1793
264.8286	0.1783
265.0427	0.1633
265.2569	0.1649
265.471	0.1619
265.6851	0.1705
265.8993	0.1649
266.1134	0.1587
266.3275	0.1674
266.5415	0.1713
266.7556	0.1772
266.9697	0.1692
267.1837	0.1751
267.3978	0.1652
267.6118	0.1812
267.8258	0.1816
268.0398	0.1722
268.2538	0.1729
268.4677	0.1697
268.6817	0.1667
268.8957	0.1648
269.1096	0.1705
269.3235	0.1733
269.5374	0.173
269.7514	0.1633
269.9652	0.1569
270.1791	0.1631
270.393	0.1523
270.6068	0.1599
270.8207	0.1635
271.0345	0.1487
271.2483	0.168
271.4622	0.158
271.676	0.1637
271.8897	0.1446
272.1035	0.1448
272.3173	0.1405
272.531	0.1481
272.7448	0.1548
272.9585	0.1497
273.1722	0.1533
273.3859	0.1563
273.5996	0.1486
273.8133	0.1582
274.0269	0.1393
274.2406	0.1418
274.4542	0.1593
274.6679	0.1395
274.8815	0.149
275.0951	0.1589
275.3087	0.1595
275.5223	0.1478
275.7358	0.1604
275.9494	0.1537
276.1629	0.1475
276.3765	0.1504
276.59	0.1523
276.8035	0.1534
277.017	0.1536
277.2305	0.1404
277.444	0.1612
277.6574	0.147
277.8709	0.1616
278.0843	0.1486
278.2978	0.1535
278.5112	0.1533
278.7246	0.1613
278.938	0.1514
279.1513	0.1611
279.3647	0.1675
279.5781	0.144
279.7914	0.1677
280.0047	0.1796
280.2181	0.1646
280.4314	0.1649
280.6447	0.1573
280.8579	0.1579
281.0712	0.1745
281.2845	0.1652
281.4977	0.1642
281.711	0.1467
281.9242	0.1586
282.1374	0.1643
282.3506	0.1626
282.5638	0.1659
282.7769	0.1498
282.9901	0.1621
283.2033	0.1729
283.4164	0.1592
283.6295	0.1533
283.8426	0.1581
284.0557	0.1653
284.2688	0.1757
284.4819	0.1583
284.695	0.1628
284.908	0.1708
285.1211	0.1581
285.3341	0.1557
285.5471	0.1768
285.7601	0.1627
285.9731	0.1565
286.1861	0.1612
286.3991	0.1625
286.612	0.1773
286.825	0.1732
287.0379	0.1691
287.2508	0.164
287.4637	0.1654
287.6766	0.164
287.8895	0.1692
288.1024	0.185
288.3152	0.1706
288.5281	0.1567
288.7409	0.1639
288.9538	0.1579
289.1666	0.162
289.3794	0.1678
289.5922	0.1602
289.8049	0.1723
290.0177	0.1568
290.2304	0.1706
290.4432	0.168
290.6559	0.1607
290.8686	0.1775
291.0813	0.1664
291.294	0.1585
291.5067	0.1704
291.7194	0.1663
291.932	0.1732
292.1447	0.1661
292.3573	0.1608
292.5699	0.1694
292.7825	0.1728
292.9951	0.1678
293.2077	0.1618
293.4203	0.1669
293.6328	0.1542
293.8454	0.1669
294.0579	0.1674
294.2704	0.173
294.4829	0.1556
294.6954	0.1732
294.9079	0.1637
295.1204	0.167
295.3328	0.1593
295.5453	0.1627
295.7577	0.1678
295.9701	0.1587
296.1825	0.1668
296.3949	0.1619
296.6073	0.1692
296.8197	0.1595
297.0321	0.179
297.2444	0.157
297.4567	0.1581
297.6691	0.1728
297.8814	0.1622
298.0937	0.1673
298.306	0.1706
298.5182	0.1609
298.7305	0.1754
298.9428	0.1585
299.155	0.1764
299.3672	0.1612
299.5794	0.1598
299.7916	0.1663
300.0038	0.1712
300.216	0.173
300.4282	0.1701
300.6403	0.1573
300.8525	0.1733
301.0646	0.1456
301.2767	0.1676
301.4888	0.1602
301.7009	0.1637
301.913	0.1585
302.125	0.1585
302.3371	0.1594
302.5491	0.1674
302.7612	0.1593
302.9732	0.1664
303.1852	0.1613
303.3972	0.1624
303.6092	0.1514
303.8211	0.1516
304.0331	0.1563
304.245	0.1529
304.457	0.1512
304.6689	0.1479
304.8808	0.1591
305.0927	0.1533
305.3046	0.1532
305.5164	0.1515
305.7283	0.1559
305.9401	0.1473
306.152	0.1553
306.3638	0.1462
306.5756	0.1563
306.7874	0.1438
306.9992	0.1515
307.2109	0.145
307.4227	0.1296
307.6344	0.1435
307.8462	0.137
308.0579	0.1337
308.2696	0.1401
308.4813	0.1381
308.693	0.1292
308.9046	0.1368
309.1163	0.1311
309.328	0.1264
309.5396	0.1328
309.7512	0.1217
309.9628	0.122
310.1744	0.1302
310.386	0.1228
310.5976	0.112
310.8091	0.1257
311.0207	0.1231
311.2322	0.1194
311.4437	0.1053
311.6552	0.1079
311.8667	0.1178
312.0782	0.1093
312.2897	0.107
312.5012	0.1185
312.7126	0.1133
312.924	0.104
313.1355	0.1139
313.3469	0.1129
313.5583	0.1138
313.7696	0.1125
313.981	0.1219
314.1924	0.1069
314.4037	0.0945
314.6151	0.1116
314.8264	0.0989
315.0377	0.1129
315.249	0.1116
315.4603	0.1141
315.6716	0.104
315.8828	0.1078
316.0941	0.113
316.3053	0.0992
316.5165	0.0991
316.7277	0.1039
316.9389	0.0963
317.1501	0.0962
317.3613	0.1025
317.5724	0.0991
317.7836	0.1008
317.9947	0.1015
318.2058	0.1052
318.417	0.0982
318.6281	0.0913
318.8391	0.0978
319.0502	0.0973
319.2613	0.1012
319.4723	0.1229
319.6834	0.1026
319.8944	0.0934
320.1054	0.1002
320.3164	0.1061
320.5274	0.0982
320.7383	0.0944
320.9493	0.1053
321.1602	0.1119
321.3712	0.0941
321.5821	0.1043
321.793	0.1018
322.0039	0.1035
322.2148	0.1017
322.4257	0.1017
322.6365	0.1055
322.8474	0.1166
323.0582	0.1092
323.269	0.1063
323.4798	0.1058
323.6906	0.1046
323.9014	0.1152
324.1122	0.1117
324.3229	0.1002
324.5337	0.1121
324.7444	0.1023
324.9551	0.1181
325.1658	0.1066
325.3765	0.1068
325.5872	0.1045
325.7979	0.1063
326.0085	0.1046
326.2192	0.1148
326.4298	0.1097
326.6404	0.1042
326.851	0.0936
327.0616	0.1072
327.2722	0.1071
327.4828	0.1133
327.6933	0.1109
327.9039	0.1182
328.1144	0.1215
328.3249	0.1153
328.5354	0.1036
328.7459	0.1311
328.9564	0.1003
329.1669	0.102
329.3773	0.1198
329.5878	0.1095
329.7982	0.1053
330.0086	0.1053
330.219	0.1111
330.4294	0.1126
330.6398	0.1082
330.8502	0.1099
331.0605	0.1102
331.2708	0.1088
331.4812	0.1149
331.6915	0.113
331.9018	0.1088
332.1121	0.1136
332.3224	0.114
332.5326	0.1054
332.7429	0.1112
332.9531	0.1191
333.1633	0.116
333.3735	0.1197
333.5837	0.1106
333.7939	0.0991
334.0041	0.1211
334.2143	0.1237
334.4244	0.1195
334.6346	0.0889
334.8447	0.1191
335.0548	0.1092
335.2649	0.0975
335.475	0.1271
335.685	0.1151
335.8951	0.1252
336.1051	0.1138
336.3152	0.1147
336.5252	0.1043
336.7352	0.1143
336.9452	0.1216
337.1552	0.1135
337.3652	0.1149
337.5751	0.1254
337.7851	0.1147
337.995	0.1104
338.2049	0.1187
338.4148	0.1076
338.6247	0.1201
338.8346	0.1062
339.0445	0.1132
339.2543	0.1179
339.4642	0.1219
339.674	0.1118
339.8838	0.1154
340.0936	0.1097
340.3034	0.1263
340.5132	0.1285
340.7229	0.1195
340.9327	0.1108
341.1424	0.1206
341.3522	0.1355
341.5619	0.1259
341.7716	0.1249
341.9813	0.1226
342.1909	0.1172
342.4006	0.134
342.6102	0.129
342.8199	0.1179
343.0295	0.1335
343.2391	0.1264
343.4487	0.126
343.6583	0.1316
343.8679	0.1215
344.0774	0.1261
344.287	0.1277
344.4965	0.1349
344.706	0.1271
344.9155	0.12
345.125	0.1321
345.3345	0.1349
345.544	0.132
345.7534	0.1335
345.9629	0.1304
346.1723	0.1315
346.3817	0.1311
346.5911	0.1259
346.8005	0.1439
347.0099	0.139
347.2193	0.1295
347.4286	0.1217
347.638	0.1429
347.8473	0.1346
348.0566	0.1403
348.2659	0.1471
348.4752	0.14
348.6845	0.1292
348.8937	0.1386
349.103	0.1534
349.3122	0.1302
349.5214	0.1342
349.7306	0.1369
349.9398	0.1389
350.149	0.1399
350.3582	0.1486
350.5674	0.1568
350.7765	0.1566
350.9856	0.1311
351.1948	0.1391
351.4039	0.133
351.613	0.1289
351.822	0.1444
352.0311	0.1439
352.2402	0.1547
352.4492	0.1536
352.6582	0.1424
352.8672	0.1529
353.0762	0.1433
353.2852	0.1387
353.4942	0.1431
353.7032	0.1563
353.9121	0.1568
354.1211	0.1616
354.33	0.1498
354.5389	0.1526
354.7478	0.1522
354.9567	0.174
355.1655	0.1533
355.3744	0.1506
355.5833	0.1583
355.7921	0.1657
356.0009	0.1538
356.2097	0.1799
356.4185	0.1553
356.6273	0.1641
356.8361	0.1811
357.0448	0.1633
357.2536	0.1645
357.4623	0.1674
357.671	0.168
357.8797	0.1684
358.0884	0.1719
358.2971	0.171
358.5057	0.171
358.7144	0.1715
358.923	0.1635
359.1316	0.1662
359.3402	0.1762
359.5488	0.161
359.7574	0.167
359.966	0.175
360.1746	0.1669
360.3831	0.1795
360.5916	0.1691
360.8002	0.1615
361.0087	0.1792
361.2172	0.1823
361.4256	0.177
361.6341	0.1913
361.8426	0.1798
362.051	0.1771
362.2594	0.1698
362.4678	0.1647
362.6762	0.2018
362.8846	0.1913
363.093	0.1884
363.3014	0.1731
363.5097	0.182
363.718	0.1834
363.9264	0.1715
364.1347	0.1906
364.343	0.1945
364.5513	0.2029
364.7595	0.2037
364.9678	0.1844
365.176	0.1971
365.3842	0.1922
365.5925	0.1969
365.8007	0.2041
366.0089	0.1928
366.217	0.1955
366.4252	0.1951
366.6333	0.2081
366.8415	0.1976
367.0496	0.1876
367.2577	0.2088
367.4658	0.2197
367.6739	0.2043
367.882	0.2024
368.09	0.1862
368.2981	0.2112
368.5061	0.2092
368.7141	0.2207
368.9221	0.2171
369.1301	0.196
369.3381	0.2176
369.5461	0.2049
369.754	0.2067
369.962	0.2183
370.1699	0.1986
370.3778	0.2085
370.5857	0.1883
370.7936	0.2285
371.0015	0.2292
371.2093	0.229
371.4172	0.21
371.625	0.2233
371.8328	0.2037
372.0406	0.2171
372.2484	0.2046
372.4562	0.2115
372.664	0.2109
372.8717	0.2248
373.0795	0.2146
373.2872	0.2194
373.4949	0.2281
373.7026	0.2107
373.9103	0.2158
374.118	0.2154
374.3256	0.2306
374.5333	0.2211
374.7409	0.2247
374.9485	0.2434
375.1561	0.2247
375.3637	0.2307
375.5713	0.2373
375.7789	0.2259
375.9864	0.2293
376.194	0.2282
376.4015	0.2257
376.609	0.2397
376.8165	0.2331
377.024	0.2272
377.2315	0.22
377.4389	0.2451
377.6464	0.2505
377.8538	0.2499
378.0612	0.235
378.2686	0.2421
378.476	0.248
378.6834	0.248
378.8908	0.2468
379.0981	0.2561
379.3055	0.2393
379.5128	0.2523
379.7201	0.2559
379.9274	0.2396
380.1347	0.2338
380.342	0.2406
380.5492	0.2322
380.7565	0.2384
380.9637	0.2263
381.1709	0.2486
381.3781	0.241
381.5853	0.2425
381.7925	0.2398
381.9997	0.2502
382.2068	0.2528
382.4139	0.2485
382.6211	0.2343
382.8282	0.2248
383.0353	0.2485
383.2424	0.2437
383.4494	0.2531
383.6565	0.236
383.8635	0.2415
384.0706	0.2387
384.2776	0.2519
384.4846	0.2396
384.6916	0.2688
384.8986	0.2346
385.1055	0.2618
385.3125	0.2268
385.5194	0.2232
385.7263	0.2586
385.9333	0.2586
386.1402	0.2471
386.347	0.2468
386.5539	0.2578
386.7608	0.2572
386.9676	0.2438
387.1744	0.2517
387.3813	0.2336
387.5881	0.249
387.7948	0.242
388.0016	0.2341
388.2084	0.2483
388.4151	0.2407
388.6219	0.2545
388.8286	0.2496
389.0353	0.2607
389.242	0.2483
389.4487	0.2415
389.6553	0.2239
389.862	0.235
390.0686	0.2265
390.2753	0.2499
390.4819	0.249
390.6885	0.2288
390.8951	0.2291
391.1016	0.243
391.3082	0.2337
391.5147	0.2273
391.7213	0.2212
391.9278	0.2155
392.1343	0.2259
392.3408	0.2271
392.5473	0.2313
392.7537	0.2229
392.9602	0.2227
393.1666	0.2181
393.373	0.2248
393.5794	0.2232
393.7858	0.2204
393.9922	0.2087
394.1986	0.2229
394.4049	0.2337
394.6113	0.2214
394.8176	0.1981
395.0239	0.2185
395.2302	0.2048
395.4365	0.2004
395.6428	0.2014
395.8491	0.1995
396.0553	0.2188
396.2615	0.2264
396.4678	0.202
396.674	0.2015
396.8802	0.2016
397.0863	0.2236
397.2925	0.2044
397.4987	0.2257
397.7048	0.2171
397.9109	0.2081
398.117	0.2086
398.3231	0.1982
398.5292	0.1956
398.7353	0.2102
398.9413	0.1943
399.1474	0.2023
399.3534	0.2072
399.5594	0.1938
399.7654	0.2148
399.9714	0.2222
400.1774	0.2119
400.3833	0.1932
400.5893	0.2067
400.7952	0.2153
401.0011	0.1936
401.207	0.2246
401.4129	0.2081
401.6188	0.2082
401.8247	0.1987
402.0305	0.1932
402.2364	0.1887
402.4422	0.2235
402.648	0.2039
402.8538	0.2298
403.0596	0.2012
403.2654	0.2382
403.4711	0.2066
403.6768	0.2102
403.8826	0.2204
404.0883	0.1945
404.294	0.2099
404.4997	0.2115
404.7054	0.2037
404.911	0.2023
405.1167	0.2097
405.3223	0.2354
405.5279	0.2059
405.7335	0.2061
405.9391	0.2046
406.1447	0.1946
406.3502	0.2323
406.5558	0.204
406.7613	0.2073
406.9668	0.2089
407.1724	0.2116
407.3778	0.195
407.5833	0.1987
407.7888	0.1929
407.9942	0.2138
408.1997	0.2011
408.4051	0.1944
408.6105	0.1884
408.8159	0.2082
409.0213	0.192
409.2267	0.2078
409.432	0.1967
409.6374	0.2193
409.8427	0.2092
410.048	0.2016
410.2533	0.2077
410.4586	0.2023
410.6639	0.1829
410.8691	0.2013
411.0744	0.2028
411.2796	0.1975
411.4848	0.2118
411.69	0.203
411.8952	0.2156
412.1004	0.1915
412.3056	0.2265
412.5107	0.1775
412.7158	0.2092
412.921	0.1902
413.1261	0.2063
413.3312	0.1915
413.5362	0.1918
413.7413	0.1841
413.9464	0.2099
414.1514	0.1872
414.3564	0.1842
414.5614	0.1834
414.7664	0.1929
414.9714	0.2071
415.1764	0.1812
415.3813	0.2044
415.5863	0.1995
415.7912	0.2122
415.9961	0.2035
416.201	0.205
416.4059	0.2032
416.6108	0.1831
416.8156	0.2065
417.0205	0.1913
417.2253	0.1897
417.4301	0.1847
417.6349	0.1815
417.8397	0.1876
418.0445	0.2016
418.2492	0.1995
418.454	0.1844
418.6587	0.18
418.8634	0.1952
419.0681	0.1796
419.2728	0.1904
419.4775	0.1821
419.6822	0.1729
419.8868	0.1663
420.0915	0.1853
420.2961	0.1649
420.5007	0.1577
420.7053	0.1843
420.9099	0.1887
421.1144	0.1861
421.319	0.1762
421.5235	0.1997
421.728	0.1775
421.9325	0.1727
422.137	0.1849
422.3415	0.1744
422.546	0.1717
422.7504	0.1801
422.9549	0.1784
423.1593	0.1845
423.3637	0.1803
423.5681	0.1764
423.7725	0.1531
423.9769	0.1607
424.1812	0.1608
424.3856	0.1709
424.5899	0.1714
424.7942	0.1636
424.9985	0.1889
425.2028	0.1555
425.4071	0.1791
425.6113	0.1581
425.8156	0.1689
426.0198	0.173
426.224	0.1484
426.4282	0.1657
426.6324	0.1507
