Data from MonoPyChalIsomerACN10uM420nmA_Absorbance_15-09-49-135.txt Node
Date: Fri Jul 05 15:09:49 BST 2024
User: LASERRRRR
Spectrometer: FLMT03099
Trigger mode: 0
Integration Time (sec): 1.000000E-1
Scans to average: 1
Electric dark correction enabled: true
Nonlinearity correction enabled: false
Boxcar width: 0
XAxis mode: Wavelengths
Number of Pixels in Spectrum: 3648
>>>>>Begin Spectral Data<<<<<
179.3399	-0.0311
179.5586	-0.0311
179.7771	-0.0311
179.9957	0.715
180.2143	-0
180.4329	0.0735
180.6514	-0
180.8699	0.6255
181.0885	0.798
181.307	0.8771
181.5255	-0
181.744	-0
181.9625	-0
182.181	-1.0489
182.3994	0.5889
182.6179	-0.0496
182.8363	-0
183.0547	-0.5185
183.2732	0.2688
183.4916	0.0041
183.71	0.0238
183.9284	0.3263
184.1467	-0.2108
184.3651	-0.0706
184.5835	-0.0474
184.8018	-0.0005
185.0201	0.0795
185.2385	0.0424
185.4568	0.2383
185.6751	0.1663
185.8934	0.3853
186.1117	0.2247
186.3299	0.0108
186.5482	0.1663
186.7664	0.0343
186.9847	0.0135
187.2029	0.0063
187.4211	0.0794
187.6393	-0.0642
187.8575	0.099
188.0757	0.1264
188.2939	0.0274
188.512	0.0781
188.7302	-0.0288
188.9483	0.2181
189.1665	-0.0003
189.3846	-0.1675
189.6027	0.3665
189.8208	0.3734
190.0389	0.0589
190.257	0.2445
190.475	0.3065
190.6931	0.4532
190.9111	0.4422
191.1292	0.0945
191.3472	0.2555
191.5652	0.1391
191.7832	0.2142
192.0012	0.9034
192.2192	0.3593
192.4371	0.5102
192.6551	0.3347
192.873	0.4277
193.091	0.4103
193.3089	0.5655
193.5268	0.4879
193.7447	0.5816
193.9626	0.4396
194.1805	0.5599
194.3984	0.6937
194.6162	0.6475
194.8341	0.461
195.0519	0.5221
195.2697	0.6382
195.4875	0.8362
195.7054	0.6527
195.9231	0.6721
196.1409	0.6011
196.3587	0.6386
196.5765	0.5977
196.7942	0.6134
197.012	0.4138
197.2297	0.6479
197.4474	0.6798
197.6651	0.5443
197.8828	0.5961
198.1005	0.5724
198.3182	0.5744
198.5358	0.6937
198.7535	0.6379
198.9711	0.4905
199.1888	0.7094
199.4064	0.6688
199.624	0.5785
199.8416	0.5902
200.0592	0.5346
200.2767	0.6029
200.4943	0.7207
200.7119	0.7099
200.9294	0.6456
201.1469	0.6046
201.3645	0.5936
201.582	0.5689
201.7995	0.6149
202.017	0.721
202.2344	0.6399
202.4519	0.7597
202.6694	0.7489
202.8868	0.5486
203.1042	0.6771
203.3217	0.6538
203.5391	0.7741
203.7565	0.4901
203.9739	0.7004
204.1913	0.7125
204.4086	0.6964
204.626	0.6723
204.8433	0.7517
205.0607	0.6831
205.278	0.6811
205.4953	0.6631
205.7126	0.6049
205.9299	0.8339
206.1472	0.6857
206.3644	0.5935
206.5817	0.6265
206.7989	0.7701
207.0162	0.5956
207.2334	0.6555
207.4506	0.5398
207.6678	0.627
207.885	0.63
208.1022	0.6715
208.3194	0.7794
208.5365	0.6864
208.7537	0.7075
208.9708	0.58
209.1879	0.6594
209.405	0.6837
209.6222	0.6549
209.8392	0.6095
210.0563	0.5899
210.2734	0.7246
210.4905	0.6111
210.7075	0.6133
210.9245	0.5806
211.1416	0.7495
211.3586	0.6095
211.5756	0.6102
211.7926	0.6255
212.0096	0.6112
212.2265	0.6176
212.4435	0.6195
212.6604	0.6764
212.8774	0.6622
213.0943	0.6244
213.3112	0.5726
213.5281	0.5786
213.745	0.5218
213.9619	0.531
214.1788	0.4893
214.3956	0.4592
214.6125	0.4927
214.8293	0.4551
215.0461	0.4796
215.2629	0.4634
215.4798	0.4851
215.6965	0.4595
215.9133	0.4652
216.1301	0.4437
216.3469	0.443
216.5636	0.4418
216.7803	0.3833
216.9971	0.4337
217.2138	0.3747
217.4305	0.4157
217.6472	0.383
217.8639	0.3759
218.0805	0.3682
218.2972	0.3464
218.5138	0.3327
218.7305	0.3517
218.9471	0.3319
219.1637	0.2979
219.3803	0.2969
219.5969	0.275
219.8135	0.249
220.0301	0.2785
220.2466	0.2688
220.4632	0.236
220.6797	0.2384
220.8962	0.2478
221.1127	0.2575
221.3292	0.2621
221.5457	0.2596
221.7622	0.2452
221.9787	0.2655
222.1951	0.2508
222.4116	0.2549
222.628	0.2496
222.8444	0.2724
223.0608	0.241
223.2772	0.2726
223.4936	0.2703
223.71	0.2468
223.9264	0.2706
224.1427	0.2593
224.3591	0.2588
224.5754	0.2696
224.7917	0.2683
225.008	0.2616
225.2243	0.2469
225.4406	0.2897
225.6569	0.2664
225.8732	0.2692
226.0894	0.2891
226.3057	0.2874
226.5219	0.2945
226.7381	0.2788
226.9543	0.2795
227.1705	0.3158
227.3867	0.2701
227.6029	0.2845
227.8191	0.3154
228.0352	0.3118
228.2513	0.3092
228.4675	0.3366
228.6836	0.297
228.8997	0.3129
229.1158	0.3289
229.3319	0.3222
229.548	0.3037
229.764	0.3182
229.9801	0.3333
230.1961	0.3141
230.4121	0.3508
230.6282	0.3515
230.8442	0.3243
231.0602	0.3714
231.2761	0.3494
231.4921	0.3398
231.7081	0.3604
231.924	0.3708
232.14	0.3688
232.3559	0.3451
232.5718	0.3913
232.7877	0.3691
233.0036	0.3649
233.2195	0.3654
233.4353	0.3431
233.6512	0.3681
233.867	0.3726
234.0829	0.3759
234.2987	0.3818
234.5145	0.3982
234.7303	0.3621
234.9461	0.3928
235.1619	0.378
235.3776	0.3869
235.5934	0.381
235.8091	0.3894
236.0249	0.3868
236.2406	0.418
236.4563	0.3935
236.672	0.4048
236.8877	0.4005
237.1034	0.4103
237.319	0.3723
237.5347	0.4176
237.7503	0.4016
237.966	0.4155
238.1816	0.4353
238.3972	0.4103
238.6128	0.4125
238.8284	0.4065
239.0439	0.3996
239.2595	0.4124
239.475	0.4143
239.6906	0.4271
239.9061	0.3883
240.1216	0.3942
240.3371	0.41
240.5526	0.3838
240.7681	0.4042
240.9836	0.4073
241.199	0.4077
241.4145	0.3843
241.6299	0.3756
241.8453	0.3833
242.0607	0.395
242.2761	0.3831
242.4915	0.3634
242.7069	0.375
242.9223	0.3502
243.1376	0.3534
243.353	0.3462
243.5683	0.3539
243.7836	0.3272
243.9989	0.3421
244.2142	0.3029
244.4295	0.3223
244.6448	0.3034
244.86	0.2925
245.0753	0.2986
245.2905	0.28
245.5057	0.2806
245.721	0.2826
245.9362	0.2608
246.1514	0.2814
246.3665	0.2671
246.5817	0.2487
246.7969	0.2489
247.012	0.2465
247.2271	0.2457
247.4423	0.2433
247.6574	0.2396
247.8725	0.2255
248.0876	0.2235
248.3026	0.2296
248.5177	0.2233
248.7328	0.2105
248.9478	0.2174
249.1628	0.2205
249.3779	0.2335
249.5929	0.1979
249.8079	0.2058
250.0228	0.202
250.2378	0.2118
250.4528	0.2224
250.6677	0.1946
250.8827	0.2023
251.0976	0.1919
251.3125	0.1968
251.5274	0.1815
251.7423	0.1883
251.9572	0.1889
252.172	0.1839
252.3869	0.1931
252.6017	0.1952
252.8166	0.1852
253.0314	0.1777
253.2462	0.1771
253.461	0.1968
253.6758	0.1598
253.8906	0.1814
254.1053	0.1767
254.3201	0.1713
254.5348	0.1823
254.7496	0.1771
254.9643	0.1826
255.179	0.1751
255.3937	0.1729
255.6083	0.1798
255.823	0.1763
256.0377	0.1792
256.2523	0.18
256.467	0.1629
256.6816	0.1656
256.8962	0.1692
257.1108	0.165
257.3254	0.1789
257.54	0.175
257.7545	0.1837
257.9691	0.1667
258.1836	0.1654
258.3981	0.1751
258.6127	0.183
258.8272	0.1661
259.0417	0.1761
259.2561	0.1725
259.4706	0.1731
259.6851	0.1786
259.8995	0.1692
260.114	0.1728
260.3284	0.1642
260.5428	0.1623
260.7572	0.1679
260.9716	0.1758
261.186	0.1589
261.4003	0.1663
261.6147	0.1708
261.829	0.1651
262.0433	0.1722
262.2577	0.1697
262.472	0.1612
262.6863	0.1605
262.9005	0.1833
263.1148	0.1721
263.3291	0.1526
263.5433	0.1653
263.7576	0.1677
263.9718	0.1693
264.186	0.1653
264.4002	0.1637
264.6144	0.1592
264.8286	0.1682
265.0427	0.1653
265.2569	0.1686
265.471	0.156
265.6851	0.1629
265.8993	0.1728
266.1134	0.1581
266.3275	0.16
266.5415	0.1594
266.7556	0.1776
266.9697	0.1647
267.1837	0.1732
267.3978	0.1597
267.6118	0.1609
267.8258	0.1678
268.0398	0.1341
268.2538	0.171
268.4677	0.1657
268.6817	0.1589
268.8957	0.1651
269.1096	0.1633
269.3235	0.1664
269.5374	0.1552
269.7514	0.1527
269.9652	0.1586
270.1791	0.1422
270.393	0.1566
270.6068	0.1596
270.8207	0.137
271.0345	0.1431
271.2483	0.1574
271.4622	0.1445
271.676	0.1451
271.8897	0.144
272.1035	0.1419
272.3173	0.1314
272.531	0.1508
272.7448	0.1403
272.9585	0.1395
273.1722	0.1429
273.3859	0.1373
273.5996	0.143
273.8133	0.1528
274.0269	0.1439
274.2406	0.1336
274.4542	0.142
274.6679	0.1351
274.8815	0.1438
275.0951	0.1436
275.3087	0.1447
275.5223	0.1483
275.7358	0.1544
275.9494	0.1442
276.1629	0.1352
276.3765	0.14
276.59	0.146
276.8035	0.1454
277.017	0.1431
277.2305	0.1427
277.444	0.1452
277.6574	0.1277
277.8709	0.152
278.0843	0.1435
278.2978	0.1378
278.5112	0.1368
278.7246	0.1388
278.938	0.143
279.1513	0.1467
279.3647	0.1553
279.5781	0.1451
279.7914	0.144
280.0047	0.1599
280.2181	0.1419
280.4314	0.1513
280.6447	0.1394
280.8579	0.1424
281.0712	0.1535
281.2845	0.1546
281.4977	0.1565
281.711	0.1441
281.9242	0.1417
282.1374	0.1451
282.3506	0.1424
282.5638	0.1577
282.7769	0.1477
282.9901	0.1488
283.2033	0.1645
283.4164	0.1491
283.6295	0.1359
283.8426	0.1481
284.0557	0.1675
284.2688	0.1654
284.4819	0.154
284.695	0.1583
284.908	0.1623
285.1211	0.1529
285.3341	0.1502
285.5471	0.1645
285.7601	0.1608
285.9731	0.1546
286.1861	0.1543
286.3991	0.1687
286.612	0.1705
286.825	0.1731
287.0379	0.1603
287.2508	0.1614
287.4637	0.1609
287.6766	0.1674
287.8895	0.1692
288.1024	0.1773
288.3152	0.1633
288.5281	0.1599
288.7409	0.1701
288.9538	0.1718
289.1666	0.1632
289.3794	0.1709
289.5922	0.1593
289.8049	0.1718
290.0177	0.1618
290.2304	0.1636
290.4432	0.1789
290.6559	0.1714
290.8686	0.1797
291.0813	0.1733
291.294	0.1746
291.5067	0.1784
291.7194	0.1666
291.932	0.1765
292.1447	0.1761
292.3573	0.1704
292.5699	0.1764
292.7825	0.1744
292.9951	0.1707
293.2077	0.157
293.4203	0.1713
293.6328	0.1603
293.8454	0.1825
294.0579	0.1591
294.2704	0.1701
294.4829	0.1653
294.6954	0.1799
294.9079	0.1717
295.1204	0.1689
295.3328	0.1642
295.5453	0.1729
295.7577	0.1756
295.9701	0.1706
296.1825	0.1723
296.3949	0.1675
296.6073	0.171
296.8197	0.1506
297.0321	0.1854
297.2444	0.1701
297.4567	0.1783
297.6691	0.1724
297.8814	0.1681
298.0937	0.1715
298.306	0.1812
298.5182	0.1676
298.7305	0.189
298.9428	0.1653
299.155	0.1757
299.3672	0.1627
299.5794	0.1691
299.7916	0.1709
300.0038	0.1712
300.216	0.176
300.4282	0.1788
300.6403	0.1645
300.8525	0.1656
301.0646	0.1698
301.2767	0.1745
301.4888	0.1673
301.7009	0.1742
301.913	0.1725
302.125	0.1701
302.3371	0.1671
302.5491	0.1687
302.7612	0.1809
302.9732	0.1804
303.1852	0.1732
303.3972	0.1725
303.6092	0.1711
303.8211	0.1576
304.0331	0.1604
304.245	0.1556
304.457	0.1563
304.6689	0.1625
304.8808	0.1697
305.0927	0.1616
305.3046	0.1599
305.5164	0.1662
305.7283	0.1545
305.9401	0.1566
306.152	0.1505
306.3638	0.1539
306.5756	0.1516
306.7874	0.1475
306.9992	0.1579
307.2109	0.1539
307.4227	0.1333
307.6344	0.1604
307.8462	0.1403
308.0579	0.1286
308.2696	0.1383
308.4813	0.1415
308.693	0.1265
308.9046	0.1506
309.1163	0.1291
309.328	0.1198
309.5396	0.1249
309.7512	0.1305
309.9628	0.1112
310.1744	0.1274
310.386	0.1221
310.5976	0.1215
310.8091	0.129
311.0207	0.125
311.2322	0.1158
311.4437	0.1146
311.6552	0.1109
311.8667	0.1182
312.0782	0.1096
312.2897	0.0971
312.5012	0.1151
312.7126	0.1071
312.924	0.1094
313.1355	0.1165
313.3469	0.1074
313.5583	0.1102
313.7696	0.11
313.981	0.1003
314.1924	0.1013
314.4037	0.1014
314.6151	0.1116
314.8264	0.1017
315.0377	0.0887
315.249	0.1022
315.4603	0.1048
315.6716	0.1021
315.8828	0.0939
316.0941	0.0931
316.3053	0.0956
316.5165	0.0942
316.7277	0.0853
316.9389	0.1016
317.1501	0.0986
317.3613	0.0995
317.5724	0.0796
317.7836	0.0997
317.9947	0.0959
318.2058	0.0931
318.417	0.0844
318.6281	0.0879
318.8391	0.0937
319.0502	0.0903
319.2613	0.1019
319.4723	0.0921
319.6834	0.1
319.8944	0.0846
320.1054	0.0961
320.3164	0.1022
320.5274	0.0959
320.7383	0.1047
320.9493	0.0896
321.1602	0.1014
321.3712	0.0821
321.5821	0.0953
321.793	0.1037
322.0039	0.0937
322.2148	0.0996
322.4257	0.1002
322.6365	0.1099
322.8474	0.1004
323.0582	0.0871
323.269	0.0926
323.4798	0.1056
323.6906	0.0956
323.9014	0.0946
324.1122	0.0957
324.3229	0.0948
324.5337	0.1011
324.7444	0.0791
324.9551	0.111
325.1658	0.095
325.3765	0.103
325.5872	0.0995
325.7979	0.1039
326.0085	0.0901
326.2192	0.1058
326.4298	0.0984
326.6404	0.0872
326.851	0.0899
327.0616	0.093
327.2722	0.0975
327.4828	0.0993
327.6933	0.0948
327.9039	0.1044
328.1144	0.1117
328.3249	0.1007
328.5354	0.089
328.7459	0.0989
328.9564	0.0964
329.1669	0.1114
329.3773	0.1011
329.5878	0.107
329.7982	0.105
330.0086	0.0935
330.219	0.1041
330.4294	0.0955
330.6398	0.0974
330.8502	0.101
331.0605	0.1064
331.2708	0.0969
331.4812	0.1022
331.6915	0.1053
331.9018	0.1117
332.1121	0.0964
332.3224	0.1078
332.5326	0.1011
332.7429	0.1059
332.9531	0.1064
333.1633	0.1137
333.3735	0.1058
333.5837	0.108
333.7939	0.0905
334.0041	0.1043
334.2143	0.1088
334.4244	0.1009
334.6346	0.0886
334.8447	0.1124
335.0548	0.0957
335.2649	0.1001
335.475	0.117
335.685	0.1039
335.8951	0.1167
336.1051	0.1115
336.3152	0.0993
336.5252	0.1077
336.7352	0.1093
336.9452	0.101
337.1552	0.1121
337.3652	0.1119
337.5751	0.1104
337.7851	0.1166
337.995	0.1011
338.2049	0.114
338.4148	0.1067
338.6247	0.1155
338.8346	0.1009
339.0445	0.1135
339.2543	0.1025
339.4642	0.1102
339.674	0.0972
339.8838	0.1108
340.0936	0.1172
340.3034	0.1255
340.5132	0.1195
340.7229	0.1061
340.9327	0.1216
341.1424	0.1255
341.3522	0.118
341.5619	0.1178
341.7716	0.1142
341.9813	0.126
342.1909	0.1085
342.4006	0.1265
342.6102	0.1278
342.8199	0.1218
343.0295	0.1185
343.2391	0.1198
343.4487	0.1264
343.6583	0.1241
343.8679	0.1205
344.0774	0.1247
344.287	0.1266
344.4965	0.1259
344.706	0.1189
344.9155	0.1217
345.125	0.1191
345.3345	0.1179
345.544	0.122
345.7534	0.1261
345.9629	0.1168
346.1723	0.1265
346.3817	0.1189
346.5911	0.1186
346.8005	0.1251
347.0099	0.1285
347.2193	0.125
347.4286	0.1143
347.638	0.15
347.8473	0.1292
348.0566	0.1354
348.2659	0.1282
348.4752	0.1369
348.6845	0.1274
348.8937	0.1361
349.103	0.1484
349.3122	0.1302
349.5214	0.1335
349.7306	0.1411
349.9398	0.1308
350.149	0.1439
350.3582	0.1316
350.5674	0.1458
350.7765	0.1396
350.9856	0.1374
351.1948	0.1367
351.4039	0.1239
351.613	0.1164
351.822	0.1369
352.0311	0.1408
352.2402	0.1378
352.4492	0.1517
352.6582	0.1534
352.8672	0.1319
353.0762	0.1412
353.2852	0.1364
353.4942	0.1308
353.7032	0.147
353.9121	0.1526
354.1211	0.1498
354.33	0.1525
354.5389	0.1512
354.7478	0.1448
354.9567	0.1481
355.1655	0.1393
355.3744	0.1514
355.5833	0.1568
355.7921	0.1708
356.0009	0.1531
356.2097	0.1642
356.4185	0.161
356.6273	0.1685
356.8361	0.1679
357.0448	0.1503
357.2536	0.1511
357.4623	0.1575
357.671	0.1619
357.8797	0.1601
358.0884	0.1656
358.2971	0.1624
358.5057	0.1814
358.7144	0.1754
358.923	0.1713
359.1316	0.1777
359.3402	0.175
359.5488	0.1768
359.7574	0.1621
359.966	0.1856
360.1746	0.1744
360.3831	0.1759
360.5916	0.1746
360.8002	0.1681
361.0087	0.1825
361.2172	0.1712
361.4256	0.1709
361.6341	0.1803
361.8426	0.1768
362.051	0.1757
362.2594	0.1829
362.4678	0.1833
362.6762	0.2095
362.8846	0.1787
363.093	0.1782
363.3014	0.1817
363.5097	0.1775
363.718	0.1884
363.9264	0.1888
364.1347	0.1958
364.343	0.1947
364.5513	0.1973
364.7595	0.2045
364.9678	0.2012
365.176	0.206
365.3842	0.1962
365.5925	0.1875
365.8007	0.1999
366.0089	0.196
366.217	0.2076
366.4252	0.2062
366.6333	0.2163
366.8415	0.2062
367.0496	0.2162
367.2577	0.1947
367.4658	0.2093
367.6739	0.2313
367.882	0.2138
368.09	0.2067
368.2981	0.2078
368.5061	0.1993
368.7141	0.2197
368.9221	0.2154
369.1301	0.2214
369.3381	0.2179
369.5461	0.2058
369.754	0.2309
369.962	0.2454
370.1699	0.2312
370.3778	0.2294
370.5857	0.2183
370.7936	0.2238
371.0015	0.2293
371.2093	0.2263
371.4172	0.2348
371.625	0.2148
371.8328	0.239
372.0406	0.2232
372.2484	0.2151
372.4562	0.2412
372.664	0.234
372.8717	0.2493
373.0795	0.2271
373.2872	0.2263
373.4949	0.233
373.7026	0.2313
373.9103	0.2487
374.118	0.2467
374.3256	0.2373
374.5333	0.2403
374.7409	0.2316
374.9485	0.2522
375.1561	0.2505
375.3637	0.2509
375.5713	0.2421
375.7789	0.2411
375.9864	0.2476
376.194	0.2338
376.4015	0.2471
376.609	0.2631
376.8165	0.2438
377.024	0.2546
377.2315	0.2248
377.4389	0.2473
377.6464	0.2627
377.8538	0.2437
378.0612	0.2436
378.2686	0.2519
378.476	0.2626
378.6834	0.2725
378.8908	0.2617
379.0981	0.248
379.3055	0.2645
379.5128	0.246
379.7201	0.257
379.9274	0.2503
380.1347	0.2582
380.342	0.2881
380.5492	0.2659
380.7565	0.266
380.9637	0.2682
381.1709	0.2569
381.3781	0.267
381.5853	0.2611
381.7925	0.2662
381.9997	0.2725
382.2068	0.2776
382.4139	0.2676
382.6211	0.2607
382.8282	0.2532
383.0353	0.274
383.2424	0.2666
383.4494	0.2628
383.6565	0.2651
383.8635	0.2489
384.0706	0.2665
384.2776	0.2588
384.4846	0.2477
384.6916	0.2674
384.8986	0.2627
385.1055	0.2589
385.3125	0.2659
385.5194	0.2568
385.7263	0.2855
385.9333	0.2848
386.1402	0.2782
386.347	0.2742
386.5539	0.2566
386.7608	0.2796
386.9676	0.2569
387.1744	0.2627
387.3813	0.2638
387.5881	0.2679
387.7948	0.2615
388.0016	0.2477
388.2084	0.2531
388.4151	0.2551
388.6219	0.2723
388.8286	0.2766
389.0353	0.2854
389.242	0.2653
389.4487	0.2542
389.6553	0.2554
389.862	0.2388
390.0686	0.252
390.2753	0.2587
390.4819	0.2412
390.6885	0.2647
390.8951	0.2627
391.1016	0.2536
391.3082	0.2437
391.5147	0.2462
391.7213	0.2437
391.9278	0.236
392.1343	0.2502
392.3408	0.2547
392.5473	0.2482
392.7537	0.244
392.9602	0.2215
393.1666	0.2416
393.373	0.2359
393.5794	0.2538
393.7858	0.2435
393.9922	0.2176
394.1986	0.2293
394.4049	0.2417
394.6113	0.2269
394.8176	0.2214
395.0239	0.2311
395.2302	0.2248
395.4365	0.2378
395.6428	0.2272
395.8491	0.2569
396.0553	0.2347
396.2615	0.2225
396.4678	0.2327
396.674	0.2114
396.8802	0.2271
397.0863	0.2435
397.2925	0.2241
397.4987	0.2231
397.7048	0.2177
397.9109	0.2389
398.117	0.2244
398.3231	0.2212
398.5292	0.229
398.7353	0.2266
398.9413	0.2247
399.1474	0.2299
399.3534	0.2185
399.5594	0.1953
399.7654	0.2447
399.9714	0.2412
400.1774	0.2274
400.3833	0.2195
400.5893	0.2215
400.7952	0.2183
401.0011	0.231
401.207	0.2318
401.4129	0.2288
401.6188	0.2411
401.8247	0.2169
402.0305	0.2277
402.2364	0.2321
402.4422	0.2383
402.648	0.2402
402.8538	0.2547
403.0596	0.2199
403.2654	0.2253
403.4711	0.2278
403.6768	0.2401
403.8826	0.2372
404.0883	0.2351
404.294	0.2286
404.4997	0.24
404.7054	0.2339
404.911	0.1961
405.1167	0.2259
405.3223	0.2364
405.5279	0.2488
405.7335	0.23
405.9391	0.2389
406.1447	0.2307
406.3502	0.2639
406.5558	0.2256
406.7613	0.2331
406.9668	0.2318
407.1724	0.2325
407.3778	0.2278
407.5833	0.2255
407.7888	0.227
407.9942	0.2442
408.1997	0.2141
408.4051	0.211
408.6105	0.2186
408.8159	0.2188
409.0213	0.2253
409.2267	0.2281
409.432	0.2181
409.6374	0.243
409.8427	0.2033
410.048	0.2364
410.2533	0.2152
410.4586	0.2279
410.6639	0.2046
410.8691	0.2136
411.0744	0.2325
411.2796	0.2202
411.4848	0.2148
411.69	0.2115
411.8952	0.2454
412.1004	0.2139
412.3056	0.2224
412.5107	0.2193
412.7158	0.2331
412.921	0.2053
413.1261	0.2178
413.3312	0.2185
413.5362	0.2201
413.7413	0.2208
413.9464	0.2207
414.1514	0.2126
414.3564	0.2119
414.5614	0.2066
414.7664	0.2278
414.9714	0.2226
415.1764	0.2309
415.3813	0.2183
415.5863	0.2301
415.7912	0.2439
415.9961	0.2187
416.201	0.2277
416.4059	0.2104
416.6108	0.1976
416.8156	0.2227
417.0205	0.2168
417.2253	0.2163
417.4301	0.214
417.6349	0.2118
417.8397	0.214
418.0445	0.2149
418.2492	0.2124
418.454	0.2163
418.6587	0.2077
418.8634	0.2073
419.0681	0.1984
419.2728	0.1989
419.4775	0.2148
419.6822	0.2022
419.8868	0.1814
420.0915	0.2084
420.2961	0.1934
420.5007	0.1946
420.7053	0.1938
420.9099	0.203
421.1144	0.2127
421.319	0.2059
421.5235	0.1942
421.728	0.2008
421.9325	0.2124
422.137	0.2207
422.3415	0.1862
422.546	0.1958
422.7504	0.2085
422.9549	0.1882
423.1593	0.204
423.3637	0.1892
423.5681	0.1821
423.7725	0.1858
423.9769	0.1751
424.1812	0.1761
424.3856	0.1942
424.5899	0.1913
424.7942	0.1811
424.9985	0.2017
425.2028	0.1844
425.4071	0.1989
425.6113	0.1732
425.8156	0.1883
426.0198	0.2008
426.224	0.1683
426.4282	0.1677
