Data from MonoPyChalIsomerACN10uM420nmA_Absorbance_15-09-55-334.txt Node
Date: Fri Jul 05 15:09:55 BST 2024
User: LASERRRRR
Spectrometer: FLMT03099
Trigger mode: 0
Integration Time (sec): 1.000000E-1
Scans to average: 1
Electric dark correction enabled: true
Nonlinearity correction enabled: false
Boxcar width: 0
XAxis mode: Wavelengths
Number of Pixels in Spectrum: 3648
>>>>>Begin Spectral Data<<<<<
179.3399	-0.0918
179.5586	-0.0918
179.7771	-0.0918
179.9957	0.8818
180.2143	-0.0028
180.4329	-0.1188
180.6514	-0
180.8699	-0.1606
181.0885	-0
181.307	0.0295
181.5255	-0
181.744	-0.808
181.9625	-0
182.181	-0
182.3994	-0
182.6179	-0
182.8363	0.4913
183.0547	0.2323
183.2732	-0.0801
183.4916	-0.0728
183.71	-0.015
183.9284	0.2442
184.1467	-0.1092
184.3651	0.1205
184.5835	0.0741
184.8018	0.075
185.0201	0.1367
185.2385	-0.1419
185.4568	0.0347
185.6751	0.3835
185.8934	0.3357
186.1117	0.1561
186.3299	0.0077
186.5482	0.0004
186.7664	-0.1544
186.9847	-0.0347
187.2029	0.1112
187.4211	0.1875
187.6393	0.1737
187.8575	-0.1446
188.0757	0.284
188.2939	0.1233
188.512	0.1417
188.7302	-0.044
188.9483	0.3851
189.1665	0.1231
189.3846	-0.0801
189.6027	-0.0329
189.8208	0.1049
190.0389	0.0942
190.257	0.1913
190.475	0.143
190.6931	0.2407
190.9111	0.3631
191.1292	0.3236
191.3472	0.5227
191.5652	0.2403
191.7832	0.0977
192.0012	0.3658
192.2192	0.4101
192.4371	0.4452
192.6551	0.273
192.873	0.4611
193.091	0.2336
193.3089	0.6837
193.5268	0.5316
193.7447	0.6223
193.9626	0.5272
194.1805	0.5161
194.3984	0.8131
194.6162	0.4481
194.8341	0.4831
195.0519	0.7646
195.2697	0.7318
195.4875	0.7295
195.7054	0.6488
195.9231	0.4541
196.1409	0.5722
196.3587	0.5328
196.5765	0.628
196.7942	0.6183
197.012	0.5938
197.2297	0.6486
197.4474	0.7112
197.6651	0.5111
197.8828	0.5789
198.1005	0.5071
198.3182	0.4813
198.5358	0.7328
198.7535	0.5102
198.9711	0.5592
199.1888	0.6858
199.4064	0.8174
199.624	0.5669
199.8416	0.5991
200.0592	0.5933
200.2767	0.5667
200.4943	0.7566
200.7119	0.8016
200.9294	0.6665
201.1469	0.6609
201.3645	0.5306
201.582	0.4532
201.7995	0.6376
202.017	0.6566
202.2344	0.584
202.4519	0.6614
202.6694	0.6906
202.8868	0.5972
203.1042	0.6393
203.3217	0.7057
203.5391	0.6649
203.7565	0.5995
203.9739	0.5923
204.1913	0.6531
204.4086	0.7198
204.626	0.8586
204.8433	0.6506
205.0607	0.6591
205.278	0.5961
205.4953	0.5944
205.7126	0.6681
205.9299	0.7439
206.1472	0.7156
206.3644	0.6059
206.5817	0.701
206.7989	0.6894
207.0162	0.6146
207.2334	0.7005
207.4506	0.6163
207.6678	0.6158
207.885	0.6069
208.1022	0.7107
208.3194	0.6829
208.5365	0.6619
208.7537	0.6833
208.9708	0.5815
209.1879	0.6531
209.405	0.6697
209.6222	0.6883
209.8392	0.6563
210.0563	0.6216
210.2734	0.5986
210.4905	0.6362
210.7075	0.6324
210.9245	0.6155
211.1416	0.6654
211.3586	0.6268
211.5756	0.5825
211.7926	0.6438
212.0096	0.6114
212.2265	0.5755
212.4435	0.5393
212.6604	0.5838
212.8774	0.6113
213.0943	0.5473
213.3112	0.5637
213.5281	0.5199
213.745	0.49
213.9619	0.4863
214.1788	0.5073
214.3956	0.457
214.6125	0.4691
214.8293	0.4399
215.0461	0.4665
215.2629	0.4426
215.4798	0.4606
215.6965	0.4467
215.9133	0.4463
216.1301	0.454
216.3469	0.4399
216.5636	0.4198
216.7803	0.4015
216.9971	0.4442
217.2138	0.401
217.4305	0.3611
217.6472	0.3726
217.8639	0.3707
218.0805	0.3555
218.2972	0.3388
218.5138	0.3124
218.7305	0.3288
218.9471	0.2856
219.1637	0.278
219.3803	0.3012
219.5969	0.2956
219.8135	0.2451
220.0301	0.2665
220.2466	0.2659
220.4632	0.2518
220.6797	0.2269
220.8962	0.2264
221.1127	0.2705
221.3292	0.2383
221.5457	0.2273
221.7622	0.2386
221.9787	0.2678
222.1951	0.2426
222.4116	0.2838
222.628	0.2521
222.8444	0.2569
223.0608	0.2461
223.2772	0.2458
223.4936	0.2598
223.71	0.252
223.9264	0.2784
224.1427	0.2355
224.3591	0.2424
224.5754	0.2538
224.7917	0.2707
225.008	0.2593
225.2243	0.2445
225.4406	0.2653
225.6569	0.2886
225.8732	0.2712
226.0894	0.2718
226.3057	0.2548
226.5219	0.2748
226.7381	0.2684
226.9543	0.2849
227.1705	0.2853
227.3867	0.2831
227.6029	0.2871
227.8191	0.2775
228.0352	0.282
228.2513	0.3112
228.4675	0.3167
228.6836	0.2933
228.8997	0.2827
229.1158	0.315
229.3319	0.2914
229.548	0.311
229.764	0.3091
229.9801	0.3319
230.1961	0.3221
230.4121	0.3327
230.6282	0.3193
230.8442	0.3069
231.0602	0.343
231.2761	0.3301
231.4921	0.3376
231.7081	0.3429
231.924	0.34
232.14	0.3418
232.3559	0.3366
232.5718	0.3633
232.7877	0.3475
233.0036	0.352
233.2195	0.3597
233.4353	0.366
233.6512	0.3526
233.867	0.3538
234.0829	0.3616
234.2987	0.3663
234.5145	0.3751
234.7303	0.371
234.9461	0.3843
235.1619	0.3657
235.3776	0.3622
235.5934	0.378
235.8091	0.3613
236.0249	0.3885
236.2406	0.3924
236.4563	0.374
236.672	0.3906
236.8877	0.4074
237.1034	0.3924
237.319	0.3759
237.5347	0.3849
237.7503	0.379
237.966	0.4053
238.1816	0.3799
238.3972	0.4139
238.6128	0.3822
238.8284	0.4041
239.0439	0.4056
239.2595	0.4069
239.475	0.4111
239.6906	0.4201
239.9061	0.3964
240.1216	0.3996
240.3371	0.4098
240.5526	0.3811
240.7681	0.4093
240.9836	0.3911
241.199	0.4021
241.4145	0.4013
241.6299	0.3791
241.8453	0.3729
242.0607	0.3958
242.2761	0.3838
242.4915	0.3839
242.7069	0.3896
242.9223	0.3633
243.1376	0.3563
243.353	0.3621
243.5683	0.3745
243.7836	0.3428
243.9989	0.3474
244.2142	0.3349
244.4295	0.3297
244.6448	0.318
244.86	0.3142
245.0753	0.2958
245.2905	0.2864
245.5057	0.3027
245.721	0.3023
245.9362	0.2918
246.1514	0.2796
246.3665	0.2733
246.5817	0.2903
246.7969	0.2687
247.012	0.2683
247.2271	0.2659
247.4423	0.2717
247.6574	0.2605
247.8725	0.2526
248.0876	0.2426
248.3026	0.2571
248.5177	0.2399
248.7328	0.2435
248.9478	0.2219
249.1628	0.2361
249.3779	0.2354
249.5929	0.2191
249.8079	0.2269
250.0228	0.2132
250.2378	0.2135
250.4528	0.2233
250.6677	0.209
250.8827	0.2084
251.0976	0.2092
251.3125	0.2036
251.5274	0.187
251.7423	0.1895
251.9572	0.1924
252.172	0.1729
252.3869	0.1853
252.6017	0.1855
252.8166	0.1753
253.0314	0.1868
253.2462	0.1733
253.461	0.1801
253.6758	0.1761
253.8906	0.1877
254.1053	0.1691
254.3201	0.1848
254.5348	0.169
254.7496	0.1845
254.9643	0.1777
255.179	0.1909
255.3937	0.1642
255.6083	0.1805
255.823	0.1855
256.0377	0.1771
256.2523	0.171
256.467	0.1471
256.6816	0.1822
256.8962	0.167
257.1108	0.1707
257.3254	0.1839
257.54	0.1617
257.7545	0.1666
257.9691	0.1782
258.1836	0.1703
258.3981	0.1822
258.6127	0.1859
258.8272	0.1669
259.0417	0.16
259.2561	0.1625
259.4706	0.1695
259.6851	0.1673
259.8995	0.1639
260.114	0.1678
260.3284	0.1843
260.5428	0.1689
260.7572	0.1683
260.9716	0.1828
261.186	0.1652
261.4003	0.1761
261.6147	0.1753
261.829	0.1609
262.0433	0.1628
262.2577	0.17
262.472	0.1713
262.6863	0.1654
262.9005	0.168
263.1148	0.1737
263.3291	0.1702
263.5433	0.1633
263.7576	0.1659
263.9718	0.1722
264.186	0.1652
264.4002	0.1662
264.6144	0.1633
264.8286	0.1739
265.0427	0.1601
265.2569	0.1628
265.471	0.1606
265.6851	0.1745
265.8993	0.165
266.1134	0.1718
266.3275	0.171
266.5415	0.1652
266.7556	0.1767
266.9697	0.1728
267.1837	0.1904
267.3978	0.1726
267.6118	0.1821
267.8258	0.1859
268.0398	0.1697
268.2538	0.1787
268.4677	0.1646
268.6817	0.1654
268.8957	0.1767
269.1096	0.1667
269.3235	0.1811
269.5374	0.1557
269.7514	0.1741
269.9652	0.1648
270.1791	0.1634
270.393	0.1726
270.6068	0.1722
270.8207	0.1554
271.0345	0.1645
271.2483	0.165
271.4622	0.1648
271.676	0.171
271.8897	0.1707
272.1035	0.1525
272.3173	0.153
272.531	0.1565
272.7448	0.1633
272.9585	0.1592
273.1722	0.1634
273.3859	0.1622
273.5996	0.1598
273.8133	0.1585
274.0269	0.1639
274.2406	0.1623
274.4542	0.1611
274.6679	0.1436
274.8815	0.1638
275.0951	0.1652
275.3087	0.164
275.5223	0.177
275.7358	0.1749
275.9494	0.1611
276.1629	0.1584
276.3765	0.1681
276.59	0.1805
276.8035	0.1669
277.017	0.1665
277.2305	0.1617
277.444	0.1887
277.6574	0.1739
277.8709	0.1777
278.0843	0.1574
278.2978	0.1688
278.5112	0.1686
278.7246	0.167
278.938	0.1645
279.1513	0.1742
279.3647	0.1689
279.5781	0.1729
279.7914	0.1627
280.0047	0.1767
280.2181	0.1842
280.4314	0.1568
280.6447	0.1727
280.8579	0.1753
281.0712	0.1847
281.2845	0.1834
281.4977	0.1656
281.711	0.1724
281.9242	0.1681
282.1374	0.1683
282.3506	0.1708
282.5638	0.1601
282.7769	0.1801
282.9901	0.1652
283.2033	0.1835
283.4164	0.1848
283.6295	0.163
283.8426	0.1702
284.0557	0.169
284.2688	0.1889
284.4819	0.1789
284.695	0.1688
284.908	0.1837
285.1211	0.1708
285.3341	0.1701
285.5471	0.1694
285.7601	0.174
285.9731	0.167
286.1861	0.1494
286.3991	0.1811
286.612	0.179
286.825	0.1661
287.0379	0.1693
287.2508	0.1546
287.4637	0.1715
287.6766	0.1575
287.8895	0.1603
288.1024	0.1835
288.3152	0.16
288.5281	0.1517
288.7409	0.1625
288.9538	0.1533
289.1666	0.1595
289.3794	0.1637
289.5922	0.1522
289.8049	0.1581
290.0177	0.1543
290.2304	0.1505
290.4432	0.1615
290.6559	0.1682
290.8686	0.1669
291.0813	0.1639
291.294	0.1575
291.5067	0.1578
291.7194	0.1543
291.932	0.1585
292.1447	0.1494
292.3573	0.1517
292.5699	0.1438
292.7825	0.1476
292.9951	0.1544
293.2077	0.1479
293.4203	0.1435
293.6328	0.145
293.8454	0.1563
294.0579	0.1579
294.2704	0.1472
294.4829	0.1394
294.6954	0.1492
294.9079	0.1532
295.1204	0.1626
295.3328	0.1468
295.5453	0.141
295.7577	0.1448
295.9701	0.1499
296.1825	0.1561
296.3949	0.148
296.6073	0.15
296.8197	0.1469
297.0321	0.152
297.2444	0.1408
297.4567	0.1537
297.6691	0.1532
297.8814	0.1438
298.0937	0.145
298.306	0.1467
298.5182	0.1516
298.7305	0.1578
298.9428	0.1363
299.155	0.1537
299.3672	0.1515
299.5794	0.1327
299.7916	0.1436
300.0038	0.1562
300.216	0.1466
300.4282	0.1541
300.6403	0.1384
300.8525	0.1596
301.0646	0.1385
301.2767	0.1471
301.4888	0.1419
301.7009	0.1561
301.913	0.1502
302.125	0.1568
302.3371	0.142
302.5491	0.1588
302.7612	0.1528
302.9732	0.1525
303.1852	0.1451
303.3972	0.1543
303.6092	0.1462
303.8211	0.1439
304.0331	0.1446
304.245	0.1462
304.457	0.1405
304.6689	0.1408
304.8808	0.1651
305.0927	0.136
305.3046	0.1406
305.5164	0.1461
305.7283	0.1407
305.9401	0.1351
306.152	0.1385
306.3638	0.1405
306.5756	0.1433
306.7874	0.1363
306.9992	0.1409
307.2109	0.1328
307.4227	0.1175
307.6344	0.1345
307.8462	0.129
308.0579	0.1365
308.2696	0.1292
308.4813	0.1282
308.693	0.1339
308.9046	0.1349
309.1163	0.1212
309.328	0.1217
309.5396	0.123
309.7512	0.1185
309.9628	0.1208
310.1744	0.1239
310.386	0.1214
310.5976	0.1153
310.8091	0.1212
311.0207	0.1206
311.2322	0.1301
311.4437	0.1219
311.6552	0.1093
311.8667	0.1194
312.0782	0.1161
312.2897	0.0999
312.5012	0.1126
312.7126	0.1038
312.924	0.1117
313.1355	0.1206
313.3469	0.1143
313.5583	0.1206
313.7696	0.1201
313.981	0.1059
314.1924	0.1171
314.4037	0.1038
314.6151	0.125
314.8264	0.1065
315.0377	0.1023
315.249	0.1135
315.4603	0.1126
315.6716	0.1156
315.8828	0.1036
316.0941	0.1076
316.3053	0.1122
316.5165	0.1028
316.7277	0.106
316.9389	0.1181
317.1501	0.1187
317.3613	0.1168
317.5724	0.0989
317.7836	0.1154
317.9947	0.1094
318.2058	0.1108
318.417	0.1088
318.6281	0.1073
318.8391	0.108
319.0502	0.1087
319.2613	0.1137
319.4723	0.1081
319.6834	0.1192
319.8944	0.1024
320.1054	0.1212
320.3164	0.1162
320.5274	0.1091
320.7383	0.1136
320.9493	0.1201
321.1602	0.1169
321.3712	0.1094
321.5821	0.1096
321.793	0.1133
322.0039	0.123
322.2148	0.1182
322.4257	0.1229
322.6365	0.1124
322.8474	0.1145
323.0582	0.1183
323.269	0.108
323.4798	0.114
323.6906	0.119
323.9014	0.1166
324.1122	0.1222
324.3229	0.116
324.5337	0.1153
324.7444	0.1027
324.9551	0.1221
325.1658	0.1214
325.3765	0.1125
325.5872	0.1348
325.7979	0.1144
326.0085	0.1085
326.2192	0.1241
326.4298	0.1224
326.6404	0.1218
326.851	0.1129
327.0616	0.11
327.2722	0.1131
327.4828	0.1224
327.6933	0.1194
327.9039	0.1296
328.1144	0.1344
328.3249	0.1215
328.5354	0.1129
328.7459	0.1194
328.9564	0.1087
329.1669	0.122
329.3773	0.123
329.5878	0.1205
329.7982	0.1145
330.0086	0.114
330.219	0.1258
330.4294	0.1079
330.6398	0.115
330.8502	0.1092
331.0605	0.1215
331.2708	0.1135
331.4812	0.1241
331.6915	0.1183
331.9018	0.1287
332.1121	0.1233
332.3224	0.1105
332.5326	0.1255
332.7429	0.1262
332.9531	0.1333
333.1633	0.1208
333.3735	0.1329
333.5837	0.1251
333.7939	0.1181
334.0041	0.1258
334.2143	0.1231
334.4244	0.1229
334.6346	0.1001
334.8447	0.1372
335.0548	0.1173
335.2649	0.1066
335.475	0.1323
335.685	0.1153
335.8951	0.1359
336.1051	0.1318
336.3152	0.1345
336.5252	0.1119
336.7352	0.1282
336.9452	0.1275
337.1552	0.1227
337.3652	0.1185
337.5751	0.1232
337.7851	0.1257
337.995	0.1003
338.2049	0.1428
338.4148	0.134
338.6247	0.1291
338.8346	0.1207
339.0445	0.1199
339.2543	0.1191
339.4642	0.1343
339.674	0.1196
339.8838	0.1276
340.0936	0.1313
340.3034	0.1227
340.5132	0.1386
340.7229	0.1371
340.9327	0.124
341.1424	0.1308
341.3522	0.1477
341.5619	0.1372
341.7716	0.1396
341.9813	0.1321
342.1909	0.129
342.4006	0.1439
342.6102	0.1485
342.8199	0.1416
343.0295	0.1386
343.2391	0.1462
343.4487	0.1307
343.6583	0.1266
343.8679	0.1389
344.0774	0.1419
344.287	0.1428
344.4965	0.1353
344.706	0.1384
344.9155	0.14
345.125	0.1347
345.3345	0.1341
345.544	0.135
345.7534	0.1419
345.9629	0.1361
346.1723	0.1431
346.3817	0.1457
346.5911	0.1344
346.8005	0.1368
347.0099	0.1396
347.2193	0.1453
347.4286	0.1351
347.638	0.1482
347.8473	0.1427
348.0566	0.1366
348.2659	0.138
348.4752	0.1309
348.6845	0.1366
348.8937	0.13
349.103	0.1501
349.3122	0.1428
349.5214	0.1553
349.7306	0.148
349.9398	0.1308
350.149	0.1523
350.3582	0.1444
350.5674	0.1713
350.7765	0.1395
350.9856	0.1485
351.1948	0.1453
351.4039	0.1312
351.613	0.1439
351.822	0.1637
352.0311	0.1577
352.2402	0.1488
352.4492	0.158
352.6582	0.1503
352.8672	0.1499
353.0762	0.1635
353.2852	0.1448
353.4942	0.1407
353.7032	0.1647
353.9121	0.1581
354.1211	0.157
354.33	0.153
354.5389	0.1638
354.7478	0.1518
354.9567	0.1476
355.1655	0.1438
355.3744	0.1573
355.5833	0.1579
355.7921	0.1861
356.0009	0.156
356.2097	0.1794
356.4185	0.157
356.6273	0.1528
356.8361	0.1603
357.0448	0.155
357.2536	0.1516
357.4623	0.1567
357.671	0.1636
357.8797	0.1585
358.0884	0.1706
358.2971	0.1609
358.5057	0.1751
358.7144	0.1613
358.923	0.1639
359.1316	0.1612
359.3402	0.1665
359.5488	0.1631
359.7574	0.1563
359.966	0.179
360.1746	0.1739
360.3831	0.1782
360.5916	0.1651
360.8002	0.1643
361.0087	0.1712
361.2172	0.1733
361.4256	0.1781
361.6341	0.1786
361.8426	0.1714
362.051	0.1752
362.2594	0.1818
362.4678	0.1687
362.6762	0.1983
362.8846	0.1728
363.093	0.1915
363.3014	0.1859
363.5097	0.1548
363.718	0.1853
363.9264	0.1865
364.1347	0.1688
364.343	0.1819
364.5513	0.1966
364.7595	0.1938
364.9678	0.1808
365.176	0.1796
365.3842	0.1798
365.5925	0.1728
365.8007	0.1899
366.0089	0.1837
366.217	0.1776
366.4252	0.1839
366.6333	0.1929
366.8415	0.192
367.0496	0.168
367.2577	0.2038
367.4658	0.2029
367.6739	0.1923
367.882	0.2042
368.09	0.1803
368.2981	0.1974
368.5061	0.1897
368.7141	0.2128
368.9221	0.1988
369.1301	0.1904
369.3381	0.1849
369.5461	0.1893
369.754	0.1865
369.962	0.1872
370.1699	0.2034
370.3778	0.1889
370.5857	0.1893
370.7936	0.1867
371.0015	0.2032
371.2093	0.207
371.4172	0.2028
371.625	0.1798
371.8328	0.1915
372.0406	0.1825
372.2484	0.1969
372.4562	0.1904
372.664	0.1819
372.8717	0.2021
373.0795	0.1818
373.2872	0.1947
373.4949	0.1907
373.7026	0.1985
373.9103	0.2133
374.118	0.1937
374.3256	0.2006
374.5333	0.1827
374.7409	0.193
374.9485	0.1988
375.1561	0.2161
375.3637	0.1949
375.5713	0.2132
375.7789	0.2022
375.9864	0.2038
376.194	0.1947
376.4015	0.2184
376.609	0.207
376.8165	0.2035
377.024	0.1968
377.2315	0.1918
377.4389	0.216
377.6464	0.2032
377.8538	0.2146
378.0612	0.2096
378.2686	0.2145
378.476	0.2243
378.6834	0.2142
378.8908	0.2068
379.0981	0.2103
379.3055	0.216
379.5128	0.2178
379.7201	0.2164
379.9274	0.1996
380.1347	0.2016
380.342	0.2219
380.5492	0.2013
380.7565	0.2036
380.9637	0.224
381.1709	0.202
381.3781	0.2211
381.5853	0.2146
381.7925	0.2219
381.9997	0.2163
382.2068	0.2162
382.4139	0.2102
382.6211	0.2122
382.8282	0.2194
383.0353	0.2142
383.2424	0.1952
383.4494	0.2136
383.6565	0.2057
383.8635	0.2129
384.0706	0.2144
384.2776	0.2004
384.4846	0.1957
384.6916	0.2011
384.8986	0.2039
385.1055	0.2296
385.3125	0.2086
385.5194	0.204
385.7263	0.2133
385.9333	0.2001
386.1402	0.2009
386.347	0.2125
386.5539	0.2011
386.7608	0.2127
386.9676	0.1989
387.1744	0.209
387.3813	0.1979
387.5881	0.2097
387.7948	0.1952
388.0016	0.2208
388.2084	0.1979
388.4151	0.1864
388.6219	0.2174
388.8286	0.2022
389.0353	0.2144
389.242	0.2095
389.4487	0.2034
389.6553	0.1967
389.862	0.1921
390.0686	0.1933
390.2753	0.2009
390.4819	0.1988
390.6885	0.1875
390.8951	0.1939
391.1016	0.186
391.3082	0.1876
391.5147	0.2011
391.7213	0.1985
391.9278	0.2
392.1343	0.1904
392.3408	0.1916
392.5473	0.182
392.7537	0.1708
392.9602	0.1849
393.1666	0.187
393.373	0.1951
393.5794	0.2032
393.7858	0.1927
393.9922	0.1843
394.1986	0.1875
394.4049	0.1823
394.6113	0.1674
394.8176	0.1661
395.0239	0.1784
395.2302	0.1718
395.4365	0.1713
395.6428	0.1962
395.8491	0.1677
396.0553	0.1828
396.2615	0.1677
396.4678	0.1764
396.674	0.1517
396.8802	0.172
397.0863	0.1862
397.2925	0.1711
397.4987	0.1738
397.7048	0.1768
397.9109	0.1728
398.117	0.1755
398.3231	0.1697
398.5292	0.162
398.7353	0.1727
398.9413	0.1762
399.1474	0.1721
399.3534	0.1636
399.5594	0.1586
399.7654	0.1801
399.9714	0.1591
400.1774	0.1595
400.3833	0.1508
400.5893	0.1715
400.7952	0.1824
401.0011	0.1791
401.207	0.1742
401.4129	0.1695
401.6188	0.1741
401.8247	0.1648
402.0305	0.1596
402.2364	0.163
402.4422	0.1702
402.648	0.1774
402.8538	0.1787
403.0596	0.1524
403.2654	0.1741
403.4711	0.1613
403.6768	0.1739
403.8826	0.1886
404.0883	0.1713
404.294	0.171
404.4997	0.1814
404.7054	0.1667
404.911	0.1556
405.1167	0.1701
405.3223	0.1752
405.5279	0.174
405.7335	0.1714
405.9391	0.1624
406.1447	0.1866
406.3502	0.1666
406.5558	0.148
406.7613	0.1741
406.9668	0.172
407.1724	0.1508
407.3778	0.1646
407.5833	0.1485
407.7888	0.1503
407.9942	0.1855
408.1997	0.1628
408.4051	0.1663
408.6105	0.1727
408.8159	0.1633
409.0213	0.1521
409.2267	0.1792
409.432	0.1499
409.6374	0.1718
409.8427	0.1525
410.048	0.1556
410.2533	0.1521
410.4586	0.1615
410.6639	0.1641
410.8691	0.1523
411.0744	0.1492
411.2796	0.1461
411.4848	0.1503
411.69	0.1586
411.8952	0.1794
412.1004	0.1411
412.3056	0.153
412.5107	0.1257
412.7158	0.1779
412.921	0.1587
413.1261	0.1586
413.3312	0.1497
413.5362	0.152
413.7413	0.1481
413.9464	0.1533
414.1514	0.1551
414.3564	0.1405
414.5614	0.1449
414.7664	0.1609
414.9714	0.1708
415.1764	0.1477
415.3813	0.1707
415.5863	0.1504
415.7912	0.1746
415.9961	0.1442
416.201	0.1535
416.4059	0.1626
416.6108	0.1327
416.8156	0.141
417.0205	0.1428
417.2253	0.1546
417.4301	0.1434
417.6349	0.1366
417.8397	0.1616
418.0445	0.1504
418.2492	0.1672
418.454	0.1648
418.6587	0.1482
418.8634	0.165
419.0681	0.1428
419.2728	0.1301
419.4775	0.1574
419.6822	0.1255
419.8868	0.1416
420.0915	0.1424
420.2961	0.1394
420.5007	0.1229
420.7053	0.1533
420.9099	0.147
421.1144	0.1358
421.319	0.1262
421.5235	0.1489
421.728	0.1458
421.9325	0.141
422.137	0.1457
422.3415	0.1492
422.546	0.1482
422.7504	0.1394
422.9549	0.1436
423.1593	0.1483
423.3637	0.144
423.5681	0.1485
423.7725	0.1283
423.9769	0.1316
424.1812	0.119
424.3856	0.1283
424.5899	0.143
424.7942	0.1442
424.9985	0.1458
425.2028	0.128
425.4071	0.1547
425.6113	0.1277
425.8156	0.1372
426.0198	0.1265
426.224	0.1192
426.4282	0.1323
426.6324	0.1021
