Data from MonoPyChalIsomerACN10uM420nmA_Absorbance_15-09-57-134.txt Node
Date: Fri Jul 05 15:09:57 BST 2024
User: LASERRRRR
Spectrometer: FLMT03099
Trigger mode: 0
Integration Time (sec): 1.000000E-1
Scans to average: 1
Electric dark correction enabled: true
Nonlinearity correction enabled: false
Boxcar width: 0
XAxis mode: Wavelengths
Number of Pixels in Spectrum: 3648
>>>>>Begin Spectral Data<<<<<
179.3399	-0.2093
179.5586	-0.2093
179.7771	-0.2093
179.9957	0.0301
180.2143	-0.2502
180.4329	-0.3329
180.6514	-0
180.8699	-0
181.0885	0.5286
181.307	0.2862
181.5255	-1.1821
181.744	-0
181.9625	-0
182.181	-0.6264
182.3994	0.812
182.6179	-0.2291
182.8363	-0.4241
183.0547	-0.375
183.2732	0.0081
183.4916	0.2663
183.71	0.0119
183.9284	0.1424
184.1467	0.0967
184.3651	-0.0977
184.5835	0.0185
184.8018	0.0175
185.0201	-0.0997
185.2385	-0.0572
185.4568	0.2642
185.6751	-0.0334
185.8934	0.3041
186.1117	0.0731
186.3299	0.0186
186.5482	0.0045
186.7664	-0.2109
186.9847	-0.0135
187.2029	0.041
187.4211	0.1497
187.6393	0.2319
187.8575	-0.1534
188.0757	0.1759
188.2939	0.0511
188.512	0.2542
188.7302	0.0431
188.9483	0.1332
189.1665	0.1147
189.3846	0.5714
189.6027	0.3836
189.8208	0.1267
190.0389	0.2091
190.257	0.1389
190.475	0.1292
190.6931	0.2815
190.9111	0.2672
191.1292	0.1814
191.3472	0.4667
191.5652	0.2843
191.7832	0.2278
192.0012	0.6807
192.2192	0.3924
192.4371	0.3875
192.6551	0.4524
192.873	0.4962
193.091	0.5711
193.3089	0.6727
193.5268	0.625
193.7447	0.4881
193.9626	0.449
194.1805	0.9595
194.3984	0.7797
194.6162	0.4128
194.8341	0.4613
195.0519	0.5532
195.2697	0.7822
195.4875	0.7485
195.7054	0.5405
195.9231	0.5738
196.1409	0.439
196.3587	0.5504
196.5765	0.6637
196.7942	0.5416
197.012	0.6938
197.2297	0.6661
197.4474	0.5077
197.6651	0.5812
197.8828	0.5589
198.1005	0.7159
198.3182	0.5268
198.5358	0.7284
198.7535	0.7039
198.9711	0.6004
199.1888	0.6594
199.4064	0.7591
199.624	0.4976
199.8416	0.5165
200.0592	0.5525
200.2767	0.6058
200.4943	0.6699
200.7119	0.7168
200.9294	0.5972
201.1469	0.5806
201.3645	0.5781
201.582	0.6711
201.7995	0.8277
202.017	0.6592
202.2344	0.674
202.4519	0.7765
202.6694	0.6089
202.8868	0.6324
203.1042	0.7856
203.3217	0.8548
203.5391	0.6327
203.7565	0.5933
203.9739	0.6138
204.1913	0.6299
204.4086	0.6238
204.626	0.6881
204.8433	0.7028
205.0607	0.5985
205.278	0.6451
205.4953	0.6174
205.7126	0.6237
205.9299	0.8127
206.1472	0.69
206.3644	0.5936
206.5817	0.6862
206.7989	0.761
207.0162	0.6745
207.2334	0.7411
207.4506	0.6591
207.6678	0.6987
207.885	0.6442
208.1022	0.7324
208.3194	0.6845
208.5365	0.7051
208.7537	0.6158
208.9708	0.6169
209.1879	0.6498
209.405	0.6968
209.6222	0.6721
209.8392	0.6421
210.0563	0.6215
210.2734	0.5852
210.4905	0.6333
210.7075	0.6458
210.9245	0.5661
211.1416	0.7054
211.3586	0.6404
211.5756	0.5377
211.7926	0.6231
212.0096	0.6443
212.2265	0.6201
212.4435	0.6075
212.6604	0.6182
212.8774	0.5872
213.0943	0.6256
213.3112	0.5518
213.5281	0.4914
213.745	0.5383
213.9619	0.579
214.1788	0.5178
214.3956	0.4735
214.6125	0.4785
214.8293	0.4537
215.0461	0.4551
215.2629	0.4642
215.4798	0.4474
215.6965	0.4758
215.9133	0.4386
216.1301	0.4384
216.3469	0.4398
216.5636	0.4095
216.7803	0.3881
216.9971	0.4236
217.2138	0.4232
217.4305	0.3811
217.6472	0.3648
217.8639	0.3717
218.0805	0.3334
218.2972	0.3243
218.5138	0.3383
218.7305	0.3083
218.9471	0.2931
219.1637	0.2958
219.3803	0.2642
219.5969	0.2976
219.8135	0.2516
220.0301	0.2804
220.2466	0.296
220.4632	0.2579
220.6797	0.2611
220.8962	0.241
221.1127	0.2523
221.3292	0.2302
221.5457	0.2496
221.7622	0.2379
221.9787	0.2371
222.1951	0.2386
222.4116	0.2612
222.628	0.2533
222.8444	0.2418
223.0608	0.2698
223.2772	0.2552
223.4936	0.2594
223.71	0.2462
223.9264	0.2524
224.1427	0.2554
224.3591	0.2774
224.5754	0.2761
224.7917	0.2574
225.008	0.2708
225.2243	0.2469
225.4406	0.2952
225.6569	0.2571
225.8732	0.2641
226.0894	0.2671
226.3057	0.2683
226.5219	0.2759
226.7381	0.2658
226.9543	0.2849
227.1705	0.2816
227.3867	0.2643
227.6029	0.2834
227.8191	0.3079
228.0352	0.2982
228.2513	0.312
228.4675	0.3025
228.6836	0.3092
228.8997	0.299
229.1158	0.3104
229.3319	0.3205
229.548	0.3061
229.764	0.3032
229.9801	0.3316
230.1961	0.3108
230.4121	0.3274
230.6282	0.3525
230.8442	0.3154
231.0602	0.3486
231.2761	0.3424
231.4921	0.3373
231.7081	0.3459
231.924	0.3627
232.14	0.3672
232.3559	0.3276
232.5718	0.3713
232.7877	0.3582
233.0036	0.3509
233.2195	0.3735
233.4353	0.3657
233.6512	0.3698
233.867	0.3669
234.0829	0.3651
234.2987	0.3504
234.5145	0.3685
234.7303	0.3693
234.9461	0.4029
235.1619	0.3697
235.3776	0.3729
235.5934	0.3777
235.8091	0.352
236.0249	0.3636
236.2406	0.3765
236.4563	0.3735
236.672	0.3736
236.8877	0.3757
237.1034	0.4112
237.319	0.3949
237.5347	0.3901
237.7503	0.3946
237.966	0.3969
238.1816	0.4042
238.3972	0.4157
238.6128	0.3749
238.8284	0.4041
239.0439	0.4032
239.2595	0.3862
239.475	0.4163
239.6906	0.3987
239.9061	0.3937
240.1216	0.4127
240.3371	0.4313
240.5526	0.4044
240.7681	0.4202
240.9836	0.42
241.199	0.4093
241.4145	0.4072
241.6299	0.38
241.8453	0.3965
242.0607	0.4051
242.2761	0.371
242.4915	0.3837
242.7069	0.3773
242.9223	0.3445
243.1376	0.3831
243.353	0.3614
243.5683	0.3836
243.7836	0.3546
243.9989	0.3588
244.2142	0.3351
244.4295	0.3403
244.6448	0.3392
244.86	0.3237
245.0753	0.3089
245.2905	0.2986
245.5057	0.3028
245.721	0.3141
245.9362	0.2919
246.1514	0.2905
246.3665	0.2794
246.5817	0.276
246.7969	0.2716
247.012	0.2695
247.2271	0.2589
247.4423	0.2756
247.6574	0.2604
247.8725	0.2518
248.0876	0.2576
248.3026	0.2522
248.5177	0.247
248.7328	0.239
248.9478	0.2304
249.1628	0.2329
249.3779	0.2405
249.5929	0.2243
249.8079	0.2255
250.0228	0.2116
250.2378	0.2184
250.4528	0.2178
250.6677	0.1942
250.8827	0.1989
251.0976	0.2077
251.3125	0.2049
251.5274	0.1851
251.7423	0.1983
251.9572	0.2077
252.172	0.1943
252.3869	0.2022
252.6017	0.1858
252.8166	0.1722
253.0314	0.1725
253.2462	0.1806
253.461	0.1914
253.6758	0.1826
253.8906	0.1815
254.1053	0.1751
254.3201	0.1846
254.5348	0.1859
254.7496	0.19
254.9643	0.174
255.179	0.1887
255.3937	0.1817
255.6083	0.1834
255.823	0.176
256.0377	0.1729
256.2523	0.1714
256.467	0.1659
256.6816	0.1816
256.8962	0.1718
257.1108	0.1735
257.3254	0.1722
257.54	0.1738
257.7545	0.1781
257.9691	0.1711
258.1836	0.1718
258.3981	0.1926
258.6127	0.1796
258.8272	0.1658
259.0417	0.1686
259.2561	0.17
259.4706	0.1649
259.6851	0.1661
259.8995	0.1653
260.114	0.1717
260.3284	0.1789
260.5428	0.1608
260.7572	0.177
260.9716	0.185
261.186	0.1691
261.4003	0.1575
261.6147	0.1643
261.829	0.1693
262.0433	0.178
262.2577	0.1816
262.472	0.1717
262.6863	0.1697
262.9005	0.1734
263.1148	0.1763
263.3291	0.1553
263.5433	0.1772
263.7576	0.1797
263.9718	0.1752
264.186	0.1724
264.4002	0.1609
264.6144	0.1671
264.8286	0.1889
265.0427	0.1834
265.2569	0.1801
265.471	0.1633
265.6851	0.1777
265.8993	0.1675
266.1134	0.1624
266.3275	0.1766
266.5415	0.1689
266.7556	0.1954
266.9697	0.1836
267.1837	0.1777
267.3978	0.1839
267.6118	0.1906
267.8258	0.1959
268.0398	0.1774
268.2538	0.1897
268.4677	0.1767
268.6817	0.1679
268.8957	0.1842
269.1096	0.1761
269.3235	0.1873
269.5374	0.1693
269.7514	0.1768
269.9652	0.1708
270.1791	0.1696
270.393	0.1651
270.6068	0.1772
270.8207	0.17
271.0345	0.1695
271.2483	0.1707
271.4622	0.1583
271.676	0.1685
271.8897	0.1606
272.1035	0.1655
272.3173	0.1587
272.531	0.1698
272.7448	0.1555
272.9585	0.1584
273.1722	0.1714
273.3859	0.1685
273.5996	0.1617
273.8133	0.1712
274.0269	0.1687
274.2406	0.1658
274.4542	0.1742
274.6679	0.1552
274.8815	0.1759
275.0951	0.1788
275.3087	0.1736
275.5223	0.1849
275.7358	0.1811
275.9494	0.1856
276.1629	0.1643
276.3765	0.1728
276.59	0.1737
276.8035	0.1725
277.017	0.1776
277.2305	0.1663
277.444	0.174
277.6574	0.1786
277.8709	0.1771
278.0843	0.1727
278.2978	0.1764
278.5112	0.163
278.7246	0.1791
278.938	0.1687
279.1513	0.1729
279.3647	0.1766
279.5781	0.1701
279.7914	0.1812
280.0047	0.1803
280.2181	0.1745
280.4314	0.1775
280.6447	0.176
280.8579	0.1745
281.0712	0.1827
281.2845	0.1834
281.4977	0.1811
281.711	0.1731
281.9242	0.1823
282.1374	0.1774
282.3506	0.1678
282.5638	0.1744
282.7769	0.1837
282.9901	0.1843
283.2033	0.1852
283.4164	0.1738
283.6295	0.1695
283.8426	0.1633
284.0557	0.1746
284.2688	0.1789
284.4819	0.1756
284.695	0.1729
284.908	0.1693
285.1211	0.1682
285.3341	0.1656
285.5471	0.1701
285.7601	0.1651
285.9731	0.1602
286.1861	0.1578
286.3991	0.1656
286.612	0.171
286.825	0.1692
287.0379	0.1594
287.2508	0.1653
287.4637	0.1649
287.6766	0.1537
287.8895	0.1729
288.1024	0.185
288.3152	0.1628
288.5281	0.154
288.7409	0.1653
288.9538	0.1601
289.1666	0.1601
289.3794	0.1597
289.5922	0.1572
289.8049	0.1731
290.0177	0.1608
290.2304	0.158
290.4432	0.1531
290.6559	0.1581
290.8686	0.1563
291.0813	0.1513
291.294	0.1615
291.5067	0.1684
291.7194	0.153
291.932	0.1673
292.1447	0.1495
292.3573	0.1448
292.5699	0.1528
292.7825	0.1433
292.9951	0.1442
293.2077	0.1461
293.4203	0.1463
293.6328	0.1388
293.8454	0.1468
294.0579	0.1466
294.2704	0.1533
294.4829	0.1411
294.6954	0.1552
294.9079	0.1591
295.1204	0.1554
295.3328	0.148
295.5453	0.159
295.7577	0.1483
295.9701	0.1377
296.1825	0.1469
296.3949	0.1403
296.6073	0.1456
296.8197	0.1361
297.0321	0.1501
297.2444	0.1401
297.4567	0.1446
297.6691	0.152
297.8814	0.1465
298.0937	0.1496
298.306	0.1447
298.5182	0.1443
298.7305	0.149
298.9428	0.1467
299.155	0.1569
299.3672	0.1453
299.5794	0.1509
299.7916	0.1491
300.0038	0.1429
300.216	0.1473
300.4282	0.1477
300.6403	0.1386
300.8525	0.1541
301.0646	0.1303
301.2767	0.1484
301.4888	0.1303
301.7009	0.138
301.913	0.1527
302.125	0.1548
302.3371	0.1423
302.5491	0.1388
302.7612	0.1497
302.9732	0.15
303.1852	0.1548
303.3972	0.1372
303.6092	0.1372
303.8211	0.1362
304.0331	0.1334
304.245	0.1383
304.457	0.123
304.6689	0.1413
304.8808	0.1428
305.0927	0.138
305.3046	0.1423
305.5164	0.155
305.7283	0.1345
305.9401	0.1363
306.152	0.1344
306.3638	0.1395
306.5756	0.1311
306.7874	0.1368
306.9992	0.1377
307.2109	0.1326
307.4227	0.1189
307.6344	0.1292
307.8462	0.1285
308.0579	0.1242
308.2696	0.1319
308.4813	0.1341
308.693	0.1248
308.9046	0.1328
309.1163	0.1187
309.328	0.1261
309.5396	0.1237
309.7512	0.1137
309.9628	0.1129
310.1744	0.1277
310.386	0.1212
310.5976	0.1183
310.8091	0.12
311.0207	0.1247
311.2322	0.1285
311.4437	0.1182
311.6552	0.1174
311.8667	0.1282
312.0782	0.108
312.2897	0.1159
312.5012	0.1228
312.7126	0.1116
312.924	0.1157
313.1355	0.1261
313.3469	0.1105
313.5583	0.113
313.7696	0.1211
313.981	0.1189
314.1924	0.1082
314.4037	0.1293
314.6151	0.1164
314.8264	0.1053
315.0377	0.1145
315.249	0.1199
315.4603	0.1261
315.6716	0.1075
315.8828	0.1005
316.0941	0.1095
316.3053	0.1061
316.5165	0.1135
316.7277	0.1072
316.9389	0.1221
317.1501	0.1224
317.3613	0.1211
317.5724	0.1063
317.7836	0.1216
317.9947	0.1095
318.2058	0.105
318.417	0.1033
318.6281	0.1004
318.8391	0.1066
319.0502	0.1117
319.2613	0.1141
319.4723	0.127
319.6834	0.1219
319.8944	0.1108
320.1054	0.1142
320.3164	0.1181
320.5274	0.1148
320.7383	0.1057
320.9493	0.1179
321.1602	0.1245
321.3712	0.1055
321.5821	0.1209
321.793	0.1268
322.0039	0.1132
322.2148	0.1143
322.4257	0.1224
322.6365	0.1178
322.8474	0.1126
323.0582	0.1119
323.269	0.1186
323.4798	0.1241
323.6906	0.1107
323.9014	0.1195
324.1122	0.1215
324.3229	0.1126
324.5337	0.1223
324.7444	0.1192
324.9551	0.134
325.1658	0.119
325.3765	0.1356
325.5872	0.1276
325.7979	0.1236
326.0085	0.1186
326.2192	0.1218
326.4298	0.1254
326.6404	0.1137
326.851	0.1156
327.0616	0.1107
327.2722	0.1168
327.4828	0.1344
327.6933	0.1173
327.9039	0.1316
328.1144	0.1294
328.3249	0.1209
328.5354	0.1268
328.7459	0.1354
328.9564	0.1304
329.1669	0.1243
329.3773	0.1417
329.5878	0.1266
329.7982	0.126
330.0086	0.1313
330.219	0.1187
330.4294	0.1231
330.6398	0.1304
330.8502	0.1264
331.0605	0.1285
331.2708	0.1354
331.4812	0.1314
331.6915	0.1233
331.9018	0.124
332.1121	0.1201
332.3224	0.1373
332.5326	0.1312
332.7429	0.1244
332.9531	0.1419
333.1633	0.1243
333.3735	0.1279
333.5837	0.1254
333.7939	0.1271
334.0041	0.1345
334.2143	0.1353
334.4244	0.1297
334.6346	0.1052
334.8447	0.1379
335.0548	0.1219
335.2649	0.124
335.475	0.1336
335.685	0.12
335.8951	0.1351
336.1051	0.1144
336.3152	0.1406
336.5252	0.1171
336.7352	0.1351
336.9452	0.1331
337.1552	0.1348
337.3652	0.1234
337.5751	0.1265
337.7851	0.1365
337.995	0.1219
338.2049	0.1267
338.4148	0.1367
338.6247	0.1304
338.8346	0.1298
339.0445	0.1344
339.2543	0.1314
339.4642	0.1314
339.674	0.1437
339.8838	0.1377
340.0936	0.1343
340.3034	0.1486
340.5132	0.1469
340.7229	0.1338
340.9327	0.1406
341.1424	0.1308
341.3522	0.1452
341.5619	0.1525
341.7716	0.1337
341.9813	0.1484
342.1909	0.14
342.4006	0.1517
342.6102	0.1487
342.8199	0.1435
343.0295	0.1399
343.2391	0.152
343.4487	0.1464
343.6583	0.1396
343.8679	0.1422
344.0774	0.1445
344.287	0.1524
344.4965	0.1435
344.706	0.1553
344.9155	0.1548
345.125	0.1415
345.3345	0.145
345.544	0.1395
345.7534	0.1444
345.9629	0.1396
346.1723	0.1372
346.3817	0.1458
346.5911	0.1415
346.8005	0.1552
347.0099	0.1357
347.2193	0.149
347.4286	0.1485
347.638	0.156
347.8473	0.1621
348.0566	0.1392
348.2659	0.1546
348.4752	0.1426
348.6845	0.1406
348.8937	0.145
349.103	0.1561
349.3122	0.1424
349.5214	0.1468
349.7306	0.1475
349.9398	0.145
350.149	0.1541
350.3582	0.1426
350.5674	0.1629
350.7765	0.155
350.9856	0.1489
351.1948	0.1592
351.4039	0.1292
351.613	0.1406
351.822	0.1567
352.0311	0.1592
352.2402	0.1566
352.4492	0.1566
352.6582	0.1491
352.8672	0.1506
353.0762	0.1598
353.2852	0.1571
353.4942	0.146
353.7032	0.1611
353.9121	0.1537
354.1211	0.1578
354.33	0.1553
354.5389	0.1619
354.7478	0.1679
354.9567	0.1526
355.1655	0.1333
355.3744	0.1597
355.5833	0.1688
355.7921	0.1751
356.0009	0.157
356.2097	0.1744
356.4185	0.1725
356.6273	0.1582
356.8361	0.172
357.0448	0.1609
357.2536	0.1594
357.4623	0.1615
357.671	0.181
357.8797	0.1633
358.0884	0.1724
358.2971	0.1634
358.5057	0.1752
358.7144	0.185
358.923	0.161
359.1316	0.1744
359.3402	0.1794
359.5488	0.1686
359.7574	0.1521
359.966	0.1845
360.1746	0.1712
360.3831	0.1672
360.5916	0.1772
360.8002	0.1643
361.0087	0.1687
361.2172	0.1686
361.4256	0.1752
361.6341	0.1832
361.8426	0.18
362.051	0.1719
362.2594	0.1755
362.4678	0.1654
362.6762	0.1835
362.8846	0.1742
363.093	0.1911
363.3014	0.1719
363.5097	0.1571
363.718	0.1749
363.9264	0.161
364.1347	0.1674
364.343	0.1981
364.5513	0.1874
364.7595	0.1941
364.9678	0.1814
365.176	0.183
365.3842	0.1671
365.5925	0.1866
365.8007	0.1753
366.0089	0.1846
366.217	0.1844
366.4252	0.1725
366.6333	0.2002
366.8415	0.189
367.0496	0.1625
367.2577	0.1885
367.4658	0.2013
367.6739	0.1984
367.882	0.1864
368.09	0.1951
368.2981	0.1942
368.5061	0.1762
368.7141	0.1947
368.9221	0.1902
369.1301	0.1872
369.3381	0.1878
369.5461	0.1945
369.754	0.1801
369.962	0.1883
370.1699	0.1996
370.3778	0.1961
370.5857	0.1795
370.7936	0.1938
371.0015	0.2068
371.2093	0.1902
371.4172	0.1964
371.625	0.1756
371.8328	0.1832
372.0406	0.1918
372.2484	0.1978
372.4562	0.1929
372.664	0.1838
372.8717	0.2005
373.0795	0.1808
373.2872	0.1889
373.4949	0.1982
373.7026	0.1897
373.9103	0.1987
374.118	0.1985
374.3256	0.1993
374.5333	0.1803
374.7409	0.1926
374.9485	0.1991
375.1561	0.2028
375.3637	0.1976
375.5713	0.1939
375.7789	0.1975
375.9864	0.1985
376.194	0.1951
376.4015	0.1958
376.609	0.1944
376.8165	0.1951
377.024	0.1859
377.2315	0.1738
377.4389	0.1972
377.6464	0.2
377.8538	0.2109
378.0612	0.1905
378.2686	0.2107
378.476	0.2128
378.6834	0.2075
378.8908	0.2139
379.0981	0.196
379.3055	0.1954
379.5128	0.1953
379.7201	0.1939
379.9274	0.1825
380.1347	0.2007
380.342	0.2018
380.5492	0.1914
380.7565	0.203
380.9637	0.2009
381.1709	0.1999
381.3781	0.1961
381.5853	0.225
381.7925	0.2036
381.9997	0.1965
382.2068	0.2248
382.4139	0.2102
382.6211	0.1784
382.8282	0.1762
383.0353	0.1901
383.2424	0.1873
383.4494	0.2162
383.6565	0.204
383.8635	0.1995
384.0706	0.2013
384.2776	0.1952
384.4846	0.1868
384.6916	0.1851
384.8986	0.2027
385.1055	0.2022
385.3125	0.1961
385.5194	0.1871
385.7263	0.212
385.9333	0.2014
386.1402	0.1953
386.347	0.1917
386.5539	0.1987
386.7608	0.2053
386.9676	0.1892
387.1744	0.1996
387.3813	0.1904
387.5881	0.1859
387.7948	0.1924
388.0016	0.1874
388.2084	0.2054
388.4151	0.1935
388.6219	0.1942
388.8286	0.1935
389.0353	0.2053
389.242	0.1962
389.4487	0.1902
389.6553	0.1985
389.862	0.1711
390.0686	0.1875
390.2753	0.2064
390.4819	0.1867
390.6885	0.174
390.8951	0.1963
391.1016	0.1866
391.3082	0.1645
391.5147	0.1715
391.7213	0.173
391.9278	0.1703
392.1343	0.1878
392.3408	0.1741
392.5473	0.1751
392.7537	0.1755
392.9602	0.164
393.1666	0.1872
393.373	0.1815
393.5794	0.184
393.7858	0.1883
393.9922	0.1571
394.1986	0.1833
394.4049	0.178
394.6113	0.1614
394.8176	0.1728
395.0239	0.1757
395.2302	0.1646
395.4365	0.1584
395.6428	0.1625
395.8491	0.1597
396.0553	0.17
396.2615	0.1507
396.4678	0.1631
396.674	0.1502
396.8802	0.1646
397.0863	0.156
397.2925	0.1577
397.4987	0.1543
397.7048	0.1583
397.9109	0.1677
398.117	0.157
398.3231	0.1473
398.5292	0.1728
398.7353	0.1587
398.9413	0.1535
399.1474	0.1595
399.3534	0.1619
399.5594	0.1568
399.7654	0.1714
399.9714	0.1595
400.1774	0.1635
400.3833	0.1546
400.5893	0.173
400.7952	0.1591
401.0011	0.1505
401.207	0.166
401.4129	0.1556
401.6188	0.1693
401.8247	0.1664
402.0305	0.1465
402.2364	0.1514
402.4422	0.1784
402.648	0.1682
402.8538	0.166
403.0596	0.1457
403.2654	0.1516
403.4711	0.1581
403.6768	0.1704
403.8826	0.1626
404.0883	0.1694
404.294	0.1536
404.4997	0.1505
404.7054	0.1609
404.911	0.1389
405.1167	0.1453
405.3223	0.1584
405.5279	0.1742
405.7335	0.1579
405.9391	0.1644
406.1447	0.1463
406.3502	0.1576
406.5558	0.1441
406.7613	0.1638
406.9668	0.1544
407.1724	0.1555
407.3778	0.1537
407.5833	0.1664
407.7888	0.1379
407.9942	0.1802
408.1997	0.15
408.4051	0.1393
408.6105	0.1535
408.8159	0.1415
409.0213	0.1448
409.2267	0.1586
409.432	0.1347
409.6374	0.1586
409.8427	0.1413
410.048	0.1593
410.2533	0.1435
410.4586	0.1456
410.6639	0.1441
410.8691	0.1349
411.0744	0.1512
411.2796	0.1395
411.4848	0.1549
411.69	0.15
411.8952	0.1528
412.1004	0.1416
412.3056	0.1766
412.5107	0.1381
412.7158	0.1549
412.921	0.136
413.1261	0.1633
413.3312	0.1334
413.5362	0.1497
413.7413	0.1468
413.9464	0.1379
414.1514	0.1315
414.3564	0.1229
414.5614	0.1425
414.7664	0.1462
414.9714	0.1297
415.1764	0.1474
415.3813	0.1616
415.5863	0.1384
415.7912	0.1376
415.9961	0.1335
416.201	0.1437
416.4059	0.1442
416.6108	0.1171
416.8156	0.1516
417.0205	0.1339
417.2253	0.1403
417.4301	0.134
417.6349	0.1325
417.8397	0.1129
418.0445	0.141
418.2492	0.1429
418.454	0.1351
418.6587	0.1452
418.8634	0.1504
419.0681	0.1231
419.2728	0.1292
419.4775	0.1215
419.6822	0.1475
419.8868	0.1001
420.0915	0.1311
420.2961	0.1267
420.5007	0.1244
420.7053	0.1468
420.9099	0.1288
421.1144	0.1319
421.319	0.1256
421.5235	0.1411
421.728	0.1258
421.9325	0.128
422.137	0.1453
422.3415	0.122
422.546	0.1265
422.7504	0.1321
422.9549	0.1308
423.1593	0.1331
423.3637	0.133
423.5681	0.1251
423.7725	0.1258
423.9769	0.1238
424.1812	0.1063
424.3856	0.1272
424.5899	0.1106
424.7942	0.1148
424.9985	0.1249
425.2028	0.1214
425.4071	0.1402
425.6113	0.1226
425.8156	0.1321
426.0198	0.1329
426.224	0.1139
426.4282	0.1083
