Data from MonoPyChalIsomerACN10uM420nmA_Absorbance_15-09-52-035.txt Node
Date: Fri Jul 05 15:09:52 BST 2024
User: LASERRRRR
Spectrometer: FLMT03099
Trigger mode: 0
Integration Time (sec): 1.000000E-1
Scans to average: 1
Electric dark correction enabled: true
Nonlinearity correction enabled: false
Boxcar width: 0
XAxis mode: Wavelengths
Number of Pixels in Spectrum: 3648
>>>>>Begin Spectral Data<<<<<
179.3399	-0.3087
179.5586	-0.3087
179.7771	-0.3087
179.9957	-0.1003
180.2143	-0
180.4329	-0.1359
180.6514	0.3387
180.8699	-0
181.0885	-0.1003
181.307	0.0741
181.5255	-0
181.744	-0
181.9625	-0
182.181	-0
182.3994	-0
182.6179	0.7874
182.8363	0.0439
183.0547	0.1341
183.2732	0.1026
183.4916	0.2329
183.71	0.1743
183.9284	0.185
184.1467	-0.1148
184.3651	-0.1315
184.5835	-0.1389
184.8018	-0.0933
185.0201	0.0558
185.2385	0.0645
185.4568	0.1169
185.6751	0.1021
185.8934	0.4413
186.1117	0.0143
186.3299	0.0532
186.5482	0.0218
186.7664	-0.1522
186.9847	0.2428
187.2029	0.0853
187.4211	0.1907
187.6393	-0.0066
187.8575	0.2578
188.0757	0.1748
188.2939	0.3046
188.512	-0.0685
188.7302	0.0891
188.9483	0.0179
189.1665	0.1467
189.3846	-0.0395
189.6027	0.2411
189.8208	0.1905
190.0389	0.2223
190.257	0.1898
190.475	0.1999
190.6931	0.532
190.9111	0.529
191.1292	0.1184
191.3472	0.4374
191.5652	0.2763
191.7832	0.2543
192.0012	0.3641
192.2192	0.4221
192.4371	0.5093
192.6551	0.3615
192.873	0.477
193.091	0.4008
193.3089	0.6907
193.5268	0.6233
193.7447	0.653
193.9626	0.4421
194.1805	0.823
194.3984	0.9257
194.6162	0.4809
194.8341	0.5895
195.0519	0.6255
195.2697	1.0209
195.4875	0.616
195.7054	0.6288
195.9231	0.6046
196.1409	0.6369
196.3587	0.6291
196.5765	0.5434
196.7942	0.5887
197.012	0.4556
197.2297	0.4559
197.4474	0.5985
197.6651	0.4396
197.8828	0.561
198.1005	0.6071
198.3182	0.5584
198.5358	0.9314
198.7535	0.5894
198.9711	0.5864
199.1888	0.6949
199.4064	0.8608
199.624	0.6442
199.8416	0.646
200.0592	0.6309
200.2767	0.6765
200.4943	0.6752
200.7119	0.8998
200.9294	0.7734
201.1469	0.592
201.3645	0.6921
201.582	0.5685
201.7995	0.6171
202.017	0.7171
202.2344	0.5966
202.4519	0.7591
202.6694	0.6204
202.8868	0.6459
203.1042	0.6559
203.3217	0.7193
203.5391	0.6876
203.7565	0.5717
203.9739	0.7
204.1913	0.7246
204.4086	0.6936
204.626	0.7254
204.8433	0.6731
205.0607	0.6715
205.278	0.7125
205.4953	0.6013
205.7126	0.7262
205.9299	0.756
206.1472	0.6616
206.3644	0.6458
206.5817	0.7643
206.7989	0.6888
207.0162	0.6543
207.2334	0.6249
207.4506	0.6237
207.6678	0.6646
207.885	0.6332
208.1022	0.6522
208.3194	0.6756
208.5365	0.6282
208.7537	0.6828
208.9708	0.593
209.1879	0.6478
209.405	0.7356
209.6222	0.7234
209.8392	0.7223
210.0563	0.6816
210.2734	0.7014
210.4905	0.5963
210.7075	0.6738
210.9245	0.604
211.1416	0.7257
211.3586	0.6746
211.5756	0.6412
211.7926	0.6342
212.0096	0.6323
212.2265	0.5554
212.4435	0.6049
212.6604	0.6152
212.8774	0.6277
213.0943	0.605
213.3112	0.5584
213.5281	0.5336
213.745	0.4766
213.9619	0.5416
214.1788	0.4934
214.3956	0.4733
214.6125	0.5089
214.8293	0.4411
215.0461	0.4834
215.2629	0.4727
215.4798	0.4661
215.6965	0.4241
215.9133	0.4412
216.1301	0.4245
216.3469	0.4576
216.5636	0.4093
216.7803	0.4176
216.9971	0.4336
217.2138	0.3786
217.4305	0.3934
217.6472	0.3814
217.8639	0.3882
218.0805	0.3622
218.2972	0.3492
218.5138	0.3013
218.7305	0.3214
218.9471	0.299
219.1637	0.2939
219.3803	0.2844
219.5969	0.2983
219.8135	0.2597
220.0301	0.2829
220.2466	0.2654
220.4632	0.26
220.6797	0.245
220.8962	0.255
221.1127	0.2669
221.3292	0.2466
221.5457	0.2502
221.7622	0.2398
221.9787	0.2664
222.1951	0.261
222.4116	0.2392
222.628	0.2345
222.8444	0.2396
223.0608	0.2807
223.2772	0.262
223.4936	0.2659
223.71	0.2646
223.9264	0.2879
224.1427	0.2439
224.3591	0.23
224.5754	0.2629
224.7917	0.2599
225.008	0.2519
225.2243	0.2907
225.4406	0.3028
225.6569	0.2451
225.8732	0.266
226.0894	0.2691
226.3057	0.2741
226.5219	0.2907
226.7381	0.2644
226.9543	0.2737
227.1705	0.2798
227.3867	0.2776
227.6029	0.3024
227.8191	0.3028
228.0352	0.2979
228.2513	0.3166
228.4675	0.3055
228.6836	0.3227
228.8997	0.2923
229.1158	0.2969
229.3319	0.3282
229.548	0.2907
229.764	0.3355
229.9801	0.337
230.1961	0.338
230.4121	0.334
230.6282	0.3217
230.8442	0.3259
231.0602	0.3562
231.2761	0.3522
231.4921	0.3499
231.7081	0.3635
231.924	0.3473
232.14	0.3676
232.3559	0.3417
232.5718	0.3721
232.7877	0.3549
233.0036	0.3316
233.2195	0.3504
233.4353	0.359
233.6512	0.3653
233.867	0.3707
234.0829	0.3489
234.2987	0.3654
234.5145	0.391
234.7303	0.3838
234.9461	0.4011
235.1619	0.385
235.3776	0.3855
235.5934	0.3807
235.8091	0.3705
236.0249	0.3738
236.2406	0.3865
236.4563	0.3797
236.672	0.3889
236.8877	0.4032
237.1034	0.3966
237.319	0.3975
237.5347	0.3976
237.7503	0.3967
237.966	0.4203
238.1816	0.4125
238.3972	0.4008
238.6128	0.4023
238.8284	0.4064
239.0439	0.4152
239.2595	0.4092
239.475	0.4189
239.6906	0.4065
239.9061	0.4121
240.1216	0.4209
240.3371	0.4177
240.5526	0.3865
240.7681	0.3999
240.9836	0.3912
241.199	0.4113
241.4145	0.3843
241.6299	0.3986
241.8453	0.3967
242.0607	0.3844
242.2761	0.3732
242.4915	0.3829
242.7069	0.3811
242.9223	0.386
243.1376	0.3771
243.353	0.3646
243.5683	0.348
243.7836	0.3344
243.9989	0.3404
244.2142	0.3142
244.4295	0.3171
244.6448	0.3278
244.86	0.3037
245.0753	0.3
245.2905	0.2932
245.5057	0.2809
245.721	0.2726
245.9362	0.2843
246.1514	0.2847
246.3665	0.2852
246.5817	0.261
246.7969	0.2754
247.012	0.2539
247.2271	0.2542
247.4423	0.2611
247.6574	0.2604
247.8725	0.2328
248.0876	0.2332
248.3026	0.2364
248.5177	0.2154
248.7328	0.2268
248.9478	0.2212
249.1628	0.2202
249.3779	0.2308
249.5929	0.2121
249.8079	0.2194
250.0228	0.2143
250.2378	0.2257
250.4528	0.2029
250.6677	0.1953
250.8827	0.2122
251.0976	0.1983
251.3125	0.1963
251.5274	0.1847
251.7423	0.2078
251.9572	0.1977
252.172	0.1978
252.3869	0.1892
252.6017	0.1771
252.8166	0.1753
253.0314	0.183
253.2462	0.1747
253.461	0.1952
253.6758	0.178
253.8906	0.1873
254.1053	0.1766
254.3201	0.1882
254.5348	0.1849
254.7496	0.1955
254.9643	0.1751
255.179	0.1805
255.3937	0.1677
255.6083	0.1866
255.823	0.1791
256.0377	0.1669
256.2523	0.1714
256.467	0.1538
256.6816	0.1788
256.8962	0.1809
257.1108	0.1758
257.3254	0.1876
257.54	0.1716
257.7545	0.1829
257.9691	0.1707
258.1836	0.1697
258.3981	0.1713
258.6127	0.1825
258.8272	0.1704
259.0417	0.1629
259.2561	0.1687
259.4706	0.1648
259.6851	0.1816
259.8995	0.1736
260.114	0.1725
260.3284	0.1597
260.5428	0.1609
260.7572	0.1692
260.9716	0.1808
261.186	0.1717
261.4003	0.1677
261.6147	0.1646
261.829	0.1605
262.0433	0.177
262.2577	0.1579
262.472	0.1824
262.6863	0.1645
262.9005	0.1746
263.1148	0.1676
263.3291	0.1649
263.5433	0.1688
263.7576	0.1803
263.9718	0.1739
264.186	0.1673
264.4002	0.1649
264.6144	0.1671
264.8286	0.1806
265.0427	0.1805
265.2569	0.166
265.471	0.1669
265.6851	0.1558
265.8993	0.1652
266.1134	0.1631
266.3275	0.1671
266.5415	0.1724
266.7556	0.1742
266.9697	0.1713
267.1837	0.1729
267.3978	0.1663
267.6118	0.1671
267.8258	0.1721
268.0398	0.163
268.2538	0.1751
268.4677	0.1609
268.6817	0.1567
268.8957	0.1714
269.1096	0.1653
269.3235	0.1737
269.5374	0.1728
269.7514	0.1669
269.9652	0.1641
270.1791	0.1572
270.393	0.1608
270.6068	0.1674
270.8207	0.1544
271.0345	0.1608
271.2483	0.1712
271.4622	0.1575
271.676	0.1557
271.8897	0.157
272.1035	0.1493
272.3173	0.1574
272.531	0.1491
272.7448	0.1572
272.9585	0.1551
273.1722	0.1532
273.3859	0.155
273.5996	0.1509
273.8133	0.1522
274.0269	0.1615
274.2406	0.1506
274.4542	0.1562
274.6679	0.1484
274.8815	0.1508
275.0951	0.1621
275.3087	0.1666
275.5223	0.1537
275.7358	0.1534
275.9494	0.1577
276.1629	0.1487
276.3765	0.1519
276.59	0.1555
276.8035	0.166
277.017	0.1638
277.2305	0.1508
277.444	0.1637
277.6574	0.1449
277.8709	0.16
278.0843	0.154
278.2978	0.1605
278.5112	0.153
278.7246	0.1485
278.938	0.1636
279.1513	0.1549
279.3647	0.1574
279.5781	0.15
279.7914	0.1555
280.0047	0.1721
280.2181	0.16
280.4314	0.1623
280.6447	0.1695
280.8579	0.1623
281.0712	0.1531
281.2845	0.1693
281.4977	0.1721
281.711	0.1487
281.9242	0.1642
282.1374	0.1671
282.3506	0.1606
282.5638	0.1521
282.7769	0.1556
282.9901	0.1565
283.2033	0.1755
283.4164	0.1679
283.6295	0.1571
283.8426	0.1615
284.0557	0.1585
284.2688	0.1757
284.4819	0.165
284.695	0.1758
284.908	0.1729
285.1211	0.1613
285.3341	0.1636
285.5471	0.1613
285.7601	0.1667
285.9731	0.162
286.1861	0.1524
286.3991	0.1736
286.612	0.1826
286.825	0.1591
287.0379	0.158
287.2508	0.1622
287.4637	0.1665
287.6766	0.1517
287.8895	0.1674
288.1024	0.1791
288.3152	0.1728
288.5281	0.1664
288.7409	0.1624
288.9538	0.1754
289.1666	0.1612
289.3794	0.1616
289.5922	0.1657
289.8049	0.1625
290.0177	0.1651
290.2304	0.1676
290.4432	0.1644
290.6559	0.1671
290.8686	0.1618
291.0813	0.1692
291.294	0.1816
291.5067	0.1678
291.7194	0.1653
291.932	0.1657
292.1447	0.1597
292.3573	0.159
292.5699	0.1581
292.7825	0.1693
292.9951	0.1604
293.2077	0.1622
293.4203	0.1577
293.6328	0.1524
293.8454	0.1622
294.0579	0.1588
294.2704	0.1571
294.4829	0.1601
294.6954	0.166
294.9079	0.1653
295.1204	0.1552
295.3328	0.1524
295.5453	0.1634
295.7577	0.1546
295.9701	0.1562
296.1825	0.1608
296.3949	0.1648
296.6073	0.1525
296.8197	0.1504
297.0321	0.1651
297.2444	0.1461
297.4567	0.1551
297.6691	0.161
297.8814	0.1632
298.0937	0.1574
298.306	0.1686
298.5182	0.1621
298.7305	0.1669
298.9428	0.15
299.155	0.1647
299.3672	0.1543
299.5794	0.1502
299.7916	0.1516
300.0038	0.1663
300.216	0.1622
300.4282	0.1712
300.6403	0.1556
300.8525	0.1738
301.0646	0.1504
301.2767	0.166
301.4888	0.1717
301.7009	0.1527
301.913	0.1486
302.125	0.1702
302.3371	0.1559
302.5491	0.1599
302.7612	0.1634
302.9732	0.1618
303.1852	0.1579
303.3972	0.1589
303.6092	0.1533
303.8211	0.1501
304.0331	0.1436
304.245	0.1449
304.457	0.1399
304.6689	0.1548
304.8808	0.1584
305.0927	0.1474
305.3046	0.1468
305.5164	0.1565
305.7283	0.1444
305.9401	0.1541
306.152	0.1461
306.3638	0.1471
306.5756	0.1411
306.7874	0.1503
306.9992	0.1464
307.2109	0.1473
307.4227	0.1245
307.6344	0.1397
307.8462	0.137
308.0579	0.1311
308.2696	0.1454
308.4813	0.1276
308.693	0.1471
308.9046	0.1418
309.1163	0.1294
309.328	0.1351
309.5396	0.1248
309.7512	0.1315
309.9628	0.1204
310.1744	0.1335
310.386	0.1258
310.5976	0.1213
310.8091	0.13
311.0207	0.1161
311.2322	0.1238
311.4437	0.1125
311.6552	0.1081
311.8667	0.1218
312.0782	0.1101
312.2897	0.1212
312.5012	0.1159
312.7126	0.1103
312.924	0.1089
313.1355	0.1187
313.3469	0.1115
313.5583	0.1184
313.7696	0.1156
313.981	0.1105
314.1924	0.1168
314.4037	0.0991
314.6151	0.1139
314.8264	0.104
315.0377	0.1101
315.249	0.1131
315.4603	0.1092
315.6716	0.1193
315.8828	0.104
316.0941	0.102
316.3053	0.1099
316.5165	0.0917
316.7277	0.1006
316.9389	0.1043
317.1501	0.1087
317.3613	0.1145
317.5724	0.0896
317.7836	0.1021
317.9947	0.1025
318.2058	0.1075
318.417	0.0901
318.6281	0.1012
318.8391	0.0995
319.0502	0.1013
319.2613	0.1051
319.4723	0.1118
319.6834	0.1108
319.8944	0.0959
320.1054	0.1011
320.3164	0.1161
320.5274	0.1042
320.7383	0.1024
320.9493	0.1036
321.1602	0.1117
321.3712	0.0978
321.5821	0.104
321.793	0.1085
322.0039	0.1012
322.2148	0.1026
322.4257	0.1017
322.6365	0.1119
322.8474	0.1125
323.0582	0.1093
323.269	0.1169
323.4798	0.1108
323.6906	0.1067
323.9014	0.1082
324.1122	0.1159
324.3229	0.1082
324.5337	0.1121
324.7444	0.0991
324.9551	0.1094
325.1658	0.1162
325.3765	0.1195
325.5872	0.1155
325.7979	0.1154
326.0085	0.1031
326.2192	0.1192
326.4298	0.118
326.6404	0.1042
326.851	0.1078
327.0616	0.1044
327.2722	0.1192
327.4828	0.1148
327.6933	0.1097
327.9039	0.1103
328.1144	0.1203
328.3249	0.1192
328.5354	0.1083
328.7459	0.1127
328.9564	0.1096
329.1669	0.1139
329.3773	0.1136
329.5878	0.103
329.7982	0.1109
330.0086	0.0993
330.219	0.1097
330.4294	0.1074
330.6398	0.107
330.8502	0.1084
331.0605	0.1163
331.2708	0.106
331.4812	0.1138
331.6915	0.1112
331.9018	0.1151
332.1121	0.1032
332.3224	0.1107
332.5326	0.1209
332.7429	0.1114
332.9531	0.1191
333.1633	0.121
333.3735	0.1059
333.5837	0.1169
333.7939	0.1003
334.0041	0.1166
334.2143	0.1129
334.4244	0.1115
334.6346	0.107
334.8447	0.1224
335.0548	0.124
335.2649	0.1081
335.475	0.1253
335.685	0.1044
335.8951	0.1173
336.1051	0.1158
336.3152	0.117
336.5252	0.1069
336.7352	0.1224
336.9452	0.1203
337.1552	0.1149
337.3652	0.1138
337.5751	0.1143
337.7851	0.1067
337.995	0.1058
338.2049	0.1261
338.4148	0.1213
338.6247	0.1285
338.8346	0.104
339.0445	0.1022
339.2543	0.1133
339.4642	0.1186
339.674	0.1083
339.8838	0.1179
340.0936	0.1215
340.3034	0.1228
340.5132	0.1311
340.7229	0.1274
340.9327	0.112
341.1424	0.1214
341.3522	0.1189
341.5619	0.131
341.7716	0.1243
341.9813	0.1273
342.1909	0.1234
342.4006	0.1377
342.6102	0.1371
342.8199	0.13
343.0295	0.1271
343.2391	0.1356
343.4487	0.1424
343.6583	0.1237
343.8679	0.1393
344.0774	0.1254
344.287	0.1453
344.4965	0.1288
344.706	0.1377
344.9155	0.1216
345.125	0.1342
345.3345	0.1326
345.544	0.1261
345.7534	0.1343
345.9629	0.1258
346.1723	0.1419
346.3817	0.1329
346.5911	0.1318
346.8005	0.1436
347.0099	0.1358
347.2193	0.1431
347.4286	0.1362
347.638	0.1412
347.8473	0.1343
348.0566	0.1349
348.2659	0.1407
348.4752	0.1349
348.6845	0.1408
348.8937	0.1342
349.103	0.1396
349.3122	0.1344
349.5214	0.1387
349.7306	0.1359
349.9398	0.1535
350.149	0.145
350.3582	0.1329
350.5674	0.1594
350.7765	0.1336
350.9856	0.1395
351.1948	0.1494
351.4039	0.1445
351.613	0.1373
351.822	0.1436
352.0311	0.1548
352.2402	0.1427
352.4492	0.1504
352.6582	0.1427
352.8672	0.1546
353.0762	0.1452
353.2852	0.1477
353.4942	0.147
353.7032	0.1569
353.9121	0.1526
354.1211	0.1609
354.33	0.1543
354.5389	0.1618
354.7478	0.1488
354.9567	0.1495
355.1655	0.1555
355.3744	0.1634
355.5833	0.1629
355.7921	0.1718
356.0009	0.1561
356.2097	0.1705
356.4185	0.1643
356.6273	0.1719
356.8361	0.161
357.0448	0.1592
357.2536	0.1556
357.4623	0.1538
357.671	0.1806
357.8797	0.1598
358.0884	0.1714
358.2971	0.1592
358.5057	0.1671
358.7144	0.1764
358.923	0.1616
359.1316	0.1662
359.3402	0.161
359.5488	0.1678
359.7574	0.1574
359.966	0.1743
360.1746	0.1973
360.3831	0.1706
360.5916	0.1746
360.8002	0.1648
361.0087	0.1807
361.2172	0.1819
361.4256	0.1774
361.6341	0.1948
361.8426	0.1646
362.051	0.1767
362.2594	0.1728
362.4678	0.1714
362.6762	0.2063
362.8846	0.1913
363.093	0.1862
363.3014	0.1868
363.5097	0.162
363.718	0.1991
363.9264	0.192
364.1347	0.1831
364.343	0.1997
364.5513	0.1958
364.7595	0.1967
364.9678	0.1889
365.176	0.1932
365.3842	0.196
365.5925	0.1954
365.8007	0.194
366.0089	0.1962
366.217	0.1906
366.4252	0.2098
366.6333	0.2031
366.8415	0.1941
367.0496	0.187
367.2577	0.197
367.4658	0.2096
367.6739	0.2084
367.882	0.2071
368.09	0.2088
368.2981	0.2125
368.5061	0.1915
368.7141	0.2205
368.9221	0.1974
369.1301	0.1965
369.3381	0.2002
369.5461	0.2046
369.754	0.2123
369.962	0.2127
370.1699	0.1927
370.3778	0.1948
370.5857	0.1963
370.7936	0.2289
371.0015	0.2079
371.2093	0.2104
371.4172	0.2313
371.625	0.2028
371.8328	0.1973
372.0406	0.2069
372.2484	0.2102
372.4562	0.2359
372.664	0.2095
372.8717	0.2219
373.0795	0.1948
373.2872	0.2096
373.4949	0.1969
373.7026	0.2232
373.9103	0.2289
374.118	0.2173
374.3256	0.214
374.5333	0.2125
374.7409	0.2057
374.9485	0.2316
375.1561	0.2183
375.3637	0.2235
375.5713	0.2292
375.7789	0.2225
375.9864	0.2372
376.194	0.2249
376.4015	0.2263
376.609	0.2353
376.8165	0.2258
377.024	0.2357
377.2315	0.2205
377.4389	0.2238
377.6464	0.2406
377.8538	0.2428
378.0612	0.2328
378.2686	0.2353
378.476	0.2287
378.6834	0.2329
378.8908	0.2342
379.0981	0.2346
379.3055	0.227
379.5128	0.2449
379.7201	0.2456
379.9274	0.2258
380.1347	0.2443
380.342	0.2361
380.5492	0.2272
380.7565	0.2335
380.9637	0.2434
381.1709	0.2285
381.3781	0.2303
381.5853	0.2465
381.7925	0.2278
381.9997	0.2544
382.2068	0.2558
382.4139	0.2352
382.6211	0.2254
382.8282	0.2286
383.0353	0.2469
383.2424	0.233
383.4494	0.2453
383.6565	0.2239
383.8635	0.2224
384.0706	0.2378
384.2776	0.2393
384.4846	0.2409
384.6916	0.2272
384.8986	0.2348
385.1055	0.2392
385.3125	0.2517
385.5194	0.2195
385.7263	0.237
385.9333	0.2407
386.1402	0.2312
386.347	0.2365
386.5539	0.2242
386.7608	0.2579
386.9676	0.2328
387.1744	0.2361
387.3813	0.2274
387.5881	0.2445
387.7948	0.2298
388.0016	0.2279
388.2084	0.2526
388.4151	0.2259
388.6219	0.2423
388.8286	0.2428
389.0353	0.2545
389.242	0.2314
389.4487	0.2194
389.6553	0.2223
389.862	0.2068
390.0686	0.2256
390.2753	0.2273
390.4819	0.2349
390.6885	0.2178
390.8951	0.2351
391.1016	0.2256
391.3082	0.2061
391.5147	0.2203
391.7213	0.2177
391.9278	0.2148
392.1343	0.2096
392.3408	0.2128
392.5473	0.2107
392.7537	0.2101
392.9602	0.2147
393.1666	0.2215
393.373	0.227
393.5794	0.2281
393.7858	0.2093
393.9922	0.2094
394.1986	0.2109
394.4049	0.2211
394.6113	0.1997
394.8176	0.2017
395.0239	0.2128
395.2302	0.1927
395.4365	0.2096
395.6428	0.192
395.8491	0.2094
396.0553	0.1901
396.2615	0.2023
396.4678	0.2206
396.674	0.1962
396.8802	0.207
397.0863	0.2166
397.2925	0.1832
397.4987	0.1883
397.7048	0.2098
397.9109	0.2081
398.117	0.1805
398.3231	0.1623
398.5292	0.2036
398.7353	0.2044
398.9413	0.1917
399.1474	0.2061
399.3534	0.1957
399.5594	0.1843
399.7654	0.2004
399.9714	0.2138
400.1774	0.2117
400.3833	0.1829
400.5893	0.2025
400.7952	0.1981
401.0011	0.1944
401.207	0.1958
401.4129	0.2046
401.6188	0.2073
401.8247	0.1994
402.0305	0.2
402.2364	0.1851
402.4422	0.1972
402.648	0.201
402.8538	0.2015
403.0596	0.1986
403.2654	0.2061
403.4711	0.1891
403.6768	0.1914
403.8826	0.2149
404.0883	0.1962
404.294	0.1924
404.4997	0.1915
404.7054	0.2032
404.911	0.1816
405.1167	0.1997
405.3223	0.2091
405.5279	0.1953
405.7335	0.1947
405.9391	0.1961
406.1447	0.1976
406.3502	0.229
406.5558	0.1932
406.7613	0.2184
406.9668	0.2024
407.1724	0.2058
407.3778	0.1962
407.5833	0.1855
407.7888	0.1834
407.9942	0.2223
408.1997	0.1902
408.4051	0.202
408.6105	0.2008
408.8159	0.1806
409.0213	0.1879
409.2267	0.1955
409.432	0.191
409.6374	0.2135
409.8427	0.1873
410.048	0.1883
410.2533	0.205
410.4586	0.1929
410.6639	0.186
410.8691	0.1984
411.0744	0.1986
411.2796	0.203
411.4848	0.1858
411.69	0.1865
411.8952	0.2021
412.1004	0.1868
412.3056	0.2165
412.5107	0.1936
412.7158	0.1953
412.921	0.1713
413.1261	0.1858
413.3312	0.1797
413.5362	0.1935
413.7413	0.1995
413.9464	0.1888
414.1514	0.1893
414.3564	0.1694
414.5614	0.1703
414.7664	0.1799
414.9714	0.1927
415.1764	0.1935
415.3813	0.1918
415.5863	0.19
415.7912	0.1828
415.9961	0.2033
416.201	0.1805
416.4059	0.1747
416.6108	0.1569
416.8156	0.1957
417.0205	0.1664
417.2253	0.188
417.4301	0.1954
417.6349	0.1755
417.8397	0.181
418.0445	0.1915
418.2492	0.2051
418.454	0.1723
418.6587	0.1852
418.8634	0.1773
419.0681	0.174
419.2728	0.1824
419.4775	0.1598
419.6822	0.1757
419.8868	0.1601
420.0915	0.1617
420.2961	0.1728
420.5007	0.1819
420.7053	0.1747
420.9099	0.1712
421.1144	0.1786
421.319	0.161
421.5235	0.1714
421.728	0.1853
421.9325	0.1767
422.137	0.1949
422.3415	0.1582
422.546	0.1774
422.7504	0.158
422.9549	0.1745
423.1593	0.1882
423.3637	0.183
423.5681	0.1709
423.7725	0.1743
423.9769	0.1685
424.1812	0.1672
424.3856	0.1574
424.5899	0.1646
424.7942	0.1589
424.9985	0.1678
425.2028	0.1622
425.4071	0.1813
425.6113	0.1587
425.8156	0.1593
426.0198	0.1757
426.224	0.1414
426.4282	0.155
426.6324	0.1469
