Data from MonoPyChalIsomerACN10uM420nmA_Absorbance_15-09-51-434.txt Node
Date: Fri Jul 05 15:09:51 BST 2024
User: LASERRRRR
Spectrometer: FLMT03099
Trigger mode: 0
Integration Time (sec): 1.000000E-1
Scans to average: 1
Electric dark correction enabled: true
Nonlinearity correction enabled: false
Boxcar width: 0
XAxis mode: Wavelengths
Number of Pixels in Spectrum: 3648
>>>>>Begin Spectral Data<<<<<
179.3399	-0.4653
179.5586	-0.4653
179.7771	-0.4653
179.9957	1.3234
180.2143	-0
180.4329	0.0282
180.6514	-0
180.8699	0.3923
181.0885	-0.4085
181.307	0.0486
181.5255	0.7347
181.744	-0
181.9625	0.6557
182.181	-0
182.3994	0.3899
182.6179	-0
182.8363	-0
183.0547	-0.0864
183.2732	-0.0436
183.4916	0.0804
183.71	-0.0353
183.9284	-0.0187
184.1467	-0.1155
184.3651	-0.0759
184.5835	-0.0723
184.8018	-0.0753
185.0201	0.0834
185.2385	-0.0546
185.4568	0.0271
185.6751	0.1157
185.8934	0.3085
186.1117	0.0022
186.3299	0.1003
186.5482	-0.0361
186.7664	0.0377
186.9847	-0.0691
187.2029	-0.0046
187.4211	0.0488
187.6393	0.2372
187.8575	0.0409
188.0757	0.2008
188.2939	0.0875
188.512	0.1473
188.7302	0.3069
188.9483	0.2252
189.1665	0.0975
189.3846	-0.0956
189.6027	0.1206
189.8208	0.1365
190.0389	0.0852
190.257	0.2532
190.475	0.1499
190.6931	0.2323
190.9111	1.5154
191.1292	0.0574
191.3472	0.4104
191.5652	0.2419
191.7832	0.2042
192.0012	0.7668
192.2192	0.4352
192.4371	0.5083
192.6551	0.4558
192.873	0.6153
193.091	0.562
193.3089	1.1152
193.5268	0.3557
193.7447	0.3554
193.9626	0.4798
194.1805	0.5794
194.3984	0.626
194.6162	0.4573
194.8341	0.4495
195.0519	0.576
195.2697	0.779
195.4875	0.5731
195.7054	0.6104
195.9231	0.5684
196.1409	0.737
196.3587	0.624
196.5765	0.5124
196.7942	0.5265
197.012	0.5414
197.2297	0.6508
197.4474	0.9215
197.6651	0.6272
197.8828	0.5284
198.1005	0.6028
198.3182	0.7051
198.5358	0.7151
198.7535	0.5244
198.9711	0.4919
199.1888	0.6943
199.4064	0.815
199.624	0.6436
199.8416	0.5371
200.0592	0.5808
200.2767	0.6857
200.4943	0.6998
200.7119	0.6565
200.9294	0.7924
201.1469	0.5501
201.3645	0.5861
201.582	0.6199
201.7995	0.5954
202.017	0.6039
202.2344	0.5829
202.4519	0.6924
202.6694	0.6275
202.8868	0.7067
203.1042	0.6789
203.3217	0.8
203.5391	0.7414
203.7565	0.553
203.9739	0.5856
204.1913	0.6925
204.4086	0.8015
204.626	0.7152
204.8433	0.6663
205.0607	0.6053
205.278	0.6923
205.4953	0.6991
205.7126	0.7139
205.9299	0.7743
206.1472	0.7484
206.3644	0.6965
206.5817	0.747
206.7989	0.6885
207.0162	0.6793
207.2334	0.6894
207.4506	0.6689
207.6678	0.6519
207.885	0.6844
208.1022	0.7002
208.3194	0.7939
208.5365	0.6343
208.7537	0.6421
208.9708	0.5433
209.1879	0.6318
209.405	0.7606
209.6222	0.6767
209.8392	0.6006
210.0563	0.6194
210.2734	0.6465
210.4905	0.6574
210.7075	0.6902
210.9245	0.5849
211.1416	0.6899
211.3586	0.6669
211.5756	0.6174
211.7926	0.6471
212.0096	0.5964
212.2265	0.6322
212.4435	0.6
212.6604	0.6994
212.8774	0.6143
213.0943	0.5874
213.3112	0.5672
213.5281	0.5158
213.745	0.5135
213.9619	0.4955
214.1788	0.4899
214.3956	0.4535
214.6125	0.4644
214.8293	0.4616
215.0461	0.5287
215.2629	0.4211
215.4798	0.5093
215.6965	0.435
215.9133	0.4494
216.1301	0.4415
216.3469	0.4623
216.5636	0.4507
216.7803	0.372
216.9971	0.4203
217.2138	0.3883
217.4305	0.3921
217.6472	0.3728
217.8639	0.3964
218.0805	0.3547
218.2972	0.3232
218.5138	0.3139
218.7305	0.3209
218.9471	0.3023
219.1637	0.3105
219.3803	0.2743
219.5969	0.2962
219.8135	0.2719
220.0301	0.2969
220.2466	0.2687
220.4632	0.2585
220.6797	0.2244
220.8962	0.2574
221.1127	0.2539
221.3292	0.2518
221.5457	0.2619
221.7622	0.2454
221.9787	0.2663
222.1951	0.2388
222.4116	0.289
222.628	0.2449
222.8444	0.2618
223.0608	0.2595
223.2772	0.2579
223.4936	0.2684
223.71	0.2614
223.9264	0.282
224.1427	0.2623
224.3591	0.2346
224.5754	0.2891
224.7917	0.2751
225.008	0.2621
225.2243	0.2654
225.4406	0.2852
225.6569	0.2683
225.8732	0.2694
226.0894	0.279
226.3057	0.2735
226.5219	0.2802
226.7381	0.2808
226.9543	0.2566
227.1705	0.2848
227.3867	0.2804
227.6029	0.2937
227.8191	0.3138
228.0352	0.2892
228.2513	0.3188
228.4675	0.326
228.6836	0.2889
228.8997	0.3212
229.1158	0.3157
229.3319	0.3178
229.548	0.3296
229.764	0.3257
229.9801	0.3207
230.1961	0.3242
230.4121	0.3309
230.6282	0.361
230.8442	0.3147
231.0602	0.3662
231.2761	0.3437
231.4921	0.3576
231.7081	0.3472
231.924	0.3484
232.14	0.3623
232.3559	0.3389
232.5718	0.3743
232.7877	0.369
233.0036	0.3541
233.2195	0.3686
233.4353	0.3513
233.6512	0.3661
233.867	0.3803
234.0829	0.355
234.2987	0.3637
234.5145	0.3709
234.7303	0.3798
234.9461	0.3932
235.1619	0.3911
235.3776	0.3741
235.5934	0.3873
235.8091	0.3651
236.0249	0.3892
236.2406	0.3857
236.4563	0.3826
236.672	0.3962
236.8877	0.4062
237.1034	0.4024
237.319	0.3999
237.5347	0.3923
237.7503	0.4065
237.966	0.4111
238.1816	0.4177
238.3972	0.3953
238.6128	0.4025
238.8284	0.4101
239.0439	0.4026
239.2595	0.3962
239.475	0.4102
239.6906	0.4033
239.9061	0.4128
240.1216	0.4163
240.3371	0.419
240.5526	0.3929
240.7681	0.4059
240.9836	0.3922
241.199	0.4128
241.4145	0.395
241.6299	0.3983
241.8453	0.3868
242.0607	0.3959
242.2761	0.3659
242.4915	0.379
242.7069	0.3617
242.9223	0.3576
243.1376	0.365
243.353	0.3532
243.5683	0.3537
243.7836	0.3429
243.9989	0.3494
244.2142	0.316
244.4295	0.3286
244.6448	0.3179
244.86	0.3045
245.0753	0.3174
245.2905	0.2922
245.5057	0.3003
245.721	0.2906
245.9362	0.2888
246.1514	0.2727
246.3665	0.2715
246.5817	0.2702
246.7969	0.2756
247.012	0.2546
247.2271	0.2387
247.4423	0.259
247.6574	0.2511
247.8725	0.2488
248.0876	0.2282
248.3026	0.2415
248.5177	0.2188
248.7328	0.2247
248.9478	0.2237
249.1628	0.2209
249.3779	0.2181
249.5929	0.2037
249.8079	0.2181
250.0228	0.1985
250.2378	0.2125
250.4528	0.2184
250.6677	0.1971
250.8827	0.21
251.0976	0.2021
251.3125	0.1961
251.5274	0.1931
251.7423	0.1848
251.9572	0.2013
252.172	0.1892
252.3869	0.1828
252.6017	0.1975
252.8166	0.1798
253.0314	0.1683
253.2462	0.1686
253.461	0.1857
253.6758	0.1744
253.8906	0.1904
254.1053	0.1689
254.3201	0.1784
254.5348	0.1902
254.7496	0.1947
254.9643	0.1833
255.179	0.1765
255.3937	0.1738
255.6083	0.1822
255.823	0.1804
256.0377	0.1795
256.2523	0.1722
256.467	0.1638
256.6816	0.1876
256.8962	0.1779
257.1108	0.1674
257.3254	0.1716
257.54	0.1657
257.7545	0.1727
257.9691	0.1754
258.1836	0.179
258.3981	0.1814
258.6127	0.1671
258.8272	0.1702
259.0417	0.1662
259.2561	0.1826
259.4706	0.1769
259.6851	0.1761
259.8995	0.1714
260.114	0.1679
260.3284	0.1766
260.5428	0.1697
260.7572	0.1618
260.9716	0.1788
261.186	0.1653
261.4003	0.1725
261.6147	0.1767
261.829	0.1776
262.0433	0.1577
262.2577	0.1785
262.472	0.1708
262.6863	0.169
262.9005	0.1754
263.1148	0.1702
263.3291	0.157
263.5433	0.1584
263.7576	0.1766
263.9718	0.1628
264.186	0.1687
264.4002	0.165
264.6144	0.165
264.8286	0.1763
265.0427	0.1634
265.2569	0.1688
265.471	0.1627
265.6851	0.1635
265.8993	0.1682
266.1134	0.1603
266.3275	0.1675
266.5415	0.1673
266.7556	0.1787
266.9697	0.168
267.1837	0.1677
267.3978	0.1576
267.6118	0.1718
267.8258	0.1867
268.0398	0.159
268.2538	0.1716
268.4677	0.1716
268.6817	0.1718
268.8957	0.1781
269.1096	0.1703
269.3235	0.1664
269.5374	0.1587
269.7514	0.1542
269.9652	0.1583
270.1791	0.1542
270.393	0.1684
270.6068	0.1651
270.8207	0.1632
271.0345	0.1542
271.2483	0.164
271.4622	0.1574
271.676	0.1613
271.8897	0.1564
272.1035	0.1524
272.3173	0.1605
272.531	0.1611
272.7448	0.1443
272.9585	0.1488
273.1722	0.1474
273.3859	0.1544
273.5996	0.1518
273.8133	0.1552
274.0269	0.1505
274.2406	0.1369
274.4542	0.1626
274.6679	0.1324
274.8815	0.1444
275.0951	0.1475
275.3087	0.1574
275.5223	0.1446
275.7358	0.1532
275.9494	0.154
276.1629	0.157
276.3765	0.1453
276.59	0.1657
276.8035	0.1538
277.017	0.1555
277.2305	0.1522
277.444	0.1489
277.6574	0.148
277.8709	0.165
278.0843	0.1517
278.2978	0.1529
278.5112	0.1471
278.7246	0.1511
278.938	0.1586
279.1513	0.1528
279.3647	0.167
279.5781	0.1591
279.7914	0.1488
280.0047	0.1681
280.2181	0.154
280.4314	0.1641
280.6447	0.1609
280.8579	0.1523
281.0712	0.1725
281.2845	0.167
281.4977	0.1621
281.711	0.1473
281.9242	0.1674
282.1374	0.159
282.3506	0.1609
282.5638	0.1606
282.7769	0.1576
282.9901	0.161
283.2033	0.1666
283.4164	0.172
283.6295	0.1545
283.8426	0.1482
284.0557	0.1547
284.2688	0.1686
284.4819	0.1721
284.695	0.1675
284.908	0.1689
285.1211	0.1534
285.3341	0.1535
285.5471	0.1736
285.7601	0.1539
285.9731	0.1541
286.1861	0.1502
286.3991	0.1734
286.612	0.1607
286.825	0.1639
287.0379	0.1738
287.2508	0.1594
287.4637	0.1654
287.6766	0.152
287.8895	0.1706
288.1024	0.1878
288.3152	0.1703
288.5281	0.1569
288.7409	0.1548
288.9538	0.1662
289.1666	0.1599
289.3794	0.1705
289.5922	0.162
289.8049	0.1594
290.0177	0.1633
290.2304	0.1707
290.4432	0.1643
290.6559	0.1637
290.8686	0.1719
291.0813	0.1709
291.294	0.1651
291.5067	0.1684
291.7194	0.1721
291.932	0.1676
292.1447	0.1712
292.3573	0.1526
292.5699	0.1675
292.7825	0.1709
292.9951	0.1518
293.2077	0.1633
293.4203	0.1633
293.6328	0.1506
293.8454	0.1719
294.0579	0.1587
294.2704	0.1597
294.4829	0.1611
294.6954	0.1653
294.9079	0.1599
295.1204	0.1584
295.3328	0.1594
295.5453	0.17
295.7577	0.1649
295.9701	0.145
296.1825	0.1733
296.3949	0.1555
296.6073	0.1493
296.8197	0.1613
297.0321	0.1697
297.2444	0.1521
297.4567	0.1569
297.6691	0.165
297.8814	0.1442
298.0937	0.1562
298.306	0.1725
298.5182	0.1632
298.7305	0.1655
298.9428	0.1679
299.155	0.1696
299.3672	0.1494
299.5794	0.153
299.7916	0.1621
300.0038	0.1587
300.216	0.1738
300.4282	0.1715
300.6403	0.1599
300.8525	0.1764
301.0646	0.1628
301.2767	0.1646
301.4888	0.1602
301.7009	0.16
301.913	0.1658
302.125	0.1657
302.3371	0.1557
302.5491	0.1622
302.7612	0.164
302.9732	0.1627
303.1852	0.1553
303.3972	0.156
303.6092	0.1462
303.8211	0.1524
304.0331	0.1521
304.245	0.1531
304.457	0.145
304.6689	0.1476
304.8808	0.1612
305.0927	0.1608
305.3046	0.1657
305.5164	0.1542
305.7283	0.1402
305.9401	0.1543
306.152	0.1517
306.3638	0.1628
306.5756	0.1521
306.7874	0.1487
306.9992	0.1602
307.2109	0.1367
307.4227	0.1352
307.6344	0.1381
307.8462	0.1396
308.0579	0.1368
308.2696	0.1444
308.4813	0.1297
308.693	0.1356
308.9046	0.1342
309.1163	0.1371
309.328	0.1278
309.5396	0.1251
309.7512	0.1284
309.9628	0.1263
310.1744	0.1249
310.386	0.1192
310.5976	0.1225
310.8091	0.1188
311.0207	0.1214
311.2322	0.1262
311.4437	0.1137
311.6552	0.1157
311.8667	0.1278
312.0782	0.1073
312.2897	0.1046
312.5012	0.1181
312.7126	0.1205
312.924	0.095
313.1355	0.1204
313.3469	0.112
313.5583	0.1116
313.7696	0.1014
313.981	0.1054
314.1924	0.0994
314.4037	0.1129
314.6151	0.1171
314.8264	0.0997
315.0377	0.0973
315.249	0.11
315.4603	0.1178
315.6716	0.1004
315.8828	0.1091
316.0941	0.1069
316.3053	0.0875
316.5165	0.0942
316.7277	0.0966
316.9389	0.1103
317.1501	0.0947
317.3613	0.1109
317.5724	0.0879
317.7836	0.11
317.9947	0.0976
318.2058	0.1004
318.417	0.1013
318.6281	0.0934
318.8391	0.1134
319.0502	0.0953
319.2613	0.1045
319.4723	0.1024
319.6834	0.1066
319.8944	0.0977
320.1054	0.1049
320.3164	0.1056
320.5274	0.1037
320.7383	0.0995
320.9493	0.0948
321.1602	0.1159
321.3712	0.1016
321.5821	0.1066
321.793	0.101
322.0039	0.0987
322.2148	0.0997
322.4257	0.0999
322.6365	0.1058
322.8474	0.112
323.0582	0.1115
323.269	0.1072
323.4798	0.1109
323.6906	0.1078
323.9014	0.1073
324.1122	0.1018
324.3229	0.0997
324.5337	0.0989
324.7444	0.0964
324.9551	0.1198
325.1658	0.1081
325.3765	0.1096
325.5872	0.1018
325.7979	0.1016
326.0085	0.1105
326.2192	0.1005
326.4298	0.1074
326.6404	0.1024
326.851	0.1024
327.0616	0.0926
327.2722	0.1036
327.4828	0.1093
327.6933	0.1085
327.9039	0.1048
328.1144	0.1217
328.3249	0.1076
328.5354	0.101
328.7459	0.108
328.9564	0.106
329.1669	0.1077
329.3773	0.1126
329.5878	0.1139
329.7982	0.1163
330.0086	0.1069
330.219	0.1052
330.4294	0.1146
330.6398	0.1163
330.8502	0.1036
331.0605	0.1117
331.2708	0.1111
331.4812	0.1225
331.6915	0.125
331.9018	0.1063
332.1121	0.1035
332.3224	0.1145
332.5326	0.1102
332.7429	0.1112
332.9531	0.1307
333.1633	0.1166
333.3735	0.1087
333.5837	0.118
333.7939	0.1142
334.0041	0.1157
334.2143	0.1084
334.4244	0.1118
334.6346	0.0877
334.8447	0.1306
335.0548	0.1046
335.2649	0.1011
335.475	0.1149
335.685	0.1162
335.8951	0.1135
336.1051	0.1191
336.3152	0.1213
336.5252	0.1169
336.7352	0.1205
336.9452	0.1165
337.1552	0.1134
337.3652	0.1219
337.5751	0.117
337.7851	0.1138
337.995	0.1045
338.2049	0.1199
338.4148	0.1142
338.6247	0.1171
338.8346	0.1209
339.0445	0.1175
339.2543	0.1118
339.4642	0.1128
339.674	0.1061
339.8838	0.1155
340.0936	0.1107
340.3034	0.1299
340.5132	0.125
340.7229	0.1195
340.9327	0.1168
341.1424	0.1165
341.3522	0.1333
341.5619	0.1207
341.7716	0.1305
341.9813	0.1168
342.1909	0.1206
342.4006	0.1444
342.6102	0.1279
342.8199	0.1314
343.0295	0.1296
343.2391	0.1297
343.4487	0.1219
343.6583	0.1213
343.8679	0.1391
344.0774	0.1404
344.287	0.1276
344.4965	0.1305
344.706	0.1294
344.9155	0.1173
345.125	0.1247
345.3345	0.1418
345.544	0.1436
345.7534	0.1324
345.9629	0.1264
346.1723	0.1284
346.3817	0.1282
346.5911	0.1374
346.8005	0.134
347.0099	0.1279
347.2193	0.1452
347.4286	0.1353
347.638	0.1372
347.8473	0.1442
348.0566	0.1413
348.2659	0.1419
348.4752	0.1377
348.6845	0.1404
348.8937	0.1234
349.103	0.1455
349.3122	0.1274
349.5214	0.1308
349.7306	0.1445
349.9398	0.142
350.149	0.1574
350.3582	0.1344
350.5674	0.1502
350.7765	0.1487
350.9856	0.1531
351.1948	0.1444
351.4039	0.1284
351.613	0.1352
351.822	0.1504
352.0311	0.15
352.2402	0.1373
352.4492	0.1471
352.6582	0.1392
352.8672	0.1464
353.0762	0.1528
353.2852	0.1467
353.4942	0.1296
353.7032	0.1589
353.9121	0.1504
354.1211	0.1444
354.33	0.1616
354.5389	0.1561
354.7478	0.1551
354.9567	0.1548
355.1655	0.1432
355.3744	0.156
355.5833	0.1446
355.7921	0.1811
356.0009	0.1708
356.2097	0.1713
356.4185	0.1575
356.6273	0.1611
356.8361	0.1613
357.0448	0.1563
357.2536	0.148
357.4623	0.1416
357.671	0.1634
357.8797	0.1799
358.0884	0.1443
358.2971	0.1643
358.5057	0.1577
358.7144	0.1739
358.923	0.1654
359.1316	0.1769
359.3402	0.1719
359.5488	0.1582
359.7574	0.1527
359.966	0.1825
360.1746	0.1743
360.3831	0.1781
360.5916	0.1705
360.8002	0.1661
361.0087	0.1847
361.2172	0.171
361.4256	0.1692
361.6341	0.1949
361.8426	0.1746
362.051	0.1826
362.2594	0.1855
362.4678	0.1738
362.6762	0.1929
362.8846	0.18
363.093	0.1745
363.3014	0.1676
363.5097	0.1758
363.718	0.1843
363.9264	0.1789
364.1347	0.1891
364.343	0.2023
364.5513	0.1921
364.7595	0.1961
364.9678	0.2065
365.176	0.1847
365.3842	0.2031
365.5925	0.1976
365.8007	0.1919
366.0089	0.1948
366.217	0.1819
366.4252	0.1997
366.6333	0.2077
366.8415	0.205
367.0496	0.185
367.2577	0.2069
367.4658	0.1947
367.6739	0.1933
367.882	0.2012
368.09	0.1927
368.2981	0.189
368.5061	0.2057
368.7141	0.2039
368.9221	0.2072
369.1301	0.1994
369.3381	0.2027
369.5461	0.2152
369.754	0.2006
369.962	0.225
370.1699	0.2174
370.3778	0.1981
370.5857	0.1933
370.7936	0.2025
371.0015	0.2158
371.2093	0.2113
371.4172	0.2222
371.625	0.209
371.8328	0.2284
372.0406	0.2072
372.2484	0.2205
372.4562	0.217
372.664	0.2107
372.8717	0.2354
373.0795	0.1892
373.2872	0.2293
373.4949	0.225
373.7026	0.2146
373.9103	0.2322
374.118	0.2091
374.3256	0.2085
374.5333	0.2373
374.7409	0.2292
374.9485	0.2477
375.1561	0.2295
375.3637	0.2224
375.5713	0.2392
375.7789	0.2328
375.9864	0.2095
376.194	0.2192
376.4015	0.2431
376.609	0.2317
376.8165	0.2284
377.024	0.2163
377.2315	0.2126
377.4389	0.2275
377.6464	0.2331
377.8538	0.2425
378.0612	0.2392
378.2686	0.2327
378.476	0.243
378.6834	0.2446
378.8908	0.2505
379.0981	0.2264
379.3055	0.2368
379.5128	0.2262
379.7201	0.224
379.9274	0.238
380.1347	0.2331
380.342	0.2441
380.5492	0.231
380.7565	0.2449
380.9637	0.2543
381.1709	0.2405
381.3781	0.2287
381.5853	0.2494
381.7925	0.2312
381.9997	0.2439
382.2068	0.2671
382.4139	0.2502
382.6211	0.2208
382.8282	0.2411
383.0353	0.2494
383.2424	0.238
383.4494	0.2437
383.6565	0.2398
383.8635	0.247
384.0706	0.2507
384.2776	0.2639
384.4846	0.2248
384.6916	0.2493
384.8986	0.2457
385.1055	0.2584
385.3125	0.2382
385.5194	0.23
385.7263	0.2693
385.9333	0.2452
386.1402	0.2449
386.347	0.2356
386.5539	0.2372
386.7608	0.2521
386.9676	0.2426
387.1744	0.2455
387.3813	0.2199
387.5881	0.2624
387.7948	0.2489
388.0016	0.2327
388.2084	0.2377
388.4151	0.2307
388.6219	0.2422
388.8286	0.2382
389.0353	0.259
389.242	0.2499
389.4487	0.2409
389.6553	0.2265
389.862	0.2114
390.0686	0.2227
390.2753	0.2468
390.4819	0.2342
390.6885	0.2235
390.8951	0.2357
391.1016	0.2305
391.3082	0.2237
391.5147	0.2391
391.7213	0.2308
391.9278	0.2156
392.1343	0.2167
392.3408	0.2382
392.5473	0.2208
392.7537	0.2351
392.9602	0.2105
393.1666	0.2093
393.373	0.2231
393.5794	0.2268
393.7858	0.2159
393.9922	0.2053
394.1986	0.2402
394.4049	0.2151
394.6113	0.1945
394.8176	0.1913
395.0239	0.2103
395.2302	0.2194
395.4365	0.1988
395.6428	0.2088
395.8491	0.2042
396.0553	0.2111
396.2615	0.2081
396.4678	0.2013
396.674	0.1952
396.8802	0.1951
397.0863	0.2251
397.2925	0.1987
397.4987	0.1966
397.7048	0.2149
397.9109	0.2169
398.117	0.19
398.3231	0.1873
398.5292	0.212
398.7353	0.2217
398.9413	0.1985
399.1474	0.2012
399.3534	0.2005
399.5594	0.1859
399.7654	0.2024
399.9714	0.2189
400.1774	0.1993
400.3833	0.1859
400.5893	0.2031
400.7952	0.213
401.0011	0.2022
401.207	0.2048
401.4129	0.1999
401.6188	0.2325
401.8247	0.2103
402.0305	0.1976
402.2364	0.2021
402.4422	0.2119
402.648	0.2066
402.8538	0.2114
403.0596	0.1726
403.2654	0.1994
403.4711	0.2051
403.6768	0.2041
403.8826	0.2052
404.0883	0.2103
404.294	0.205
404.4997	0.1959
404.7054	0.1978
404.911	0.1947
405.1167	0.1984
405.3223	0.2192
405.5279	0.2232
405.7335	0.2047
405.9391	0.2026
406.1447	0.1909
406.3502	0.2148
406.5558	0.1977
406.7613	0.207
406.9668	0.2014
407.1724	0.1906
407.3778	0.1778
407.5833	0.2101
407.7888	0.1878
407.9942	0.222
408.1997	0.1956
408.4051	0.1854
408.6105	0.2094
408.8159	0.1881
409.0213	0.1887
409.2267	0.2125
409.432	0.1884
409.6374	0.2127
409.8427	0.1932
410.048	0.1989
410.2533	0.1855
410.4586	0.2052
410.6639	0.1912
410.8691	0.1969
411.0744	0.1964
411.2796	0.1997
411.4848	0.1915
411.69	0.1685
411.8952	0.2202
412.1004	0.1917
412.3056	0.215
412.5107	0.1919
412.7158	0.221
412.921	0.1863
413.1261	0.1982
413.3312	0.1868
413.5362	0.1835
413.7413	0.1791
413.9464	0.2051
414.1514	0.1888
414.3564	0.2073
414.5614	0.1852
414.7664	0.2124
414.9714	0.1971
415.1764	0.1813
415.3813	0.2177
415.5863	0.1799
415.7912	0.1855
415.9961	0.1929
416.201	0.1752
416.4059	0.2124
416.6108	0.1818
416.8156	0.2
417.0205	0.183
417.2253	0.1751
417.4301	0.2012
417.6349	0.1884
417.8397	0.1953
418.0445	0.1833
418.2492	0.1848
418.454	0.1796
418.6587	0.2006
418.8634	0.1866
419.0681	0.1778
419.2728	0.1784
419.4775	0.182
419.6822	0.1864
419.8868	0.1779
420.0915	0.1678
420.2961	0.1771
420.5007	0.1836
420.7053	0.1801
420.9099	0.1842
421.1144	0.1799
421.319	0.172
421.5235	0.1776
421.728	0.1769
421.9325	0.1767
422.137	0.191
422.3415	0.1633
422.546	0.1757
422.7504	0.1813
422.9549	0.1796
423.1593	0.1611
423.3637	0.1789
423.5681	0.165
423.7725	0.1625
423.9769	0.1566
424.1812	0.1697
424.3856	0.1757
424.5899	0.1734
424.7942	0.162
424.9985	0.1749
425.2028	0.1719
425.4071	0.1888
425.6113	0.1637
425.8156	0.1671
426.0198	0.1723
426.224	0.1372
426.4282	0.1495
