Data from MonoPyChalIsomerACN10uM420nmA_Absorbance_15-09-58-434.txt Node
Date: Fri Jul 05 15:09:58 BST 2024
User: LASERRRRR
Spectrometer: FLMT03099
Trigger mode: 0
Integration Time (sec): 1.000000E-1
Scans to average: 1
Electric dark correction enabled: true
Nonlinearity correction enabled: false
Boxcar width: 0
XAxis mode: Wavelengths
Number of Pixels in Spectrum: 3648
>>>>>Begin Spectral Data<<<<<
179.3399	0.5323
179.5586	0.5323
179.7771	0.5323
179.9957	-0.0383
180.2143	0.0085
180.4329	-0.0211
180.6514	-0
180.8699	-0
181.0885	-0.2118
181.307	-0.0953
181.5255	-0.2331
181.744	-0.59
181.9625	-0
182.181	-0
182.3994	0.3088
182.6179	-0
182.8363	-0
183.0547	-0.4564
183.2732	-0.0466
183.4916	0.0309
183.71	0.0356
183.9284	0.2813
184.1467	-0.1311
184.3651	-0.0672
184.5835	-0.1048
184.8018	0.3326
185.0201	0.4134
185.2385	-0.0448
185.4568	0.3474
185.6751	-0.1214
185.8934	0.1689
186.1117	-0.0915
186.3299	0.0532
186.5482	0.0313
186.7664	-0.0243
186.9847	-0.0276
187.2029	0.0736
187.4211	0.1486
187.6393	0.2975
187.8575	-0.1107
188.0757	0.23
188.2939	0.0385
188.512	0.1381
188.7302	-0.0562
188.9483	-0.098
189.1665	0.1177
189.3846	-0.2021
189.6027	0.0948
189.8208	0.2415
190.0389	0.3385
190.257	0.1718
190.475	0.2553
190.6931	0.2989
190.9111	0.2934
191.1292	0.1406
191.3472	0.3366
191.5652	0.2234
191.7832	0.3436
192.0012	0.3691
192.2192	0.491
192.4371	0.5661
192.6551	0.169
192.873	0.5702
193.091	0.596
193.3089	0.4664
193.5268	0.4921
193.7447	0.3975
193.9626	0.5811
194.1805	0.658
194.3984	0.8938
194.6162	0.9174
194.8341	0.5123
195.0519	0.5142
195.2697	0.7881
195.4875	0.6209
195.7054	0.5545
195.9231	0.6129
196.1409	0.5791
196.3587	0.6204
196.5765	0.5218
196.7942	0.504
197.012	0.6338
197.2297	0.7286
197.4474	0.8165
197.6651	0.5838
197.8828	0.6639
198.1005	0.5003
198.3182	0.5676
198.5358	0.8401
198.7535	0.7529
198.9711	0.5943
199.1888	0.678
199.4064	0.6648
199.624	0.6777
199.8416	0.5302
200.0592	0.7236
200.2767	0.7739
200.4943	0.7977
200.7119	0.6901
200.9294	0.7734
201.1469	0.5593
201.3645	0.6165
201.582	0.59
201.7995	0.6753
202.017	0.6585
202.2344	0.5618
202.4519	0.6329
202.6694	0.6131
202.8868	0.6342
203.1042	0.6509
203.3217	0.8538
203.5391	0.7575
203.7565	0.6587
203.9739	0.5974
204.1913	0.5446
204.4086	0.7086
204.626	0.7642
204.8433	0.6088
205.0607	0.6095
205.278	0.6033
205.4953	0.6717
205.7126	0.7096
205.9299	0.8939
206.1472	0.7464
206.3644	0.684
206.5817	0.7266
206.7989	0.7469
207.0162	0.6321
207.2334	0.6857
207.4506	0.6467
207.6678	0.7284
207.885	0.7027
208.1022	0.7381
208.3194	0.705
208.5365	0.6511
208.7537	0.7072
208.9708	0.6296
209.1879	0.7133
209.405	0.6964
209.6222	0.6752
209.8392	0.6638
210.0563	0.6094
210.2734	0.6946
210.4905	0.6682
210.7075	0.6578
210.9245	0.5992
211.1416	0.6821
211.3586	0.6304
211.5756	0.5976
211.7926	0.6636
212.0096	0.5803
212.2265	0.591
212.4435	0.5452
212.6604	0.6152
212.8774	0.6016
213.0943	0.6207
213.3112	0.5344
213.5281	0.5132
213.745	0.5093
213.9619	0.5241
214.1788	0.5141
214.3956	0.4914
214.6125	0.4739
214.8293	0.4382
215.0461	0.4866
215.2629	0.4576
215.4798	0.4618
215.6965	0.428
215.9133	0.4615
216.1301	0.4188
216.3469	0.4549
216.5636	0.401
216.7803	0.3844
216.9971	0.4087
217.2138	0.3729
217.4305	0.4103
217.6472	0.3667
217.8639	0.3871
218.0805	0.347
218.2972	0.3182
218.5138	0.3257
218.7305	0.3174
218.9471	0.32
219.1637	0.2766
219.3803	0.2788
219.5969	0.3007
219.8135	0.2688
220.0301	0.2818
220.2466	0.2947
220.4632	0.2528
220.6797	0.2513
220.8962	0.2402
221.1127	0.2516
221.3292	0.2408
221.5457	0.2404
221.7622	0.2236
221.9787	0.2475
222.1951	0.2422
222.4116	0.2571
222.628	0.2459
222.8444	0.2489
223.0608	0.254
223.2772	0.2463
223.4936	0.2584
223.71	0.2547
223.9264	0.2622
224.1427	0.2406
224.3591	0.2405
224.5754	0.2614
224.7917	0.2561
225.008	0.2601
225.2243	0.2629
225.4406	0.2831
225.6569	0.2621
225.8732	0.2478
226.0894	0.274
226.3057	0.2351
226.5219	0.293
226.7381	0.2477
226.9543	0.2781
227.1705	0.2987
227.3867	0.2897
227.6029	0.2918
227.8191	0.3118
228.0352	0.2882
228.2513	0.321
228.4675	0.306
228.6836	0.2918
228.8997	0.2807
229.1158	0.312
229.3319	0.3142
229.548	0.2996
229.764	0.3258
229.9801	0.3146
230.1961	0.3149
230.4121	0.3271
230.6282	0.3358
230.8442	0.3113
231.0602	0.3559
231.2761	0.3522
231.4921	0.3392
231.7081	0.3489
231.924	0.3586
232.14	0.3809
232.3559	0.3354
232.5718	0.3551
232.7877	0.376
233.0036	0.3673
233.2195	0.3645
233.4353	0.3562
233.6512	0.3606
233.867	0.3561
234.0829	0.3807
234.2987	0.3493
234.5145	0.3747
234.7303	0.3755
234.9461	0.3938
235.1619	0.3739
235.3776	0.3655
235.5934	0.3779
235.8091	0.3726
236.0249	0.352
236.2406	0.386
236.4563	0.3869
236.672	0.3851
236.8877	0.3874
237.1034	0.3925
237.319	0.3812
237.5347	0.4045
237.7503	0.3907
237.966	0.4037
238.1816	0.3862
238.3972	0.4098
238.6128	0.3847
238.8284	0.4043
239.0439	0.4174
239.2595	0.4129
239.475	0.3985
239.6906	0.4108
239.9061	0.4097
240.1216	0.4111
240.3371	0.4097
240.5526	0.3955
240.7681	0.4103
240.9836	0.3917
241.199	0.411
241.4145	0.3843
241.6299	0.3927
241.8453	0.3823
242.0607	0.3937
242.2761	0.3842
242.4915	0.4028
242.7069	0.3788
242.9223	0.3936
243.1376	0.3729
243.353	0.3824
243.5683	0.3728
243.7836	0.367
243.9989	0.3624
244.2142	0.3465
244.4295	0.349
244.6448	0.3488
244.86	0.3319
245.0753	0.326
245.2905	0.3076
245.5057	0.3127
245.721	0.3091
245.9362	0.3071
246.1514	0.31
246.3665	0.2954
246.5817	0.2841
246.7969	0.2704
247.012	0.2834
247.2271	0.2582
247.4423	0.2621
247.6574	0.2621
247.8725	0.2697
248.0876	0.2468
248.3026	0.2439
248.5177	0.2484
248.7328	0.2388
248.9478	0.236
249.1628	0.2256
249.3779	0.2392
249.5929	0.2205
249.8079	0.2333
250.0228	0.2325
250.2378	0.2234
250.4528	0.2162
250.6677	0.202
250.8827	0.2115
251.0976	0.2094
251.3125	0.2159
251.5274	0.1901
251.7423	0.2073
251.9572	0.1945
252.172	0.2026
252.3869	0.2024
252.6017	0.1771
252.8166	0.181
253.0314	0.1893
253.2462	0.1848
253.461	0.1928
253.6758	0.1878
253.8906	0.1888
254.1053	0.1725
254.3201	0.1804
254.5348	0.1814
254.7496	0.1771
254.9643	0.1785
255.179	0.1821
255.3937	0.1781
255.6083	0.1782
255.823	0.1751
256.0377	0.1747
256.2523	0.1722
256.467	0.1585
256.6816	0.187
256.8962	0.1735
257.1108	0.1706
257.3254	0.1848
257.54	0.182
257.7545	0.1719
257.9691	0.1806
258.1836	0.1618
258.3981	0.1746
258.6127	0.1856
258.8272	0.167
259.0417	0.1763
259.2561	0.1636
259.4706	0.1681
259.6851	0.1753
259.8995	0.1872
260.114	0.1704
260.3284	0.1766
260.5428	0.1638
260.7572	0.1697
260.9716	0.1967
261.186	0.1667
261.4003	0.166
261.6147	0.1865
261.829	0.1764
262.0433	0.1711
262.2577	0.18
262.472	0.1771
262.6863	0.1729
262.9005	0.171
263.1148	0.1773
263.3291	0.1558
263.5433	0.1692
263.7576	0.1784
263.9718	0.1842
264.186	0.1646
264.4002	0.1711
264.6144	0.1641
264.8286	0.1919
265.0427	0.1696
265.2569	0.1661
265.471	0.1689
265.6851	0.1739
265.8993	0.1753
266.1134	0.1777
266.3275	0.1745
266.5415	0.1714
266.7556	0.1896
266.9697	0.1753
267.1837	0.1773
267.3978	0.1746
267.6118	0.189
267.8258	0.1854
268.0398	0.1658
268.2538	0.1797
268.4677	0.1874
268.6817	0.1802
268.8957	0.1804
269.1096	0.1747
269.3235	0.1844
269.5374	0.1704
269.7514	0.1722
269.9652	0.1736
270.1791	0.1741
270.393	0.1738
270.6068	0.1696
270.8207	0.1733
271.0345	0.1782
271.2483	0.1798
271.4622	0.1646
271.676	0.1831
271.8897	0.1697
272.1035	0.1716
272.3173	0.1708
272.531	0.1748
272.7448	0.1802
272.9585	0.1695
273.1722	0.1752
273.3859	0.1787
273.5996	0.1669
273.8133	0.1805
274.0269	0.1699
274.2406	0.1641
274.4542	0.1701
274.6679	0.1643
274.8815	0.1729
275.0951	0.1719
275.3087	0.1832
275.5223	0.1795
275.7358	0.1746
275.9494	0.1832
276.1629	0.1763
276.3765	0.1849
276.59	0.1732
276.8035	0.1782
277.017	0.1721
277.2305	0.1614
277.444	0.1809
277.6574	0.1718
277.8709	0.1775
278.0843	0.1671
278.2978	0.1896
278.5112	0.1759
278.7246	0.1816
278.938	0.1866
279.1513	0.1909
279.3647	0.1853
279.5781	0.1813
279.7914	0.1767
280.0047	0.1889
280.2181	0.1718
280.4314	0.1748
280.6447	0.19
280.8579	0.1722
281.0712	0.183
281.2845	0.1815
281.4977	0.1871
281.711	0.1607
281.9242	0.1814
282.1374	0.1943
282.3506	0.1701
282.5638	0.1814
282.7769	0.183
282.9901	0.1709
283.2033	0.1841
283.4164	0.1908
283.6295	0.1673
283.8426	0.1729
284.0557	0.1754
284.2688	0.1799
284.4819	0.1739
284.695	0.1718
284.908	0.1849
285.1211	0.1643
285.3341	0.1766
285.5471	0.177
285.7601	0.1654
285.9731	0.161
286.1861	0.1659
286.3991	0.1733
286.612	0.1709
286.825	0.1693
287.0379	0.1752
287.2508	0.1659
287.4637	0.1636
287.6766	0.1559
287.8895	0.1705
288.1024	0.1794
288.3152	0.1637
288.5281	0.1477
288.7409	0.1625
288.9538	0.1563
289.1666	0.155
289.3794	0.1614
289.5922	0.1487
289.8049	0.163
290.0177	0.1553
290.2304	0.147
290.4432	0.1611
290.6559	0.1536
290.8686	0.1669
291.0813	0.1601
291.294	0.1525
291.5067	0.1703
291.7194	0.1475
291.932	0.1678
292.1447	0.1507
292.3573	0.1335
292.5699	0.157
292.7825	0.1609
292.9951	0.153
293.2077	0.1462
293.4203	0.1534
293.6328	0.1448
293.8454	0.1493
294.0579	0.1415
294.2704	0.1362
294.4829	0.1414
294.6954	0.1435
294.9079	0.1508
295.1204	0.1489
295.3328	0.1431
295.5453	0.1389
295.7577	0.1413
295.9701	0.1299
296.1825	0.1552
296.3949	0.1496
296.6073	0.1382
296.8197	0.1369
297.0321	0.1503
297.2444	0.133
297.4567	0.1549
297.6691	0.1469
297.8814	0.1393
298.0937	0.1503
298.306	0.1531
298.5182	0.1532
298.7305	0.1458
298.9428	0.1327
299.155	0.1465
299.3672	0.1389
299.5794	0.1354
299.7916	0.1396
300.0038	0.1433
300.216	0.1459
300.4282	0.1423
300.6403	0.1437
300.8525	0.134
301.0646	0.1323
301.2767	0.1391
301.4888	0.1506
301.7009	0.1388
301.913	0.1509
302.125	0.1558
302.3371	0.1392
302.5491	0.144
302.7612	0.153
302.9732	0.1452
303.1852	0.1439
303.3972	0.1524
303.6092	0.1437
303.8211	0.1375
304.0331	0.1368
304.245	0.1312
304.457	0.1353
304.6689	0.1351
304.8808	0.1518
305.0927	0.1365
305.3046	0.1368
305.5164	0.1415
305.7283	0.1343
305.9401	0.1406
306.152	0.1362
306.3638	0.1396
306.5756	0.134
306.7874	0.1376
306.9992	0.1349
307.2109	0.1357
307.4227	0.1153
307.6344	0.1303
307.8462	0.1308
308.0579	0.1337
308.2696	0.1236
308.4813	0.1326
308.693	0.1267
308.9046	0.1335
309.1163	0.1265
309.328	0.1243
309.5396	0.1255
309.7512	0.1254
309.9628	0.1241
310.1744	0.1191
310.386	0.1239
310.5976	0.1253
310.8091	0.1256
311.0207	0.1224
311.2322	0.1243
311.4437	0.1176
311.6552	0.1119
311.8667	0.1244
312.0782	0.1034
312.2897	0.1123
312.5012	0.1051
312.7126	0.1148
312.924	0.1039
313.1355	0.125
313.3469	0.1278
313.5583	0.12
313.7696	0.1224
313.981	0.1234
314.1924	0.1195
314.4037	0.1217
314.6151	0.1318
314.8264	0.1104
315.0377	0.1195
315.249	0.1105
315.4603	0.1349
315.6716	0.1162
315.8828	0.1068
316.0941	0.1132
316.3053	0.1113
316.5165	0.1133
316.7277	0.1157
316.9389	0.1296
317.1501	0.1133
317.3613	0.1148
317.5724	0.1009
317.7836	0.1111
317.9947	0.1086
318.2058	0.1121
318.417	0.1079
318.6281	0.1057
318.8391	0.109
319.0502	0.1145
319.2613	0.1194
319.4723	0.113
319.6834	0.1165
319.8944	0.1118
320.1054	0.1135
320.3164	0.135
320.5274	0.1175
320.7383	0.1188
320.9493	0.1268
321.1602	0.13
321.3712	0.1031
321.5821	0.1276
321.793	0.1314
322.0039	0.1215
322.2148	0.1168
322.4257	0.1188
322.6365	0.1353
322.8474	0.1268
323.0582	0.1194
323.269	0.1359
323.4798	0.1273
323.6906	0.1313
323.9014	0.117
324.1122	0.117
324.3229	0.1182
324.5337	0.1221
324.7444	0.1128
324.9551	0.1364
325.1658	0.1204
325.3765	0.1335
325.5872	0.1292
325.7979	0.1203
326.0085	0.1249
326.2192	0.1153
326.4298	0.1305
326.6404	0.1242
326.851	0.1086
327.0616	0.1172
327.2722	0.128
327.4828	0.1296
327.6933	0.1216
327.9039	0.1306
328.1144	0.1357
328.3249	0.133
328.5354	0.1124
328.7459	0.1281
328.9564	0.1256
329.1669	0.131
329.3773	0.1355
329.5878	0.1262
329.7982	0.1334
330.0086	0.1326
330.219	0.1322
330.4294	0.1235
330.6398	0.1267
330.8502	0.1247
331.0605	0.1123
331.2708	0.1336
331.4812	0.1366
331.6915	0.1406
331.9018	0.1355
332.1121	0.1249
332.3224	0.1345
332.5326	0.1384
332.7429	0.1283
332.9531	0.1559
333.1633	0.1401
333.3735	0.1387
333.5837	0.1232
333.7939	0.1253
334.0041	0.1341
334.2143	0.1345
334.4244	0.1373
334.6346	0.1124
334.8447	0.141
335.0548	0.1257
335.2649	0.1206
335.475	0.1414
335.685	0.1236
335.8951	0.1331
336.1051	0.1342
336.3152	0.1332
336.5252	0.1316
336.7352	0.1399
336.9452	0.1301
337.1552	0.1329
337.3652	0.1262
337.5751	0.1285
337.7851	0.1226
337.995	0.1249
338.2049	0.1402
338.4148	0.1364
338.6247	0.133
338.8346	0.1289
339.0445	0.1329
339.2543	0.1393
339.4642	0.1357
339.674	0.1361
339.8838	0.133
340.0936	0.134
340.3034	0.1413
340.5132	0.1394
340.7229	0.1361
340.9327	0.1342
341.1424	0.1336
341.3522	0.1495
341.5619	0.1428
341.7716	0.1397
341.9813	0.1519
342.1909	0.138
342.4006	0.1521
342.6102	0.1452
342.8199	0.1414
343.0295	0.1543
343.2391	0.153
343.4487	0.1534
343.6583	0.1416
343.8679	0.1451
344.0774	0.1513
344.287	0.1578
344.4965	0.1352
344.706	0.1315
344.9155	0.1524
345.125	0.1562
345.3345	0.1432
345.544	0.1432
345.7534	0.1477
345.9629	0.1438
346.1723	0.1458
346.3817	0.1445
346.5911	0.1469
346.8005	0.1559
347.0099	0.1428
347.2193	0.1539
347.4286	0.1489
347.638	0.1587
347.8473	0.1594
348.0566	0.1518
348.2659	0.1488
348.4752	0.1555
348.6845	0.1413
348.8937	0.1435
349.103	0.1669
349.3122	0.1524
349.5214	0.1328
349.7306	0.1502
349.9398	0.1482
350.149	0.1486
350.3582	0.151
350.5674	0.1508
350.7765	0.1606
350.9856	0.1401
351.1948	0.1699
351.4039	0.1353
351.613	0.1457
351.822	0.1594
352.0311	0.1562
352.2402	0.1477
352.4492	0.1635
352.6582	0.1512
352.8672	0.1487
353.0762	0.1383
353.2852	0.159
353.4942	0.1626
353.7032	0.1525
353.9121	0.147
354.1211	0.1723
354.33	0.1608
354.5389	0.1564
354.7478	0.1545
354.9567	0.1604
355.1655	0.1468
355.3744	0.165
355.5833	0.1683
355.7921	0.1698
356.0009	0.1585
356.2097	0.1785
356.4185	0.1734
356.6273	0.1661
356.8361	0.171
357.0448	0.1599
357.2536	0.1429
357.4623	0.1601
357.671	0.1651
357.8797	0.1667
358.0884	0.1561
358.2971	0.1785
358.5057	0.1675
358.7144	0.1649
358.923	0.1799
359.1316	0.1792
359.3402	0.164
359.5488	0.1651
359.7574	0.1501
359.966	0.1876
360.1746	0.1718
360.3831	0.175
360.5916	0.1619
360.8002	0.1656
361.0087	0.1732
361.2172	0.1796
361.4256	0.1658
361.6341	0.1933
361.8426	0.178
362.051	0.1748
362.2594	0.1749
362.4678	0.1764
362.6762	0.1933
362.8846	0.186
363.093	0.1685
363.3014	0.1654
363.5097	0.1664
363.718	0.1719
363.9264	0.1713
364.1347	0.1679
364.343	0.1854
364.5513	0.1697
364.7595	0.1775
364.9678	0.1949
365.176	0.1785
365.3842	0.1668
365.5925	0.1737
365.8007	0.1667
366.0089	0.1785
366.217	0.1679
366.4252	0.1943
366.6333	0.1926
366.8415	0.1894
367.0496	0.176
367.2577	0.1852
367.4658	0.1866
367.6739	0.1876
367.882	0.1802
368.09	0.1711
368.2981	0.1837
368.5061	0.1958
368.7141	0.182
368.9221	0.187
369.1301	0.1918
369.3381	0.174
369.5461	0.1842
369.754	0.1774
369.962	0.1877
370.1699	0.1939
370.3778	0.1937
370.5857	0.1723
370.7936	0.1769
371.0015	0.1782
371.2093	0.189
371.4172	0.1857
371.625	0.1813
371.8328	0.1812
372.0406	0.1696
372.2484	0.1889
372.4562	0.1891
372.664	0.1849
372.8717	0.2212
373.0795	0.1623
373.2872	0.1896
373.4949	0.2006
373.7026	0.1851
373.9103	0.1787
374.118	0.1835
374.3256	0.1912
374.5333	0.1817
374.7409	0.1783
374.9485	0.2018
375.1561	0.1888
375.3637	0.1903
375.5713	0.2051
375.7789	0.178
375.9864	0.1948
376.194	0.1815
376.4015	0.2124
376.609	0.2024
376.8165	0.1864
377.024	0.1834
377.2315	0.1797
377.4389	0.1969
377.6464	0.209
377.8538	0.1912
378.0612	0.1861
378.2686	0.1913
378.476	0.1954
378.6834	0.1917
378.8908	0.1956
379.0981	0.2012
379.3055	0.1968
379.5128	0.2009
379.7201	0.2027
379.9274	0.1885
380.1347	0.1944
380.342	0.2093
380.5492	0.1917
380.7565	0.2115
380.9637	0.1974
381.1709	0.1823
381.3781	0.1982
381.5853	0.2001
381.7925	0.1927
381.9997	0.2153
382.2068	0.2063
382.4139	0.1976
382.6211	0.1777
382.8282	0.1906
383.0353	0.1996
383.2424	0.186
383.4494	0.2228
383.6565	0.1869
383.8635	0.2026
384.0706	0.1838
384.2776	0.1986
384.4846	0.1646
384.6916	0.1965
384.8986	0.2074
385.1055	0.1986
385.3125	0.1919
385.5194	0.18
385.7263	0.1903
385.9333	0.1871
386.1402	0.1925
386.347	0.1741
386.5539	0.1874
386.7608	0.1986
386.9676	0.1862
387.1744	0.1765
387.3813	0.1717
387.5881	0.1836
387.7948	0.1813
388.0016	0.1922
388.2084	0.1727
388.4151	0.1834
388.6219	0.1938
388.8286	0.1913
389.0353	0.1891
389.242	0.1779
389.4487	0.178
389.6553	0.1821
389.862	0.1739
390.0686	0.187
390.2753	0.1925
390.4819	0.1841
390.6885	0.1748
390.8951	0.1784
391.1016	0.1691
391.3082	0.1754
391.5147	0.1764
391.7213	0.1756
391.9278	0.1678
392.1343	0.1784
392.3408	0.1744
392.5473	0.1773
392.7537	0.1689
392.9602	0.1698
393.1666	0.1564
393.373	0.1641
393.5794	0.1674
393.7858	0.1744
393.9922	0.1547
394.1986	0.1629
394.4049	0.1594
394.6113	0.1553
394.8176	0.1578
395.0239	0.1599
395.2302	0.1585
395.4365	0.154
395.6428	0.156
395.8491	0.1413
396.0553	0.1662
396.2615	0.1577
396.4678	0.1429
396.674	0.1343
396.8802	0.1493
397.0863	0.1631
397.2925	0.1524
397.4987	0.1362
397.7048	0.1459
397.9109	0.1474
398.117	0.1505
398.3231	0.1459
398.5292	0.1621
398.7353	0.1601
398.9413	0.1432
399.1474	0.1518
399.3534	0.1487
399.5594	0.1293
399.7654	0.156
399.9714	0.1596
400.1774	0.1485
400.3833	0.1287
400.5893	0.1613
400.7952	0.1582
401.0011	0.1587
401.207	0.1464
401.4129	0.153
401.6188	0.1545
401.8247	0.1643
402.0305	0.1502
402.2364	0.1599
402.4422	0.1557
402.648	0.139
402.8538	0.1657
403.0596	0.1393
403.2654	0.1606
403.4711	0.1392
403.6768	0.1544
403.8826	0.168
404.0883	0.1523
404.294	0.1609
404.4997	0.152
404.7054	0.1654
404.911	0.1524
405.1167	0.1389
405.3223	0.1589
405.5279	0.1545
405.7335	0.1518
405.9391	0.1577
406.1447	0.1378
406.3502	0.1606
406.5558	0.1436
406.7613	0.1527
406.9668	0.1424
407.1724	0.148
407.3778	0.1446
407.5833	0.1506
407.7888	0.1326
407.9942	0.1431
408.1997	0.1348
408.4051	0.1428
408.6105	0.1456
408.8159	0.1256
409.0213	0.1395
409.2267	0.151
409.432	0.1269
409.6374	0.136
409.8427	0.1306
410.048	0.1474
410.2533	0.1318
410.4586	0.1311
410.6639	0.1311
410.8691	0.1277
411.0744	0.1377
411.2796	0.1279
411.4848	0.1394
411.69	0.1311
411.8952	0.1643
412.1004	0.1263
412.3056	0.1436
412.5107	0.1372
412.7158	0.1422
412.921	0.1451
413.1261	0.1485
413.3312	0.1297
413.5362	0.1355
413.7413	0.1399
413.9464	0.1271
414.1514	0.1366
414.3564	0.1345
414.5614	0.1238
414.7664	0.1316
414.9714	0.1432
415.1764	0.1228
415.3813	0.1357
415.5863	0.1422
415.7912	0.1436
415.9961	0.1374
416.201	0.1464
416.4059	0.1413
416.6108	0.1218
416.8156	0.1314
417.0205	0.1173
417.2253	0.1182
417.4301	0.1311
417.6349	0.1163
417.8397	0.12
418.0445	0.1286
418.2492	0.1304
418.454	0.1326
418.6587	0.1309
418.8634	0.1361
419.0681	0.1131
419.2728	0.1163
419.4775	0.1181
419.6822	0.1284
419.8868	0.1076
420.0915	0.1211
420.2961	0.1086
420.5007	0.1209
420.7053	0.1249
420.9099	0.1303
421.1144	0.1333
421.319	0.1136
421.5235	0.118
421.728	0.1107
421.9325	0.1326
422.137	0.1385
422.3415	0.1283
422.546	0.1201
422.7504	0.1158
422.9549	0.1278
423.1593	0.1202
423.3637	0.1312
423.5681	0.114
423.7725	0.1029
423.9769	0.1015
424.1812	0.1097
424.3856	0.1036
424.5899	0.1208
424.7942	0.1092
424.9985	0.1123
425.2028	0.1028
425.4071	0.1254
425.6113	0.1117
425.8156	0.1294
426.0198	0.1194
426.224	0.0887
426.4282	0.0861
