Data from MonoPyChalIsomerACN10uM420nmA_Absorbance_15-09-50-735.txt Node
Date: Fri Jul 05 15:09:50 BST 2024
User: LASERRRRR
Spectrometer: FLMT03099
Trigger mode: 0
Integration Time (sec): 1.000000E-1
Scans to average: 1
Electric dark correction enabled: true
Nonlinearity correction enabled: false
Boxcar width: 0
XAxis mode: Wavelengths
Number of Pixels in Spectrum: 3648
>>>>>Begin Spectral Data<<<<<
179.3399	-0.2839
179.5586	-0.2839
179.7771	-0.2839
179.9957	0.1389
180.2143	-0
180.4329	-0.3499
180.6514	-0
180.8699	-0
181.0885	-0.0525
181.307	0.2578
181.5255	-0
181.744	-0.301
181.9625	-0
182.181	-0.9031
182.3994	-0.1755
182.6179	-0
182.8363	1.7054
183.0547	-0.1915
183.2732	0.0979
183.4916	0.1036
183.71	0.0806
183.9284	0.0696
184.1467	-0.0421
184.3651	-0.1485
184.5835	-0.1763
184.8018	-0.0391
185.0201	-0.0056
185.2385	-0.1317
185.4568	-0.0325
185.6751	0.133
185.8934	0.1276
186.1117	0.0107
186.3299	-0.0219
186.5482	0.1342
186.7664	-0.0709
186.9847	-0.2183
187.2029	-0.0165
187.4211	0.0427
187.6393	-0.0553
187.8575	-0.1583
188.0757	0.042
188.2939	0.0476
188.512	-0.0322
188.7302	-0.1312
188.9483	-0.082
189.1665	0.1922
189.3846	-0.3136
189.6027	-0.0524
189.8208	0.1112
190.0389	0.1155
190.257	0.1029
190.475	0.0945
190.6931	0.2994
190.9111	0.1883
191.1292	0.101
191.3472	0.2961
191.5652	0.3133
191.7832	0.1242
192.0012	0.3901
192.2192	0.3213
192.4371	0.5218
192.6551	0.228
192.873	0.4475
193.091	0.2299
193.3089	0.4732
193.5268	0.4393
193.7447	0.7201
193.9626	0.4424
194.1805	0.6149
194.3984	0.7337
194.6162	0.5633
194.8341	0.5165
195.0519	0.4379
195.2697	0.6724
195.4875	0.7966
195.7054	0.6818
195.9231	0.5928
196.1409	0.5513
196.3587	0.5497
196.5765	0.5565
196.7942	0.5699
197.012	0.416
197.2297	0.5826
197.4474	0.5867
197.6651	0.4736
197.8828	0.5214
198.1005	0.6922
198.3182	0.4832
198.5358	1.0006
198.7535	0.6916
198.9711	0.5277
199.1888	0.5757
199.4064	0.6297
199.624	0.6665
199.8416	0.5845
200.0592	0.5898
200.2767	0.6396
200.4943	0.5874
200.7119	0.7333
200.9294	0.7065
201.1469	0.5168
201.3645	0.6096
201.582	0.5781
201.7995	0.6256
202.017	0.6071
202.2344	0.564
202.4519	0.6931
202.6694	0.5852
202.8868	0.6834
203.1042	0.7554
203.3217	0.6964
203.5391	0.6517
203.7565	0.5358
203.9739	0.6513
204.1913	0.5888
204.4086	0.611
204.626	0.7158
204.8433	0.5924
205.0607	0.6437
205.278	0.6558
205.4953	0.619
205.7126	0.5563
205.9299	0.6905
206.1472	0.6795
206.3644	0.5783
206.5817	0.6962
206.7989	0.6909
207.0162	0.658
207.2334	0.6426
207.4506	0.6336
207.6678	0.6594
207.885	0.6197
208.1022	0.6456
208.3194	0.6312
208.5365	0.6315
208.7537	0.7073
208.9708	0.5747
209.1879	0.62
209.405	0.6854
209.6222	0.7499
209.8392	0.594
210.0563	0.641
210.2734	0.6701
210.4905	0.6638
210.7075	0.658
210.9245	0.5703
211.1416	0.6681
211.3586	0.6185
211.5756	0.5798
211.7926	0.5937
212.0096	0.5582
212.2265	0.5429
212.4435	0.5494
212.6604	0.6088
212.8774	0.5674
213.0943	0.5356
213.3112	0.5516
213.5281	0.5017
213.745	0.5592
213.9619	0.5139
214.1788	0.5406
214.3956	0.4529
214.6125	0.4349
214.8293	0.4455
215.0461	0.452
215.2629	0.4584
215.4798	0.4733
215.6965	0.4274
215.9133	0.444
216.1301	0.4383
216.3469	0.4516
216.5636	0.4555
216.7803	0.3952
216.9971	0.4198
217.2138	0.3867
217.4305	0.3589
217.6472	0.3825
217.8639	0.3834
218.0805	0.3379
218.2972	0.3142
218.5138	0.3057
218.7305	0.3201
218.9471	0.3107
219.1637	0.294
219.3803	0.2677
219.5969	0.2959
219.8135	0.2583
220.0301	0.2856
220.2466	0.2856
220.4632	0.2475
220.6797	0.2426
220.8962	0.2481
221.1127	0.2506
221.3292	0.2522
221.5457	0.2564
221.7622	0.2485
221.9787	0.2462
222.1951	0.2514
222.4116	0.2549
222.628	0.2453
222.8444	0.2542
223.0608	0.2596
223.2772	0.2533
223.4936	0.2533
223.71	0.2513
223.9264	0.2644
224.1427	0.2487
224.3591	0.2453
224.5754	0.2803
224.7917	0.2541
225.008	0.2714
225.2243	0.246
225.4406	0.2897
225.6569	0.2781
225.8732	0.2772
226.0894	0.2726
226.3057	0.2497
226.5219	0.2745
226.7381	0.2725
226.9543	0.2891
227.1705	0.2988
227.3867	0.2883
227.6029	0.2966
227.8191	0.3182
228.0352	0.3083
228.2513	0.3119
228.4675	0.3189
228.6836	0.3165
228.8997	0.2962
229.1158	0.3178
229.3319	0.3199
229.548	0.3348
229.764	0.3055
229.9801	0.3261
230.1961	0.3271
230.4121	0.3266
230.6282	0.3251
230.8442	0.3199
231.0602	0.3579
231.2761	0.3355
231.4921	0.3414
231.7081	0.3453
231.924	0.3432
232.14	0.3685
232.3559	0.3362
232.5718	0.3644
232.7877	0.3461
233.0036	0.356
233.2195	0.3582
233.4353	0.3662
233.6512	0.3637
233.867	0.359
234.0829	0.3751
234.2987	0.3522
234.5145	0.3876
234.7303	0.3506
234.9461	0.3916
235.1619	0.3826
235.3776	0.3707
235.5934	0.3911
235.8091	0.3496
236.0249	0.3871
236.2406	0.3831
236.4563	0.3905
236.672	0.3987
236.8877	0.3866
237.1034	0.3983
237.319	0.3867
237.5347	0.4069
237.7503	0.3975
237.966	0.4114
238.1816	0.4038
238.3972	0.4068
238.6128	0.4031
238.8284	0.3869
239.0439	0.405
239.2595	0.4129
239.475	0.4226
239.6906	0.4185
239.9061	0.4059
240.1216	0.3975
240.3371	0.4182
240.5526	0.4041
240.7681	0.3966
240.9836	0.3966
241.199	0.4243
241.4145	0.3873
241.6299	0.386
241.8453	0.3788
242.0607	0.3932
242.2761	0.3605
242.4915	0.3645
242.7069	0.3691
242.9223	0.3545
243.1376	0.3621
243.353	0.3535
243.5683	0.359
243.7836	0.3196
243.9989	0.3366
244.2142	0.3249
244.4295	0.322
244.6448	0.3141
244.86	0.3165
245.0753	0.288
245.2905	0.2904
245.5057	0.2687
245.721	0.2794
245.9362	0.2836
246.1514	0.2858
246.3665	0.2558
246.5817	0.2637
246.7969	0.2479
247.012	0.247
247.2271	0.2432
247.4423	0.2526
247.6574	0.2572
247.8725	0.236
248.0876	0.2204
248.3026	0.2218
248.5177	0.221
248.7328	0.2118
248.9478	0.2112
249.1628	0.2231
249.3779	0.2165
249.5929	0.2127
249.8079	0.2167
250.0228	0.1984
250.2378	0.2204
250.4528	0.2106
250.6677	0.1905
250.8827	0.1935
251.0976	0.1996
251.3125	0.1907
251.5274	0.177
251.7423	0.1794
251.9572	0.1854
252.172	0.184
252.3869	0.1899
252.6017	0.1778
252.8166	0.1779
253.0314	0.1709
253.2462	0.1747
253.461	0.1741
253.6758	0.1854
253.8906	0.1863
254.1053	0.1706
254.3201	0.1757
254.5348	0.1917
254.7496	0.182
254.9643	0.166
255.179	0.1786
255.3937	0.1696
255.6083	0.1748
255.823	0.1672
256.0377	0.1601
256.2523	0.1741
256.467	0.1692
256.6816	0.1815
256.8962	0.1635
257.1108	0.1675
257.3254	0.1873
257.54	0.1582
257.7545	0.1721
257.9691	0.1762
258.1836	0.1687
258.3981	0.1861
258.6127	0.1729
258.8272	0.1682
259.0417	0.164
259.2561	0.1674
259.4706	0.1672
259.6851	0.1791
259.8995	0.182
260.114	0.1715
260.3284	0.1805
260.5428	0.1628
260.7572	0.1697
260.9716	0.178
261.186	0.1578
261.4003	0.1684
261.6147	0.1673
261.829	0.1631
262.0433	0.1729
262.2577	0.1583
262.472	0.1681
262.6863	0.172
262.9005	0.1614
263.1148	0.166
263.3291	0.1433
263.5433	0.1778
263.7576	0.1679
263.9718	0.163
264.186	0.1735
264.4002	0.1612
264.6144	0.1699
264.8286	0.177
265.0427	0.1689
265.2569	0.1693
265.471	0.1464
265.6851	0.1555
265.8993	0.1653
266.1134	0.1549
266.3275	0.1547
266.5415	0.1648
266.7556	0.1808
266.9697	0.1606
267.1837	0.1596
267.3978	0.1696
267.6118	0.1797
267.8258	0.1788
268.0398	0.1532
268.2538	0.1718
268.4677	0.1771
268.6817	0.1582
268.8957	0.1601
269.1096	0.1767
269.3235	0.1792
269.5374	0.1531
269.7514	0.1571
269.9652	0.1533
270.1791	0.1537
270.393	0.1409
270.6068	0.1661
270.8207	0.1601
271.0345	0.1527
271.2483	0.159
271.4622	0.1551
271.676	0.1583
271.8897	0.138
272.1035	0.1505
272.3173	0.1462
272.531	0.1583
272.7448	0.153
272.9585	0.1399
273.1722	0.1485
273.3859	0.1508
273.5996	0.1495
273.8133	0.152
274.0269	0.1482
274.2406	0.1466
274.4542	0.1423
274.6679	0.1307
274.8815	0.1466
275.0951	0.1553
275.3087	0.1578
275.5223	0.1548
275.7358	0.1418
275.9494	0.1449
276.1629	0.1434
276.3765	0.1471
276.59	0.1555
276.8035	0.1525
277.017	0.1456
277.2305	0.1381
277.444	0.1612
277.6574	0.1507
277.8709	0.155
278.0843	0.1443
278.2978	0.1492
278.5112	0.1421
278.7246	0.1446
278.938	0.1477
279.1513	0.1574
279.3647	0.1568
279.5781	0.1488
279.7914	0.1559
280.0047	0.1629
280.2181	0.1553
280.4314	0.1602
280.6447	0.1555
280.8579	0.1563
281.0712	0.1558
281.2845	0.1566
281.4977	0.1583
281.711	0.1463
281.9242	0.1469
282.1374	0.1599
282.3506	0.1565
282.5638	0.1606
282.7769	0.1625
282.9901	0.1432
283.2033	0.1638
283.4164	0.1642
283.6295	0.1475
283.8426	0.152
284.0557	0.1597
284.2688	0.1634
284.4819	0.1581
284.695	0.1576
284.908	0.1614
285.1211	0.1549
285.3341	0.1685
285.5471	0.1654
285.7601	0.156
285.9731	0.1645
286.1861	0.1579
286.3991	0.1742
286.612	0.1674
286.825	0.1663
287.0379	0.1694
287.2508	0.1667
287.4637	0.1661
287.6766	0.1621
287.8895	0.1612
288.1024	0.179
288.3152	0.165
288.5281	0.156
288.7409	0.173
288.9538	0.1625
289.1666	0.1679
289.3794	0.1623
289.5922	0.1583
289.8049	0.1616
290.0177	0.1613
290.2304	0.1627
290.4432	0.1743
290.6559	0.1669
290.8686	0.1636
291.0813	0.1701
291.294	0.1769
291.5067	0.1794
291.7194	0.1672
291.932	0.1799
292.1447	0.1623
292.3573	0.16
292.5699	0.1625
292.7825	0.1662
292.9951	0.1689
293.2077	0.1556
293.4203	0.1792
293.6328	0.1573
293.8454	0.1582
294.0579	0.1618
294.2704	0.1609
294.4829	0.1597
294.6954	0.1628
294.9079	0.1617
295.1204	0.172
295.3328	0.1616
295.5453	0.1689
295.7577	0.1582
295.9701	0.1537
296.1825	0.1651
296.3949	0.1631
296.6073	0.1566
296.8197	0.1523
297.0321	0.1688
297.2444	0.1623
297.4567	0.159
297.6691	0.1678
297.8814	0.1576
298.0937	0.1698
298.306	0.1716
298.5182	0.166
298.7305	0.1607
298.9428	0.1549
299.155	0.16
299.3672	0.1598
299.5794	0.1624
299.7916	0.1671
300.0038	0.1723
300.216	0.1707
300.4282	0.167
300.6403	0.1596
300.8525	0.1708
301.0646	0.1655
301.2767	0.1565
301.4888	0.1546
301.7009	0.1691
301.913	0.1659
302.125	0.1654
302.3371	0.1591
302.5491	0.1689
302.7612	0.1709
302.9732	0.1677
303.1852	0.171
303.3972	0.1578
303.6092	0.1537
303.8211	0.1561
304.0331	0.1562
304.245	0.1545
304.457	0.1534
304.6689	0.1578
304.8808	0.1741
305.0927	0.1509
305.3046	0.1516
305.5164	0.1621
305.7283	0.1551
305.9401	0.1563
306.152	0.1527
306.3638	0.149
306.5756	0.1509
306.7874	0.1476
306.9992	0.1561
307.2109	0.1339
307.4227	0.119
307.6344	0.1409
307.8462	0.1359
308.0579	0.1377
308.2696	0.1326
308.4813	0.1285
308.693	0.1241
308.9046	0.1413
309.1163	0.1353
309.328	0.1331
309.5396	0.1294
309.7512	0.1188
309.9628	0.1301
310.1744	0.1246
310.386	0.1184
310.5976	0.1262
310.8091	0.119
311.0207	0.1127
311.2322	0.1172
311.4437	0.1169
311.6552	0.1078
311.8667	0.116
312.0782	0.1044
312.2897	0.1065
312.5012	0.1096
312.7126	0.1049
312.924	0.0991
313.1355	0.1128
313.3469	0.1143
313.5583	0.1032
313.7696	0.1066
313.981	0.1058
314.1924	0.0929
314.4037	0.1022
314.6151	0.1079
314.8264	0.0911
315.0377	0.108
315.249	0.1065
315.4603	0.1041
315.6716	0.1068
315.8828	0.0901
316.0941	0.1
316.3053	0.094
316.5165	0.0973
316.7277	0.1062
316.9389	0.0998
317.1501	0.099
317.3613	0.1014
317.5724	0.0877
317.7836	0.0938
317.9947	0.0931
318.2058	0.099
318.417	0.0878
318.6281	0.093
318.8391	0.1016
319.0502	0.0978
319.2613	0.0964
319.4723	0.1058
319.6834	0.1035
319.8944	0.0848
320.1054	0.0993
320.3164	0.0961
320.5274	0.1034
320.7383	0.0942
320.9493	0.097
321.1602	0.1107
321.3712	0.0906
321.5821	0.1044
321.793	0.1072
322.0039	0.0974
322.2148	0.1034
322.4257	0.1072
322.6365	0.1107
322.8474	0.099
323.0582	0.0962
323.269	0.0949
323.4798	0.1171
323.6906	0.0983
323.9014	0.111
324.1122	0.0981
324.3229	0.1062
324.5337	0.0937
324.7444	0.0905
324.9551	0.1269
325.1658	0.1099
325.3765	0.112
325.5872	0.1054
325.7979	0.1023
326.0085	0.1092
326.2192	0.1003
326.4298	0.1145
326.6404	0.1031
326.851	0.0931
327.0616	0.1001
327.2722	0.108
327.4828	0.1073
327.6933	0.1011
327.9039	0.1061
328.1144	0.1156
328.3249	0.1083
328.5354	0.0992
328.7459	0.0911
328.9564	0.0985
329.1669	0.1001
329.3773	0.1054
329.5878	0.107
329.7982	0.0982
330.0086	0.1052
330.219	0.1095
330.4294	0.1098
330.6398	0.1043
330.8502	0.1033
331.0605	0.1061
331.2708	0.1146
331.4812	0.1085
331.6915	0.1164
331.9018	0.0992
332.1121	0.1032
332.3224	0.1112
332.5326	0.1115
332.7429	0.1103
332.9531	0.1175
333.1633	0.1029
333.3735	0.1038
333.5837	0.1116
333.7939	0.1038
334.0041	0.1143
334.2143	0.1149
334.4244	0.1097
334.6346	0.0888
334.8447	0.1095
335.0548	0.1052
335.2649	0.1031
335.475	0.1144
335.685	0.1019
335.8951	0.121
336.1051	0.1131
336.3152	0.1047
336.5252	0.1129
336.7352	0.1125
336.9452	0.1118
337.1552	0.1293
337.3652	0.1074
337.5751	0.1154
337.7851	0.116
337.995	0.0931
338.2049	0.1134
338.4148	0.1084
338.6247	0.1178
338.8346	0.11
339.0445	0.1141
339.2543	0.1122
339.4642	0.107
339.674	0.1002
339.8838	0.1141
340.0936	0.1181
340.3034	0.1176
340.5132	0.1195
340.7229	0.114
340.9327	0.1183
341.1424	0.1145
341.3522	0.1288
341.5619	0.1284
341.7716	0.1135
341.9813	0.1252
342.1909	0.1175
342.4006	0.1179
342.6102	0.1242
342.8199	0.1215
343.0295	0.1288
343.2391	0.1295
343.4487	0.1169
343.6583	0.1177
343.8679	0.1194
344.0774	0.1308
344.287	0.1296
344.4965	0.1197
344.706	0.1249
344.9155	0.1346
345.125	0.1338
345.3345	0.136
345.544	0.1144
345.7534	0.127
345.9629	0.1205
346.1723	0.1359
346.3817	0.1175
346.5911	0.1331
346.8005	0.1368
347.0099	0.1324
347.2193	0.1318
347.4286	0.1253
347.638	0.1346
347.8473	0.1313
348.0566	0.1204
348.2659	0.1281
348.4752	0.1366
348.6845	0.1239
348.8937	0.1298
349.103	0.1343
349.3122	0.1307
349.5214	0.1344
349.7306	0.1327
349.9398	0.1427
350.149	0.1462
350.3582	0.1325
350.5674	0.1502
350.7765	0.1294
350.9856	0.1347
351.1948	0.1522
351.4039	0.1239
351.613	0.122
351.822	0.142
352.0311	0.1643
352.2402	0.1397
352.4492	0.1402
352.6582	0.1515
352.8672	0.142
353.0762	0.1489
353.2852	0.1451
353.4942	0.1336
353.7032	0.1519
353.9121	0.138
354.1211	0.1512
354.33	0.1403
354.5389	0.1403
354.7478	0.1535
354.9567	0.1419
355.1655	0.1428
355.3744	0.1595
355.5833	0.144
355.7921	0.1678
356.0009	0.1539
356.2097	0.1544
356.4185	0.1712
356.6273	0.1567
356.8361	0.1638
357.0448	0.1661
357.2536	0.1548
357.4623	0.1578
357.671	0.1492
357.8797	0.1691
358.0884	0.1573
358.2971	0.164
358.5057	0.1754
358.7144	0.1697
358.923	0.1721
359.1316	0.1622
359.3402	0.1734
359.5488	0.1755
359.7574	0.1667
359.966	0.1692
360.1746	0.1718
360.3831	0.1701
360.5916	0.1536
360.8002	0.1724
361.0087	0.185
361.2172	0.1604
361.4256	0.1622
361.6341	0.1845
361.8426	0.1844
362.051	0.1726
362.2594	0.1769
362.4678	0.1815
362.6762	0.1972
362.8846	0.1853
363.093	0.1738
363.3014	0.1681
363.5097	0.1772
363.718	0.1776
363.9264	0.1786
364.1347	0.1908
364.343	0.1894
364.5513	0.2
364.7595	0.2031
364.9678	0.1973
365.176	0.1874
365.3842	0.2
365.5925	0.1893
365.8007	0.1929
366.0089	0.1899
366.217	0.1901
366.4252	0.1947
366.6333	0.2096
366.8415	0.2058
367.0496	0.1947
367.2577	0.2069
367.4658	0.2137
367.6739	0.2147
367.882	0.2069
368.09	0.201
368.2981	0.2169
368.5061	0.2014
368.7141	0.2055
368.9221	0.2059
369.1301	0.2142
369.3381	0.2109
369.5461	0.2193
369.754	0.2065
369.962	0.2216
370.1699	0.209
370.3778	0.222
370.5857	0.1839
370.7936	0.2114
371.0015	0.2236
371.2093	0.2252
371.4172	0.2257
371.625	0.2066
371.8328	0.2268
372.0406	0.2134
372.2484	0.2273
372.4562	0.2145
372.664	0.2244
372.8717	0.2305
373.0795	0.2085
373.2872	0.2271
373.4949	0.2021
373.7026	0.23
373.9103	0.2222
374.118	0.2178
374.3256	0.2236
374.5333	0.2255
374.7409	0.214
374.9485	0.2324
375.1561	0.2165
375.3637	0.2258
375.5713	0.238
375.7789	0.2153
375.9864	0.2325
376.194	0.2277
376.4015	0.2299
376.609	0.2301
376.8165	0.2246
377.024	0.217
377.2315	0.2141
377.4389	0.2301
377.6464	0.2329
377.8538	0.2404
378.0612	0.2403
378.2686	0.2385
378.476	0.2476
378.6834	0.2532
378.8908	0.235
379.0981	0.2533
379.3055	0.234
379.5128	0.2297
379.7201	0.2422
379.9274	0.2516
380.1347	0.2467
380.342	0.2583
380.5492	0.2348
380.7565	0.2468
380.9637	0.2432
381.1709	0.2435
381.3781	0.2475
381.5853	0.2531
381.7925	0.2332
381.9997	0.245
382.2068	0.247
382.4139	0.2527
382.6211	0.2307
382.8282	0.2501
383.0353	0.2321
383.2424	0.2321
383.4494	0.2573
383.6565	0.2471
383.8635	0.251
384.0706	0.2607
384.2776	0.2602
384.4846	0.2378
384.6916	0.2482
384.8986	0.2392
385.1055	0.2397
385.3125	0.2576
385.5194	0.243
385.7263	0.2536
385.9333	0.2441
386.1402	0.2505
386.347	0.2461
386.5539	0.2483
386.7608	0.2788
386.9676	0.2417
387.1744	0.2531
387.3813	0.2354
387.5881	0.2443
387.7948	0.2492
388.0016	0.242
388.2084	0.2424
388.4151	0.2337
388.6219	0.2566
388.8286	0.2613
389.0353	0.2614
389.242	0.2512
389.4487	0.245
389.6553	0.2451
389.862	0.2057
390.0686	0.2228
390.2753	0.2459
390.4819	0.2375
390.6885	0.2222
390.8951	0.2699
391.1016	0.234
391.3082	0.2254
391.5147	0.2392
391.7213	0.239
391.9278	0.2127
392.1343	0.2275
392.3408	0.2271
392.5473	0.2269
392.7537	0.2204
392.9602	0.2225
393.1666	0.2271
393.373	0.239
393.5794	0.2415
393.7858	0.2387
393.9922	0.2313
394.1986	0.2266
394.4049	0.2419
394.6113	0.2221
394.8176	0.2129
395.0239	0.2099
395.2302	0.2064
395.4365	0.2103
395.6428	0.2177
395.8491	0.1951
396.0553	0.2111
396.2615	0.2246
396.4678	0.2136
396.674	0.1898
396.8802	0.2136
397.0863	0.2192
397.2925	0.2064
397.4987	0.2135
397.7048	0.2012
397.9109	0.2177
398.117	0.1984
398.3231	0.2085
398.5292	0.2192
398.7353	0.2226
398.9413	0.1884
399.1474	0.2174
399.3534	0.2089
399.5594	0.1982
399.7654	0.2229
399.9714	0.2218
400.1774	0.2201
400.3833	0.2103
400.5893	0.2191
400.7952	0.2149
401.0011	0.2009
401.207	0.2325
401.4129	0.2018
401.6188	0.2151
401.8247	0.2101
402.0305	0.18
402.2364	0.2003
402.4422	0.219
402.648	0.2187
402.8538	0.2031
403.0596	0.2068
403.2654	0.2055
403.4711	0.2073
403.6768	0.2169
403.8826	0.2183
404.0883	0.2103
404.294	0.2168
404.4997	0.2042
404.7054	0.2096
404.911	0.1998
405.1167	0.1995
405.3223	0.2094
405.5279	0.2141
405.7335	0.2132
405.9391	0.2102
406.1447	0.1923
406.3502	0.2218
406.5558	0.2033
406.7613	0.2186
406.9668	0.2262
407.1724	0.2151
407.3778	0.2162
407.5833	0.2109
407.7888	0.1881
407.9942	0.2192
408.1997	0.1961
408.4051	0.2169
408.6105	0.2171
408.8159	0.2066
409.0213	0.1991
409.2267	0.2126
409.432	0.2006
409.6374	0.2052
409.8427	0.1898
410.048	0.2248
410.2533	0.2224
410.4586	0.2089
410.6639	0.1875
410.8691	0.1882
411.0744	0.2033
411.2796	0.1938
411.4848	0.1986
411.69	0.2027
411.8952	0.1984
412.1004	0.1896
412.3056	0.2006
412.5107	0.1965
412.7158	0.2266
412.921	0.2081
413.1261	0.2041
413.3312	0.1964
413.5362	0.1886
413.7413	0.1978
413.9464	0.2018
414.1514	0.194
414.3564	0.1939
414.5614	0.188
414.7664	0.1992
414.9714	0.1956
415.1764	0.2
415.3813	0.2095
415.5863	0.1934
415.7912	0.198
415.9961	0.1934
416.201	0.2019
416.4059	0.2111
416.6108	0.1986
416.8156	0.2057
417.0205	0.1894
417.2253	0.1821
417.4301	0.1964
417.6349	0.1865
417.8397	0.1849
418.0445	0.2023
418.2492	0.2106
418.454	0.1844
418.6587	0.18
418.8634	0.1761
419.0681	0.1711
419.2728	0.1844
419.4775	0.1761
419.6822	0.1845
419.8868	0.1692
420.0915	0.1819
420.2961	0.1779
420.5007	0.1793
420.7053	0.1713
420.9099	0.183
421.1144	0.1973
421.319	0.1844
421.5235	0.1919
421.728	0.1749
421.9325	0.1915
422.137	0.1902
422.3415	0.1833
422.546	0.182
422.7504	0.1805
422.9549	0.1849
423.1593	0.1869
423.3637	0.201
423.5681	0.1639
423.7725	0.18
423.9769	0.1629
424.1812	0.1668
424.3856	0.175
424.5899	0.1748
424.7942	0.1666
424.9985	0.1726
425.2028	0.1626
425.4071	0.1887
425.6113	0.1512
425.8156	0.1846
426.0198	0.178
426.224	0.1687
426.4282	0.167
426.6324	0.1668
