Data from MonoPyChalIsomerACN10uM420nmA_Absorbance_15-09-56-234.txt Node
Date: Fri Jul 05 15:09:56 BST 2024
User: LASERRRRR
Spectrometer: FLMT03099
Trigger mode: 0
Integration Time (sec): 1.000000E-1
Scans to average: 1
Electric dark correction enabled: true
Nonlinearity correction enabled: false
Boxcar width: 0
XAxis mode: Wavelengths
Number of Pixels in Spectrum: 3648
>>>>>Begin Spectral Data<<<<<
179.3399	-0.4303
179.5586	-0.4303
179.7771	-0.4303
179.9957	0.1021
180.2143	-0.3478
180.4329	0.0701
180.6514	-0
180.8699	-0.1139
181.0885	-0
181.307	0.3884
181.5255	-0
181.744	-0.358
181.9625	-0.4329
182.181	-0.7582
182.3994	0.286
182.6179	-0
182.8363	0.5478
183.0547	0.2239
183.2732	0.4066
183.4916	0.1321
183.71	0.2303
183.9284	0.4162
184.1467	-0.0326
184.3651	-0.0332
184.5835	0.0777
184.8018	0.2342
185.0201	0.1214
185.2385	0.0143
185.4568	0.198
185.6751	0.2384
185.8934	0.2666
186.1117	-0.0401
186.3299	0.1396
186.5482	0.1922
186.7664	-0.0106
186.9847	0.0081
187.2029	0.1269
187.4211	0.0903
187.6393	0.4767
187.8575	0.2368
188.0757	0.2015
188.2939	0.1186
188.512	0.0578
188.7302	0.1425
188.9483	0.776
189.1665	0.4861
189.3846	-0.1041
189.6027	0.2121
189.8208	0.2317
190.0389	-0.0007
190.257	0.0951
190.475	0.41
190.6931	0.2445
190.9111	0.5921
191.1292	0.3514
191.3472	0.4829
191.5652	0.2425
191.7832	0.2787
192.0012	0.57
192.2192	0.2897
192.4371	0.5093
192.6551	0.8395
192.873	0.3683
193.091	0.3069
193.3089	0.7013
193.5268	0.5242
193.7447	0.5622
193.9626	0.5606
194.1805	0.9563
194.3984	1.1162
194.6162	0.7357
194.8341	0.8614
195.0519	0.6302
195.2697	0.9949
195.4875	0.5355
195.7054	0.5942
195.9231	0.5845
196.1409	0.6872
196.3587	0.4791
196.5765	0.6267
196.7942	0.6746
197.012	0.823
197.2297	0.6789
197.4474	0.7967
197.6651	0.7955
197.8828	0.671
198.1005	0.7389
198.3182	0.8462
198.5358	0.9378
198.7535	0.6143
198.9711	0.6575
199.1888	0.7738
199.4064	0.6053
199.624	0.9848
199.8416	0.6335
200.0592	0.601
200.2767	0.6637
200.4943	0.6691
200.7119	0.8799
200.9294	0.7263
201.1469	0.6892
201.3645	0.654
201.582	0.61
201.7995	0.7688
202.017	0.6415
202.2344	0.5966
202.4519	0.7757
202.6694	0.7134
202.8868	0.7504
203.1042	0.7069
203.3217	0.862
203.5391	0.7769
203.7565	0.7201
203.9739	0.6255
204.1913	0.6397
204.4086	0.7295
204.626	0.767
204.8433	0.736
205.0607	0.6966
205.278	0.6112
205.4953	0.7267
205.7126	0.6717
205.9299	0.815
206.1472	0.7083
206.3644	0.6883
206.5817	0.7089
206.7989	0.9062
207.0162	0.6578
207.2334	0.736
207.4506	0.7405
207.6678	0.6401
207.885	0.7545
208.1022	0.666
208.3194	0.656
208.5365	0.7769
208.7537	0.6711
208.9708	0.6694
209.1879	0.6641
209.405	0.7235
209.6222	0.858
209.8392	0.7008
210.0563	0.7361
210.2734	0.7171
210.4905	0.5989
210.7075	0.65
210.9245	0.6302
211.1416	0.7364
211.3586	0.6318
211.5756	0.6227
211.7926	0.6092
212.0096	0.6297
212.2265	0.5853
212.4435	0.6108
212.6604	0.7143
212.8774	0.5695
213.0943	0.6288
213.3112	0.4969
213.5281	0.549
213.745	0.573
213.9619	0.526
214.1788	0.5194
214.3956	0.4749
214.6125	0.5177
214.8293	0.4375
215.0461	0.4907
215.2629	0.4534
215.4798	0.4791
215.6965	0.4749
215.9133	0.4502
216.1301	0.4552
216.3469	0.4429
216.5636	0.4184
216.7803	0.4379
216.9971	0.4027
217.2138	0.3673
217.4305	0.4097
217.6472	0.3798
217.8639	0.4242
218.0805	0.3649
218.2972	0.3173
218.5138	0.314
218.7305	0.326
218.9471	0.3002
219.1637	0.288
219.3803	0.282
219.5969	0.2975
219.8135	0.2635
220.0301	0.2818
220.2466	0.2876
220.4632	0.2706
220.6797	0.2391
220.8962	0.2389
221.1127	0.2726
221.3292	0.2667
221.5457	0.2427
221.7622	0.2195
221.9787	0.2618
222.1951	0.2457
222.4116	0.266
222.628	0.2483
222.8444	0.2495
223.0608	0.2552
223.2772	0.2379
223.4936	0.264
223.71	0.2419
223.9264	0.2702
224.1427	0.2513
224.3591	0.2335
224.5754	0.2644
224.7917	0.2582
225.008	0.254
225.2243	0.2623
225.4406	0.2945
225.6569	0.2763
225.8732	0.2666
226.0894	0.2788
226.3057	0.2516
226.5219	0.2828
226.7381	0.2688
226.9543	0.3083
227.1705	0.2883
227.3867	0.2728
227.6029	0.3015
227.8191	0.3144
228.0352	0.2918
228.2513	0.3213
228.4675	0.3124
228.6836	0.2959
228.8997	0.2973
229.1158	0.3072
229.3319	0.2989
229.548	0.3203
229.764	0.3184
229.9801	0.3358
230.1961	0.311
230.4121	0.3334
230.6282	0.353
230.8442	0.3095
231.0602	0.3445
231.2761	0.353
231.4921	0.3591
231.7081	0.3478
231.924	0.3415
232.14	0.3824
232.3559	0.3251
232.5718	0.3618
232.7877	0.3586
233.0036	0.3525
233.2195	0.3766
233.4353	0.3593
233.6512	0.3664
233.867	0.3585
234.0829	0.367
234.2987	0.3721
234.5145	0.3693
234.7303	0.3709
234.9461	0.3788
235.1619	0.3909
235.3776	0.3731
235.5934	0.3994
235.8091	0.3699
236.0249	0.3838
236.2406	0.402
236.4563	0.384
236.672	0.3951
236.8877	0.3981
237.1034	0.3906
237.319	0.3812
237.5347	0.4167
237.7503	0.3889
237.966	0.4106
238.1816	0.4169
238.3972	0.4119
238.6128	0.3926
238.8284	0.4099
239.0439	0.4058
239.2595	0.4086
239.475	0.4083
239.6906	0.4284
239.9061	0.408
240.1216	0.4193
240.3371	0.4231
240.5526	0.4062
240.7681	0.4231
240.9836	0.412
241.199	0.4152
241.4145	0.4282
241.6299	0.391
241.8453	0.377
242.0607	0.4182
242.2761	0.3819
242.4915	0.4021
242.7069	0.38
242.9223	0.3721
243.1376	0.3766
243.353	0.3739
243.5683	0.3735
243.7836	0.3262
243.9989	0.3673
244.2142	0.3344
244.4295	0.356
244.6448	0.3355
244.86	0.3252
245.0753	0.3147
245.2905	0.3116
245.5057	0.3001
245.721	0.3125
245.9362	0.3086
246.1514	0.296
246.3665	0.287
246.5817	0.2841
246.7969	0.2736
247.012	0.2721
247.2271	0.2507
247.4423	0.2625
247.6574	0.259
247.8725	0.2605
248.0876	0.2592
248.3026	0.2492
248.5177	0.2471
248.7328	0.2331
248.9478	0.2294
249.1628	0.241
249.3779	0.2416
249.5929	0.2115
249.8079	0.2478
250.0228	0.2416
250.2378	0.2175
250.4528	0.2086
250.6677	0.2011
250.8827	0.2095
251.0976	0.2103
251.3125	0.2111
251.5274	0.1854
251.7423	0.2005
251.9572	0.2064
252.172	0.1903
252.3869	0.1975
252.6017	0.1879
252.8166	0.1797
253.0314	0.187
253.2462	0.1792
253.461	0.1958
253.6758	0.1825
253.8906	0.1861
254.1053	0.1813
254.3201	0.1784
254.5348	0.1986
254.7496	0.1798
254.9643	0.1772
255.179	0.1818
255.3937	0.1748
255.6083	0.1809
255.823	0.1722
256.0377	0.1766
256.2523	0.1722
256.467	0.1624
256.6816	0.1873
256.8962	0.1779
257.1108	0.1562
257.3254	0.1688
257.54	0.1751
257.7545	0.1779
257.9691	0.1714
258.1836	0.1743
258.3981	0.1867
258.6127	0.1831
258.8272	0.1743
259.0417	0.1745
259.2561	0.1579
259.4706	0.1784
259.6851	0.1774
259.8995	0.1844
260.114	0.1718
260.3284	0.1784
260.5428	0.1589
260.7572	0.1767
260.9716	0.1783
261.186	0.1705
261.4003	0.1729
261.6147	0.1689
261.829	0.1852
262.0433	0.1678
262.2577	0.1716
262.472	0.18
262.6863	0.1706
262.9005	0.1726
263.1148	0.1742
263.3291	0.1483
263.5433	0.1797
263.7576	0.1623
263.9718	0.1777
264.186	0.1675
264.4002	0.1831
264.6144	0.1768
264.8286	0.1827
265.0427	0.1806
265.2569	0.1748
265.471	0.1672
265.6851	0.1727
265.8993	0.1707
266.1134	0.1607
266.3275	0.1776
266.5415	0.1731
266.7556	0.1719
266.9697	0.1903
267.1837	0.1881
267.3978	0.1767
267.6118	0.1853
267.8258	0.1941
268.0398	0.1658
268.2538	0.1772
268.4677	0.1862
268.6817	0.1683
268.8957	0.1778
269.1096	0.1747
269.3235	0.1821
269.5374	0.174
269.7514	0.176
269.9652	0.1704
270.1791	0.1798
270.393	0.1582
270.6068	0.1851
270.8207	0.1709
271.0345	0.1654
271.2483	0.1754
271.4622	0.1735
271.676	0.1857
271.8897	0.1701
272.1035	0.176
272.3173	0.1654
272.531	0.1669
272.7448	0.1796
272.9585	0.1553
273.1722	0.1692
273.3859	0.1809
273.5996	0.1696
273.8133	0.1687
274.0269	0.1644
274.2406	0.1661
274.4542	0.1667
274.6679	0.1615
274.8815	0.1712
275.0951	0.1669
275.3087	0.1816
275.5223	0.1711
275.7358	0.1727
275.9494	0.1741
276.1629	0.1602
276.3765	0.1601
276.59	0.1681
276.8035	0.1718
277.017	0.1859
277.2305	0.1661
277.444	0.1781
277.6574	0.1798
277.8709	0.1794
278.0843	0.1618
278.2978	0.1737
278.5112	0.1622
278.7246	0.1771
278.938	0.1728
279.1513	0.1674
279.3647	0.1802
279.5781	0.1815
279.7914	0.1763
280.0047	0.1843
280.2181	0.1746
280.4314	0.1875
280.6447	0.1834
280.8579	0.1798
281.0712	0.1797
281.2845	0.1817
281.4977	0.1788
281.711	0.17
281.9242	0.1684
282.1374	0.1775
282.3506	0.1732
282.5638	0.1819
282.7769	0.1695
282.9901	0.1622
283.2033	0.1862
283.4164	0.1825
283.6295	0.1719
283.8426	0.1588
284.0557	0.1826
284.2688	0.1874
284.4819	0.1746
284.695	0.1695
284.908	0.1715
285.1211	0.1719
285.3341	0.1726
285.5471	0.1874
285.7601	0.1661
285.9731	0.169
286.1861	0.1625
286.3991	0.1688
286.612	0.1722
286.825	0.1585
287.0379	0.1699
287.2508	0.1673
287.4637	0.1683
287.6766	0.148
287.8895	0.1837
288.1024	0.1825
288.3152	0.1702
288.5281	0.1573
288.7409	0.1672
288.9538	0.1659
289.1666	0.1708
289.3794	0.1581
289.5922	0.1492
289.8049	0.1582
290.0177	0.1585
290.2304	0.1623
290.4432	0.1712
290.6559	0.156
290.8686	0.153
291.0813	0.1526
291.294	0.1536
291.5067	0.1603
291.7194	0.1427
291.932	0.1697
292.1447	0.1519
292.3573	0.1476
292.5699	0.1632
292.7825	0.1566
292.9951	0.1536
293.2077	0.1531
293.4203	0.1471
293.6328	0.1477
293.8454	0.1644
294.0579	0.1511
294.2704	0.1516
294.4829	0.1353
294.6954	0.1506
294.9079	0.144
295.1204	0.1568
295.3328	0.1508
295.5453	0.1515
295.7577	0.151
295.9701	0.1441
296.1825	0.1451
296.3949	0.1483
296.6073	0.1504
296.8197	0.1498
297.0321	0.1626
297.2444	0.1498
297.4567	0.1502
297.6691	0.1548
297.8814	0.1401
298.0937	0.1534
298.306	0.1541
298.5182	0.1503
298.7305	0.1591
298.9428	0.1433
299.155	0.1546
299.3672	0.1499
299.5794	0.1374
299.7916	0.1592
300.0038	0.1532
300.216	0.1476
300.4282	0.1491
300.6403	0.1437
300.8525	0.149
301.0646	0.1499
301.2767	0.1577
301.4888	0.1517
301.7009	0.159
301.913	0.147
302.125	0.1533
302.3371	0.1487
302.5491	0.1575
302.7612	0.1532
302.9732	0.1584
303.1852	0.153
303.3972	0.1447
303.6092	0.1425
303.8211	0.1383
304.0331	0.1452
304.245	0.1415
304.457	0.1399
304.6689	0.1447
304.8808	0.1492
305.0927	0.1291
305.3046	0.1513
305.5164	0.1512
305.7283	0.1356
305.9401	0.1381
306.152	0.1436
306.3638	0.1405
306.5756	0.1463
306.7874	0.1498
306.9992	0.1453
307.2109	0.1316
307.4227	0.136
307.6344	0.131
307.8462	0.1337
308.0579	0.1275
308.2696	0.1187
308.4813	0.1305
308.693	0.1269
308.9046	0.1316
309.1163	0.1275
309.328	0.1188
309.5396	0.1298
309.7512	0.1202
309.9628	0.1142
310.1744	0.1286
310.386	0.118
310.5976	0.1227
310.8091	0.1251
311.0207	0.1197
311.2322	0.1215
311.4437	0.1196
311.6552	0.117
311.8667	0.1293
312.0782	0.1105
312.2897	0.1124
312.5012	0.1193
312.7126	0.1223
312.924	0.1194
313.1355	0.1203
313.3469	0.1188
313.5583	0.1221
313.7696	0.1244
313.981	0.1191
314.1924	0.1222
314.4037	0.121
314.6151	0.1253
314.8264	0.1158
315.0377	0.1016
315.249	0.1118
315.4603	0.1264
315.6716	0.1233
315.8828	0.1148
316.0941	0.1091
316.3053	0.114
316.5165	0.1021
316.7277	0.1125
316.9389	0.1255
317.1501	0.1115
317.3613	0.1124
317.5724	0.1036
317.7836	0.1253
317.9947	0.1124
318.2058	0.1182
318.417	0.1084
318.6281	0.0945
318.8391	0.1168
319.0502	0.1123
319.2613	0.113
319.4723	0.1164
319.6834	0.1294
319.8944	0.101
320.1054	0.1125
320.3164	0.1237
320.5274	0.1091
320.7383	0.122
320.9493	0.1184
321.1602	0.1184
321.3712	0.1222
321.5821	0.1129
321.793	0.1186
322.0039	0.1161
322.2148	0.1152
322.4257	0.1225
322.6365	0.1296
322.8474	0.1277
323.0582	0.1159
323.269	0.1202
323.4798	0.1202
323.6906	0.1247
323.9014	0.1267
324.1122	0.1211
324.3229	0.1157
324.5337	0.1234
324.7444	0.1222
324.9551	0.1312
325.1658	0.1215
325.3765	0.1199
325.5872	0.1173
325.7979	0.1232
326.0085	0.1204
326.2192	0.1262
326.4298	0.134
326.6404	0.1156
326.851	0.1122
327.0616	0.1198
327.2722	0.1237
327.4828	0.1198
327.6933	0.1265
327.9039	0.1309
328.1144	0.1361
328.3249	0.1375
328.5354	0.1102
328.7459	0.1269
328.9564	0.1245
329.1669	0.1218
329.3773	0.1287
329.5878	0.1247
329.7982	0.1232
330.0086	0.1211
330.219	0.1263
330.4294	0.1107
330.6398	0.1239
330.8502	0.1215
331.0605	0.1329
331.2708	0.1308
331.4812	0.1393
331.6915	0.1326
331.9018	0.1208
332.1121	0.1182
332.3224	0.1324
332.5326	0.1253
332.7429	0.118
332.9531	0.1334
333.1633	0.1272
333.3735	0.1275
333.5837	0.1321
333.7939	0.119
334.0041	0.1394
334.2143	0.1247
334.4244	0.1306
334.6346	0.1202
334.8447	0.1442
335.0548	0.1249
335.2649	0.1193
335.475	0.141
335.685	0.1117
335.8951	0.1348
336.1051	0.1454
336.3152	0.1449
336.5252	0.1279
336.7352	0.1347
336.9452	0.131
337.1552	0.133
337.3652	0.1215
337.5751	0.1281
337.7851	0.1338
337.995	0.1238
338.2049	0.132
338.4148	0.1416
338.6247	0.1373
338.8346	0.1226
339.0445	0.1245
339.2543	0.1319
339.4642	0.129
339.674	0.1159
339.8838	0.1208
340.0936	0.1236
340.3034	0.1545
340.5132	0.1399
340.7229	0.1402
340.9327	0.1242
341.1424	0.132
341.3522	0.1545
341.5619	0.1413
341.7716	0.1426
341.9813	0.1396
342.1909	0.1334
342.4006	0.1492
342.6102	0.1539
342.8199	0.1486
343.0295	0.142
343.2391	0.1373
343.4487	0.1575
343.6583	0.1363
343.8679	0.147
344.0774	0.1452
344.287	0.1394
344.4965	0.1322
344.706	0.1339
344.9155	0.1415
345.125	0.1422
345.3345	0.1376
345.544	0.1378
345.7534	0.1414
345.9629	0.1535
346.1723	0.1416
346.3817	0.1446
346.5911	0.1406
346.8005	0.1479
347.0099	0.1479
347.2193	0.1601
347.4286	0.15
347.638	0.1493
347.8473	0.1491
348.0566	0.1524
348.2659	0.1634
348.4752	0.1561
348.6845	0.1564
348.8937	0.1503
349.103	0.1609
349.3122	0.1477
349.5214	0.1542
349.7306	0.1502
349.9398	0.1531
350.149	0.1521
350.3582	0.1446
350.5674	0.1692
350.7765	0.1514
350.9856	0.1556
351.1948	0.1623
351.4039	0.1392
351.613	0.1388
351.822	0.1563
352.0311	0.1502
352.2402	0.1589
352.4492	0.1609
352.6582	0.1633
352.8672	0.1392
353.0762	0.1705
353.2852	0.1536
353.4942	0.1409
353.7032	0.1595
353.9121	0.1549
354.1211	0.1463
354.33	0.1517
354.5389	0.1693
354.7478	0.154
354.9567	0.1525
355.1655	0.153
355.3744	0.1734
355.5833	0.1703
355.7921	0.166
356.0009	0.1525
356.2097	0.1751
356.4185	0.1747
356.6273	0.159
356.8361	0.1639
357.0448	0.1632
357.2536	0.1493
357.4623	0.1667
357.671	0.1899
357.8797	0.1702
358.0884	0.1558
358.2971	0.1655
358.5057	0.1608
358.7144	0.1782
358.923	0.1768
359.1316	0.1803
359.3402	0.1777
359.5488	0.1554
359.7574	0.1596
359.966	0.1743
360.1746	0.175
360.3831	0.1854
360.5916	0.1663
360.8002	0.1537
361.0087	0.1773
361.2172	0.1828
361.4256	0.176
361.6341	0.1939
361.8426	0.178
362.051	0.1915
362.2594	0.1803
362.4678	0.1722
362.6762	0.1997
362.8846	0.1942
363.093	0.1749
363.3014	0.1839
363.5097	0.1664
363.718	0.188
363.9264	0.1868
364.1347	0.1691
364.343	0.2087
364.5513	0.1962
364.7595	0.2058
364.9678	0.1742
365.176	0.1632
365.3842	0.1852
365.5925	0.1938
365.8007	0.1904
366.0089	0.1864
366.217	0.181
366.4252	0.2073
366.6333	0.1988
366.8415	0.1963
367.0496	0.1818
367.2577	0.1949
367.4658	0.1999
367.6739	0.1954
367.882	0.1993
368.09	0.1848
368.2981	0.1805
368.5061	0.1935
368.7141	0.2027
368.9221	0.1914
369.1301	0.2013
369.3381	0.2022
369.5461	0.2052
369.754	0.1875
369.962	0.1947
370.1699	0.1886
370.3778	0.2063
370.5857	0.1814
370.7936	0.207
371.0015	0.1948
371.2093	0.1994
371.4172	0.196
371.625	0.1931
371.8328	0.1803
372.0406	0.213
372.2484	0.1926
372.4562	0.2
372.664	0.1922
372.8717	0.2028
373.0795	0.1786
373.2872	0.1873
373.4949	0.2042
373.7026	0.2104
373.9103	0.2118
374.118	0.1999
374.3256	0.1977
374.5333	0.1993
374.7409	0.1839
374.9485	0.2024
375.1561	0.1947
375.3637	0.2008
375.5713	0.2095
375.7789	0.1867
375.9864	0.2017
376.194	0.1947
376.4015	0.2114
376.609	0.2189
376.8165	0.1908
377.024	0.1995
377.2315	0.1884
377.4389	0.2005
377.6464	0.2024
377.8538	0.2083
378.0612	0.1945
378.2686	0.2054
378.476	0.2207
378.6834	0.2105
378.8908	0.2013
379.0981	0.2066
379.3055	0.1978
379.5128	0.2105
379.7201	0.1927
379.9274	0.2042
380.1347	0.1991
380.342	0.216
380.5492	0.2016
380.7565	0.2161
380.9637	0.2147
381.1709	0.2114
381.3781	0.2017
381.5853	0.2241
381.7925	0.209
381.9997	0.2177
382.2068	0.2049
382.4139	0.2154
382.6211	0.2075
382.8282	0.1967
383.0353	0.2112
383.2424	0.2125
383.4494	0.237
383.6565	0.217
383.8635	0.2051
384.0706	0.1946
384.2776	0.2085
384.4846	0.206
384.6916	0.2147
384.8986	0.2082
385.1055	0.2085
385.3125	0.218
385.5194	0.2029
385.7263	0.2102
385.9333	0.2068
386.1402	0.1972
386.347	0.1967
386.5539	0.2067
386.7608	0.2179
386.9676	0.1806
387.1744	0.1793
387.3813	0.1921
387.5881	0.2023
387.7948	0.2227
388.0016	0.1965
388.2084	0.1934
388.4151	0.1988
388.6219	0.2148
388.8286	0.211
389.0353	0.1999
389.242	0.2099
389.4487	0.1747
389.6553	0.18
389.862	0.1872
390.0686	0.1889
390.2753	0.1933
390.4819	0.1833
390.6885	0.1933
390.8951	0.1891
391.1016	0.199
391.3082	0.1826
391.5147	0.2109
391.7213	0.1754
391.9278	0.1885
392.1343	0.1807
392.3408	0.1787
392.5473	0.1891
392.7537	0.1747
392.9602	0.1695
393.1666	0.189
393.373	0.1824
393.5794	0.1831
393.7858	0.2024
393.9922	0.1678
394.1986	0.1752
394.4049	0.1793
394.6113	0.1793
394.8176	0.182
395.0239	0.1752
395.2302	0.173
395.4365	0.1731
395.6428	0.1733
395.8491	0.1856
396.0553	0.1829
396.2615	0.1734
396.4678	0.1751
396.674	0.1615
396.8802	0.1713
397.0863	0.1633
397.2925	0.1705
397.4987	0.1653
397.7048	0.1679
397.9109	0.1849
398.117	0.1392
398.3231	0.1633
398.5292	0.166
398.7353	0.1673
398.9413	0.1661
399.1474	0.1709
399.3534	0.1679
399.5594	0.1666
399.7654	0.1783
399.9714	0.179
400.1774	0.1711
400.3833	0.1618
400.5893	0.1628
400.7952	0.168
401.0011	0.1649
401.207	0.1712
401.4129	0.1551
401.6188	0.1602
401.8247	0.1618
402.0305	0.1691
402.2364	0.1545
402.4422	0.1606
402.648	0.1634
402.8538	0.1686
403.0596	0.1631
403.2654	0.1674
403.4711	0.1587
403.6768	0.1832
403.8826	0.168
404.0883	0.1677
404.294	0.1756
404.4997	0.1655
404.7054	0.1654
404.911	0.1453
405.1167	0.1524
405.3223	0.181
405.5279	0.1607
405.7335	0.1657
405.9391	0.1729
406.1447	0.1652
406.3502	0.1764
406.5558	0.1583
406.7613	0.1638
406.9668	0.1511
407.1724	0.1566
407.3778	0.1556
407.5833	0.1588
407.7888	0.155
407.9942	0.1849
408.1997	0.1479
408.4051	0.1398
408.6105	0.1676
408.8159	0.1451
409.0213	0.1393
409.2267	0.1812
409.432	0.1548
409.6374	0.1759
409.8427	0.1693
410.048	0.1603
410.2533	0.1601
410.4586	0.1766
410.6639	0.1476
410.8691	0.1488
411.0744	0.1607
411.2796	0.1476
411.4848	0.1527
411.69	0.1438
411.8952	0.1764
412.1004	0.143
412.3056	0.1502
412.5107	0.1395
412.7158	0.1714
412.921	0.1521
413.1261	0.1545
413.3312	0.1475
413.5362	0.1599
413.7413	0.1429
413.9464	0.1539
414.1514	0.1575
414.3564	0.1671
414.5614	0.1463
414.7664	0.1552
414.9714	0.1689
415.1764	0.1698
415.3813	0.1711
415.5863	0.1432
415.7912	0.1581
415.9961	0.1652
416.201	0.173
416.4059	0.1603
416.6108	0.1443
416.8156	0.166
417.0205	0.1335
417.2253	0.1456
417.4301	0.1616
417.6349	0.1637
417.8397	0.1421
418.0445	0.157
418.2492	0.1598
418.454	0.1588
418.6587	0.1273
418.8634	0.1459
419.0681	0.1311
419.2728	0.139
419.4775	0.1292
419.6822	0.1428
419.8868	0.127
420.0915	0.166
420.2961	0.1242
420.5007	0.1328
420.7053	0.1476
420.9099	0.1365
421.1144	0.1385
421.319	0.1325
421.5235	0.1551
421.728	0.1239
421.9325	0.1454
422.137	0.1538
422.3415	0.132
422.546	0.1513
422.7504	0.1445
422.9549	0.1392
423.1593	0.1507
423.3637	0.1312
423.5681	0.1402
423.7725	0.1255
423.9769	0.1216
424.1812	0.1253
424.3856	0.1351
424.5899	0.1261
424.7942	0.1216
424.9985	0.1208
425.2028	0.1363
425.4071	0.1379
425.6113	0.1193
425.8156	0.134
426.0198	0.1285
426.224	0.1368
426.4282	0.1221
426.6324	0.1252
