Data from MonoPyChalIsomerACN10uM420nmA_Absorbance_15-09-54-735.txt Node
Date: Fri Jul 05 15:09:54 BST 2024
User: LASERRRRR
Spectrometer: FLMT03099
Trigger mode: 0
Integration Time (sec): 1.000000E-1
Scans to average: 1
Electric dark correction enabled: true
Nonlinearity correction enabled: false
Boxcar width: 0
XAxis mode: Wavelengths
Number of Pixels in Spectrum: 3648
>>>>>Begin Spectral Data<<<<<
179.3399	-0.409
179.5586	-0.409
179.7771	-0.409
179.9957	0.3209
180.2143	-0
180.4329	-0.1761
180.6514	-0
180.8699	0.3392
181.0885	-0.2597
181.307	0.01
181.5255	-0
181.744	-0.4022
181.9625	-0
182.181	0.4607
182.3994	-0
182.6179	-0
182.8363	-0
183.0547	0.2676
183.2732	0.0715
183.4916	0.2697
183.71	0.0471
183.9284	0.0062
184.1467	-0.112
184.3651	-0.2067
184.5835	0.0204
184.8018	0.032
185.0201	0.0431
185.2385	0.119
185.4568	0.1533
185.6751	0.3108
185.8934	0.3466
186.1117	0.1421
186.3299	0.3794
186.5482	0.0968
186.7664	-0.0477
186.9847	0.0352
187.2029	0.084
187.4211	0.1089
187.6393	0.1035
187.8575	-0.1213
188.0757	0.3653
188.2939	0.0869
188.512	-0.0202
188.7302	0.2292
188.9483	0.072
189.1665	0.1808
189.3846	-0.0197
189.6027	0.129
189.8208	0.0782
190.0389	0.2304
190.257	0.2167
190.475	0.1445
190.6931	0.0833
190.9111	0.2972
191.1292	0.1831
191.3472	0.5249
191.5652	0.2317
191.7832	0.2574
192.0012	0.2028
192.2192	0.4487
192.4371	0.5192
192.6551	0.36
192.873	0.5219
193.091	0.3385
193.3089	-0
193.5268	0.4374
193.7447	0.6293
193.9626	0.3459
194.1805	0.5037
194.3984	0.7101
194.6162	0.552
194.8341	0.8013
195.0519	0.4459
195.2697	0.7481
195.4875	0.7067
195.7054	0.7223
195.9231	0.4948
196.1409	0.5419
196.3587	0.7587
196.5765	0.6254
196.7942	0.5094
197.012	0.4126
197.2297	0.7114
197.4474	0.7025
197.6651	0.4919
197.8828	0.5203
198.1005	0.673
198.3182	0.713
198.5358	0.7946
198.7535	0.5111
198.9711	0.6015
199.1888	0.6213
199.4064	0.5761
199.624	0.6055
199.8416	0.6387
200.0592	0.7379
200.2767	0.6596
200.4943	0.6505
200.7119	0.725
200.9294	0.6735
201.1469	0.5389
201.3645	0.6744
201.582	0.5867
201.7995	0.6414
202.017	0.5645
202.2344	0.5803
202.4519	0.7679
202.6694	0.6346
202.8868	0.567
203.1042	0.6525
203.3217	0.7124
203.5391	0.7926
203.7565	0.4756
203.9739	0.6106
204.1913	0.6167
204.4086	0.6665
204.626	0.6936
204.8433	0.6371
205.0607	0.59
205.278	0.6332
205.4953	0.6026
205.7126	0.6502
205.9299	0.7127
206.1472	0.6533
206.3644	0.6356
206.5817	0.7038
206.7989	0.8483
207.0162	0.6485
207.2334	0.6419
207.4506	0.7174
207.6678	0.6212
207.885	0.6432
208.1022	0.6254
208.3194	0.6321
208.5365	0.5823
208.7537	0.6403
208.9708	0.5994
209.1879	0.6537
209.405	0.7453
209.6222	0.6458
209.8392	0.7055
210.0563	0.6281
210.2734	0.5844
210.4905	0.6038
210.7075	0.5946
210.9245	0.6073
211.1416	0.7028
211.3586	0.6063
211.5756	0.5747
211.7926	0.535
212.0096	0.5834
212.2265	0.5637
212.4435	0.6092
212.6604	0.5942
212.8774	0.6359
213.0943	0.598
213.3112	0.5503
213.5281	0.5239
213.745	0.5277
213.9619	0.5848
214.1788	0.4906
214.3956	0.4895
214.6125	0.4908
214.8293	0.466
215.0461	0.4637
215.2629	0.482
215.4798	0.4644
215.6965	0.417
215.9133	0.4472
216.1301	0.4269
216.3469	0.4362
216.5636	0.4219
216.7803	0.3766
216.9971	0.4226
217.2138	0.3959
217.4305	0.3709
217.6472	0.3558
217.8639	0.3553
218.0805	0.3252
218.2972	0.3122
218.5138	0.3343
218.7305	0.2978
218.9471	0.2687
219.1637	0.3096
219.3803	0.2726
219.5969	0.282
219.8135	0.2518
220.0301	0.2703
220.2466	0.2898
220.4632	0.2505
220.6797	0.2442
220.8962	0.2246
221.1127	0.2786
221.3292	0.2705
221.5457	0.215
221.7622	0.2277
221.9787	0.2548
222.1951	0.2626
222.4116	0.2551
222.628	0.2356
222.8444	0.2595
223.0608	0.2447
223.2772	0.2532
223.4936	0.274
223.71	0.278
223.9264	0.2621
224.1427	0.2417
224.3591	0.2537
224.5754	0.2554
224.7917	0.2714
225.008	0.251
225.2243	0.2534
225.4406	0.3027
225.6569	0.2657
225.8732	0.2556
226.0894	0.2672
226.3057	0.2558
226.5219	0.2646
226.7381	0.2568
226.9543	0.2825
227.1705	0.3036
227.3867	0.2778
227.6029	0.3173
227.8191	0.2999
228.0352	0.2989
228.2513	0.3007
228.4675	0.3054
228.6836	0.2985
228.8997	0.2806
229.1158	0.3223
229.3319	0.3261
229.548	0.3208
229.764	0.3076
229.9801	0.3148
230.1961	0.3318
230.4121	0.3151
230.6282	0.3496
230.8442	0.3144
231.0602	0.3417
231.2761	0.3592
231.4921	0.3214
231.7081	0.3381
231.924	0.3633
232.14	0.3653
232.3559	0.3337
232.5718	0.3734
232.7877	0.3687
233.0036	0.3422
233.2195	0.3694
233.4353	0.3628
233.6512	0.3694
233.867	0.357
234.0829	0.3641
234.2987	0.377
234.5145	0.3695
234.7303	0.3628
234.9461	0.3901
235.1619	0.3577
235.3776	0.3641
235.5934	0.3726
235.8091	0.3667
236.0249	0.3629
236.2406	0.3773
236.4563	0.3802
236.672	0.4041
236.8877	0.3894
237.1034	0.3757
237.319	0.3889
237.5347	0.3972
237.7503	0.396
237.966	0.3976
238.1816	0.4138
238.3972	0.4091
238.6128	0.3928
238.8284	0.4008
239.0439	0.4189
239.2595	0.3858
239.475	0.4156
239.6906	0.4244
239.9061	0.4041
240.1216	0.4131
240.3371	0.4107
240.5526	0.404
240.7681	0.4066
240.9836	0.3774
241.199	0.4081
241.4145	0.3899
241.6299	0.3899
241.8453	0.3842
242.0607	0.3892
242.2761	0.3654
242.4915	0.3799
242.7069	0.3781
242.9223	0.3815
243.1376	0.3654
243.353	0.3717
243.5683	0.3702
243.7836	0.3512
243.9989	0.3483
244.2142	0.3313
244.4295	0.3363
244.6448	0.3286
244.86	0.3186
245.0753	0.3039
245.2905	0.3143
245.5057	0.298
245.721	0.2822
245.9362	0.2873
246.1514	0.3015
246.3665	0.2914
246.5817	0.2759
246.7969	0.2795
247.012	0.2728
247.2271	0.2611
247.4423	0.2622
247.6574	0.2645
247.8725	0.2479
248.0876	0.2441
248.3026	0.2617
248.5177	0.2356
248.7328	0.2358
248.9478	0.2141
249.1628	0.2242
249.3779	0.2221
249.5929	0.2056
249.8079	0.2302
250.0228	0.2204
250.2378	0.2245
250.4528	0.2078
250.6677	0.1993
250.8827	0.2062
251.0976	0.1898
251.3125	0.2004
251.5274	0.1938
251.7423	0.1904
251.9572	0.2046
252.172	0.193
252.3869	0.2015
252.6017	0.1853
252.8166	0.1802
253.0314	0.1843
253.2462	0.1789
253.461	0.1887
253.6758	0.1696
253.8906	0.1794
254.1053	0.161
254.3201	0.1814
254.5348	0.1862
254.7496	0.191
254.9643	0.1758
255.179	0.1742
255.3937	0.1866
255.6083	0.1733
255.823	0.1827
256.0377	0.1665
256.2523	0.1777
256.467	0.1623
256.6816	0.1866
256.8962	0.1773
257.1108	0.1611
257.3254	0.174
257.54	0.1627
257.7545	0.1792
257.9691	0.1852
258.1836	0.1633
258.3981	0.19
258.6127	0.1786
258.8272	0.1581
259.0417	0.1734
259.2561	0.1787
259.4706	0.1655
259.6851	0.1731
259.8995	0.1703
260.114	0.1697
260.3284	0.1647
260.5428	0.1587
260.7572	0.173
260.9716	0.1746
261.186	0.1683
261.4003	0.1655
261.6147	0.1721
261.829	0.1753
262.0433	0.1817
262.2577	0.1692
262.472	0.1661
262.6863	0.1647
262.9005	0.1773
263.1148	0.1754
263.3291	0.1553
263.5433	0.165
263.7576	0.1638
263.9718	0.1631
264.186	0.1717
264.4002	0.1712
264.6144	0.1654
264.8286	0.1843
265.0427	0.1693
265.2569	0.1638
265.471	0.1646
265.6851	0.1775
265.8993	0.1609
266.1134	0.1604
266.3275	0.1692
266.5415	0.1669
266.7556	0.1862
266.9697	0.1701
267.1837	0.1818
267.3978	0.1696
267.6118	0.1744
267.8258	0.1884
268.0398	0.1671
268.2538	0.189
268.4677	0.1804
268.6817	0.1677
268.8957	0.1791
269.1096	0.1665
269.3235	0.1819
269.5374	0.1647
269.7514	0.1628
269.9652	0.1635
270.1791	0.152
270.393	0.168
270.6068	0.1695
270.8207	0.1658
271.0345	0.1605
271.2483	0.1825
271.4622	0.1512
271.676	0.167
271.8897	0.1644
272.1035	0.161
272.3173	0.1547
272.531	0.1579
272.7448	0.1713
272.9585	0.1545
273.1722	0.1668
273.3859	0.1583
273.5996	0.153
273.8133	0.1673
274.0269	0.1614
274.2406	0.1661
274.4542	0.1631
274.6679	0.1551
274.8815	0.1438
275.0951	0.1574
275.3087	0.1743
275.5223	0.154
275.7358	0.1806
275.9494	0.1738
276.1629	0.1706
276.3765	0.1696
276.59	0.1683
276.8035	0.1675
277.017	0.171
277.2305	0.157
277.444	0.1597
277.6574	0.1646
277.8709	0.1588
278.0843	0.1615
278.2978	0.1691
278.5112	0.1591
278.7246	0.1678
278.938	0.1672
279.1513	0.1599
279.3647	0.1813
279.5781	0.1729
279.7914	0.161
280.0047	0.1807
280.2181	0.1685
280.4314	0.1632
280.6447	0.1736
280.8579	0.1748
281.0712	0.177
281.2845	0.1762
281.4977	0.1773
281.711	0.1612
281.9242	0.1663
282.1374	0.1844
282.3506	0.1707
282.5638	0.1681
282.7769	0.1654
282.9901	0.1674
283.2033	0.1702
283.4164	0.1652
283.6295	0.1609
283.8426	0.161
284.0557	0.1587
284.2688	0.1856
284.4819	0.1692
284.695	0.1618
284.908	0.1718
285.1211	0.1643
285.3341	0.1699
285.5471	0.1772
285.7601	0.1743
285.9731	0.1672
286.1861	0.1637
286.3991	0.1678
286.612	0.1788
286.825	0.1702
287.0379	0.1689
287.2508	0.1713
287.4637	0.157
287.6766	0.1549
287.8895	0.1674
288.1024	0.1884
288.3152	0.1684
288.5281	0.1469
288.7409	0.1657
288.9538	0.1667
289.1666	0.1608
289.3794	0.1632
289.5922	0.1577
289.8049	0.1616
290.0177	0.1608
290.2304	0.1609
290.4432	0.1628
290.6559	0.1704
290.8686	0.1642
291.0813	0.1537
291.294	0.1668
291.5067	0.1685
291.7194	0.1707
291.932	0.1633
292.1447	0.1559
292.3573	0.1454
292.5699	0.1518
292.7825	0.1618
292.9951	0.1432
293.2077	0.1573
293.4203	0.1501
293.6328	0.1507
293.8454	0.1591
294.0579	0.1612
294.2704	0.1614
294.4829	0.1459
294.6954	0.1567
294.9079	0.1555
295.1204	0.1423
295.3328	0.1498
295.5453	0.1502
295.7577	0.1499
295.9701	0.1485
296.1825	0.1608
296.3949	0.14
296.6073	0.1583
296.8197	0.1435
297.0321	0.1634
297.2444	0.1474
297.4567	0.1467
297.6691	0.15
297.8814	0.1442
298.0937	0.1445
298.306	0.1579
298.5182	0.1507
298.7305	0.1572
298.9428	0.15
299.155	0.1628
299.3672	0.147
299.5794	0.1451
299.7916	0.1414
300.0038	0.1561
300.216	0.1526
300.4282	0.1645
300.6403	0.1427
300.8525	0.1609
301.0646	0.1438
301.2767	0.15
301.4888	0.1585
301.7009	0.151
301.913	0.1549
302.125	0.1597
302.3371	0.1504
302.5491	0.1471
302.7612	0.1633
302.9732	0.1466
303.1852	0.1551
303.3972	0.1489
303.6092	0.1428
303.8211	0.1425
304.0331	0.1441
304.245	0.1389
304.457	0.1461
304.6689	0.1387
304.8808	0.1504
305.0927	0.1478
305.3046	0.1469
305.5164	0.1493
305.7283	0.1357
305.9401	0.1425
306.152	0.1474
306.3638	0.1348
306.5756	0.1382
306.7874	0.1409
306.9992	0.1452
307.2109	0.1351
307.4227	0.1342
307.6344	0.1339
307.8462	0.1271
308.0579	0.1277
308.2696	0.1228
308.4813	0.1311
308.693	0.1328
308.9046	0.1523
309.1163	0.1256
309.328	0.1277
309.5396	0.122
309.7512	0.1143
309.9628	0.1236
310.1744	0.1257
310.386	0.1218
310.5976	0.1186
310.8091	0.1161
311.0207	0.1264
311.2322	0.121
311.4437	0.1149
311.6552	0.1186
311.8667	0.1194
312.0782	0.1013
312.2897	0.1097
312.5012	0.1055
312.7126	0.1095
312.924	0.1068
313.1355	0.1257
313.3469	0.1094
313.5583	0.1256
313.7696	0.1174
313.981	0.1161
314.1924	0.1109
314.4037	0.1149
314.6151	0.1208
314.8264	0.1067
315.0377	0.102
315.249	0.1056
315.4603	0.1104
315.6716	0.1202
315.8828	0.1072
316.0941	0.1102
316.3053	0.1105
316.5165	0.0992
316.7277	0.1023
316.9389	0.1175
317.1501	0.0992
317.3613	0.11
317.5724	0.0983
317.7836	0.1116
317.9947	0.1065
318.2058	0.1002
318.417	0.0932
318.6281	0.0975
318.8391	0.1063
319.0502	0.1067
319.2613	0.1087
319.4723	0.116
319.6834	0.1151
319.8944	0.1021
320.1054	0.1161
320.3164	0.1101
320.5274	0.1001
320.7383	0.1079
320.9493	0.1163
321.1602	0.1132
321.3712	0.0931
321.5821	0.1095
321.793	0.1188
322.0039	0.1092
322.2148	0.1208
322.4257	0.1076
322.6365	0.119
322.8474	0.1123
323.0582	0.1049
323.269	0.1181
323.4798	0.122
323.6906	0.1227
323.9014	0.1198
324.1122	0.1142
324.3229	0.1077
324.5337	0.1102
324.7444	0.1149
324.9551	0.1281
325.1658	0.1285
325.3765	0.1193
325.5872	0.1219
325.7979	0.1101
326.0085	0.1087
326.2192	0.1206
326.4298	0.1238
326.6404	0.1181
326.851	0.1181
327.0616	0.1048
327.2722	0.1191
327.4828	0.1205
327.6933	0.1114
327.9039	0.13
328.1144	0.1193
328.3249	0.125
328.5354	0.1038
328.7459	0.1191
328.9564	0.1166
329.1669	0.1114
329.3773	0.1097
329.5878	0.1224
329.7982	0.1242
330.0086	0.1099
330.219	0.1291
330.4294	0.1124
330.6398	0.1204
330.8502	0.1089
331.0605	0.1204
331.2708	0.118
331.4812	0.1159
331.6915	0.1149
331.9018	0.1263
332.1121	0.1099
332.3224	0.1201
332.5326	0.1282
332.7429	0.1231
332.9531	0.1323
333.1633	0.1214
333.3735	0.1242
333.5837	0.1081
333.7939	0.1106
334.0041	0.1233
334.2143	0.1243
334.4244	0.1154
334.6346	0.112
334.8447	0.1355
335.0548	0.1198
335.2649	0.1178
335.475	0.132
335.685	0.1099
335.8951	0.1408
336.1051	0.125
336.3152	0.1358
336.5252	0.1103
336.7352	0.1234
336.9452	0.1166
337.1552	0.1253
337.3652	0.126
337.5751	0.1197
337.7851	0.1309
337.995	0.1163
338.2049	0.1351
338.4148	0.1278
338.6247	0.1415
338.8346	0.1258
339.0445	0.1159
339.2543	0.1227
339.4642	0.1305
339.674	0.1183
339.8838	0.1297
340.0936	0.1324
340.3034	0.1359
340.5132	0.1372
340.7229	0.1261
340.9327	0.1296
341.1424	0.1296
341.3522	0.1458
341.5619	0.139
341.7716	0.1438
341.9813	0.1258
342.1909	0.1204
342.4006	0.1409
342.6102	0.141
342.8199	0.1362
343.0295	0.1302
343.2391	0.129
343.4487	0.1447
343.6583	0.1236
343.8679	0.1364
344.0774	0.1393
344.287	0.1414
344.4965	0.1381
344.706	0.1327
344.9155	0.142
345.125	0.13
345.3345	0.137
345.544	0.1386
345.7534	0.126
345.9629	0.1223
346.1723	0.1452
346.3817	0.134
346.5911	0.1353
346.8005	0.154
347.0099	0.1286
347.2193	0.1422
347.4286	0.1493
347.638	0.1583
347.8473	0.1492
348.0566	0.1355
348.2659	0.154
348.4752	0.1418
348.6845	0.1485
348.8937	0.1442
349.103	0.1622
349.3122	0.1472
349.5214	0.142
349.7306	0.1482
349.9398	0.1303
350.149	0.1413
350.3582	0.1494
350.5674	0.1494
350.7765	0.1547
350.9856	0.1364
351.1948	0.1562
351.4039	0.1276
351.613	0.1429
351.822	0.1492
352.0311	0.1674
352.2402	0.1554
352.4492	0.1591
352.6582	0.1496
352.8672	0.149
353.0762	0.1505
353.2852	0.1506
353.4942	0.1508
353.7032	0.1573
353.9121	0.1513
354.1211	0.1599
354.33	0.1759
354.5389	0.1554
354.7478	0.1552
354.9567	0.144
355.1655	0.1491
355.3744	0.1603
355.5833	0.1575
355.7921	0.1603
356.0009	0.1639
356.2097	0.1723
356.4185	0.166
356.6273	0.1703
356.8361	0.1769
357.0448	0.1559
357.2536	0.152
357.4623	0.1554
357.671	0.1635
357.8797	0.1682
358.0884	0.1627
358.2971	0.163
358.5057	0.1676
358.7144	0.1817
358.923	0.1691
359.1316	0.1682
359.3402	0.1722
359.5488	0.1616
359.7574	0.1625
359.966	0.1642
360.1746	0.1696
360.3831	0.1755
360.5916	0.16
360.8002	0.1802
361.0087	0.1801
361.2172	0.1696
361.4256	0.1783
361.6341	0.1916
361.8426	0.1678
362.051	0.1676
362.2594	0.1815
362.4678	0.1851
362.6762	0.1916
362.8846	0.1622
363.093	0.1836
363.3014	0.1856
363.5097	0.1602
363.718	0.1781
363.9264	0.1688
364.1347	0.1779
364.343	0.1885
364.5513	0.1999
364.7595	0.1841
364.9678	0.1884
365.176	0.1868
365.3842	0.1852
365.5925	0.1818
365.8007	0.1947
366.0089	0.1933
366.217	0.174
366.4252	0.1948
366.6333	0.1908
366.8415	0.1869
367.0496	0.1749
367.2577	0.2015
367.4658	0.2042
367.6739	0.1911
367.882	0.1711
368.09	0.1861
368.2981	0.1965
368.5061	0.1852
368.7141	0.1983
368.9221	0.2045
369.1301	0.1869
369.3381	0.1783
369.5461	0.1948
369.754	0.1917
369.962	0.1937
370.1699	0.1934
370.3778	0.208
370.5857	0.1951
370.7936	0.1988
371.0015	0.1836
371.2093	0.1963
371.4172	0.2013
371.625	0.1926
371.8328	0.1894
372.0406	0.1911
372.2484	0.1739
372.4562	0.1999
372.664	0.2047
372.8717	0.2152
373.0795	0.1813
373.2872	0.1894
373.4949	0.1983
373.7026	0.2036
373.9103	0.2079
374.118	0.2091
374.3256	0.1844
374.5333	0.2007
374.7409	0.1938
374.9485	0.2134
375.1561	0.1933
375.3637	0.2061
375.5713	0.2026
375.7789	0.1966
375.9864	0.2184
376.194	0.2057
376.4015	0.215
376.609	0.2302
376.8165	0.2143
377.024	0.204
377.2315	0.1991
377.4389	0.2046
377.6464	0.2077
377.8538	0.2106
378.0612	0.2103
378.2686	0.225
378.476	0.204
378.6834	0.2135
378.8908	0.2227
379.0981	0.2048
379.3055	0.2178
379.5128	0.2047
379.7201	0.2143
379.9274	0.1954
380.1347	0.2017
380.342	0.2324
380.5492	0.2109
380.7565	0.2022
380.9637	0.2109
381.1709	0.1982
381.3781	0.2123
381.5853	0.2161
381.7925	0.2219
381.9997	0.2313
382.2068	0.2362
382.4139	0.2246
382.6211	0.207
382.8282	0.2143
383.0353	0.202
383.2424	0.2126
383.4494	0.2087
383.6565	0.2146
383.8635	0.2034
384.0706	0.2204
384.2776	0.2316
384.4846	0.2066
384.6916	0.2252
384.8986	0.2167
385.1055	0.2259
385.3125	0.1922
385.5194	0.2054
385.7263	0.2194
385.9333	0.2189
386.1402	0.2122
386.347	0.2205
386.5539	0.2064
386.7608	0.2331
386.9676	0.2228
387.1744	0.2181
387.3813	0.1952
387.5881	0.2227
387.7948	0.2096
388.0016	0.2224
388.2084	0.2055
388.4151	0.2046
388.6219	0.2131
388.8286	0.1944
389.0353	0.2222
389.242	0.2134
389.4487	0.2016
389.6553	0.1906
389.862	0.1916
390.0686	0.2042
390.2753	0.2046
390.4819	0.1938
390.6885	0.2027
390.8951	0.1987
391.1016	0.2043
391.3082	0.1972
391.5147	0.2026
391.7213	0.1975
391.9278	0.1916
392.1343	0.1828
392.3408	0.19
392.5473	0.19
392.7537	0.1891
392.9602	0.1842
393.1666	0.1889
393.373	0.1933
393.5794	0.2012
393.7858	0.1784
393.9922	0.1787
394.1986	0.1944
394.4049	0.1867
394.6113	0.1777
394.8176	0.1804
395.0239	0.1841
395.2302	0.1766
395.4365	0.1809
395.6428	0.1875
395.8491	0.1734
396.0553	0.1875
396.2615	0.1769
396.4678	0.1856
396.674	0.1691
396.8802	0.1664
397.0863	0.1875
397.2925	0.1734
397.4987	0.157
397.7048	0.1772
397.9109	0.1891
398.117	0.1793
398.3231	0.164
398.5292	0.1859
398.7353	0.1831
398.9413	0.1786
399.1474	0.1727
399.3534	0.191
399.5594	0.1538
399.7654	0.181
399.9714	0.184
400.1774	0.1795
400.3833	0.1575
400.5893	0.1799
400.7952	0.162
401.0011	0.1831
401.207	0.1798
401.4129	0.1779
401.6188	0.1759
401.8247	0.1718
402.0305	0.1717
402.2364	0.1717
402.4422	0.1847
402.648	0.1676
402.8538	0.2048
403.0596	0.1615
403.2654	0.1691
403.4711	0.1575
403.6768	0.1909
403.8826	0.1919
404.0883	0.1766
404.294	0.1765
404.4997	0.1784
404.7054	0.1784
404.911	0.1609
405.1167	0.1676
405.3223	0.1857
405.5279	0.1708
405.7335	0.176
405.9391	0.174
406.1447	0.1634
406.3502	0.1908
406.5558	0.1562
406.7613	0.1904
406.9668	0.1746
407.1724	0.1696
407.3778	0.154
407.5833	0.1654
407.7888	0.1688
407.9942	0.1989
408.1997	0.1718
408.4051	0.1751
408.6105	0.1677
408.8159	0.1613
409.0213	0.1736
409.2267	0.1732
409.432	0.1609
409.6374	0.1765
409.8427	0.1749
410.048	0.1659
410.2533	0.16
410.4586	0.1728
410.6639	0.1635
410.8691	0.1582
411.0744	0.1676
411.2796	0.1477
411.4848	0.1561
411.69	0.1675
411.8952	0.1799
412.1004	0.1676
412.3056	0.1787
412.5107	0.1562
412.7158	0.1952
412.921	0.1533
413.1261	0.1768
413.3312	0.1729
413.5362	0.1529
413.7413	0.1535
413.9464	0.168
414.1514	0.173
414.3564	0.1557
414.5614	0.159
414.7664	0.1659
414.9714	0.1644
415.1764	0.1574
415.3813	0.1755
415.5863	0.166
415.7912	0.1567
415.9961	0.174
416.201	0.1741
416.4059	0.1789
416.6108	0.1528
416.8156	0.1621
417.0205	0.1742
417.2253	0.1549
417.4301	0.1758
417.6349	0.153
417.8397	0.1424
418.0445	0.1479
418.2492	0.1493
418.454	0.1663
418.6587	0.1548
418.8634	0.1593
419.0681	0.144
419.2728	0.1423
419.4775	0.1397
419.6822	0.1522
419.8868	0.1269
420.0915	0.1433
420.2961	0.1445
420.5007	0.1442
420.7053	0.1643
420.9099	0.1539
421.1144	0.1476
421.319	0.1539
421.5235	0.1503
421.728	0.1397
421.9325	0.1499
422.137	0.1537
422.3415	0.1327
422.546	0.1445
422.7504	0.1357
422.9549	0.1581
423.1593	0.1672
423.3637	0.1403
423.5681	0.1286
423.7725	0.126
423.9769	0.127
424.1812	0.133
424.3856	0.1325
424.5899	0.1539
424.7942	0.1416
424.9985	0.1332
425.2028	0.1291
425.4071	0.1503
425.6113	0.1341
425.8156	0.1372
426.0198	0.1352
426.224	0.1205
426.4282	0.1184
426.6324	0.1215
426.8366	0.1294
