Data from MonoPyChalIsomerACN10uM420nmA_Absorbance_15-09-49-735.txt Node
Date: Fri Jul 05 15:09:49 BST 2024
User: LASERRRRR
Spectrometer: FLMT03099
Trigger mode: 0
Integration Time (sec): 1.000000E-1
Scans to average: 1
Electric dark correction enabled: true
Nonlinearity correction enabled: false
Boxcar width: 0
XAxis mode: Wavelengths
Number of Pixels in Spectrum: 3648
>>>>>Begin Spectral Data<<<<<
179.3399	-0.5708
179.5586	-0.5708
179.7771	-0.5708
179.9957	-0
180.2143	-0
180.4329	-0.2207
180.6514	-0
180.8699	-0.3466
181.0885	0.025
181.307	0.3649
181.5255	-0
181.744	0.1214
181.9625	-0.7557
182.181	-1.2534
182.3994	0.4584
182.6179	-0
182.8363	0.0953
183.0547	0.0527
183.2732	-0.0691
183.4916	0.0533
183.71	0.0974
183.9284	0.0425
184.1467	-0.1818
184.3651	-0.0964
184.5835	-0.077
184.8018	0.4531
185.0201	0.0216
185.2385	-0.1626
185.4568	0.1876
185.6751	0.1138
185.8934	0.2919
186.1117	0.0572
186.3299	0.2259
186.5482	0.0799
186.7664	0.0364
186.9847	-0.0251
187.2029	-0.0627
187.4211	0.179
187.6393	0.3854
187.8575	-0.1804
188.0757	0.228
188.2939	0.0229
188.512	0.0821
188.7302	0.2284
188.9483	-0.052
189.1665	0.0635
189.3846	0.4605
189.6027	0.1724
189.8208	0.2698
190.0389	0.235
190.257	0.2466
190.475	0.1926
190.6931	0.2594
190.9111	0.5348
191.1292	0.139
191.3472	0.2606
191.5652	0.2347
191.7832	0.5541
192.0012	0.6541
192.2192	0.3341
192.4371	0.5769
192.6551	0.4044
192.873	0.4796
193.091	0.2465
193.3089	0.4638
193.5268	0.351
193.7447	0.5469
193.9626	0.5549
194.1805	0.8587
194.3984	0.7163
194.6162	0.5247
194.8341	0.466
195.0519	0.5585
195.2697	0.7405
195.4875	0.6658
195.7054	0.5843
195.9231	0.579
196.1409	0.5015
196.3587	0.4872
196.5765	0.6954
196.7942	0.5156
197.012	0.3529
197.2297	0.5084
197.4474	0.8485
197.6651	0.782
197.8828	0.4656
198.1005	0.5572
198.3182	0.5822
198.5358	0.6772
198.7535	0.6066
198.9711	0.6322
199.1888	0.6669
199.4064	0.8746
199.624	0.586
199.8416	0.554
200.0592	0.6085
200.2767	0.5801
200.4943	0.7763
200.7119	0.7247
200.9294	0.6085
201.1469	0.579
201.3645	0.568
201.582	0.5192
201.7995	0.6133
202.017	0.6058
202.2344	0.6095
202.4519	0.6594
202.6694	0.7957
202.8868	0.5749
203.1042	0.8042
203.3217	0.721
203.5391	0.7855
203.7565	0.505
203.9739	0.5739
204.1913	0.6942
204.4086	0.6438
204.626	0.6497
204.8433	0.7349
205.0607	0.57
205.278	0.6941
205.4953	0.5968
205.7126	0.735
205.9299	0.8167
206.1472	0.7431
206.3644	0.5925
206.5817	0.7464
206.7989	0.7058
207.0162	0.677
207.2334	0.6381
207.4506	0.6884
207.6678	0.6244
207.885	0.7059
208.1022	0.6705
208.3194	0.6749
208.5365	0.6588
208.7537	0.6326
208.9708	0.5766
209.1879	0.6838
209.405	0.7327
209.6222	0.7345
209.8392	0.5933
210.0563	0.5932
210.2734	0.6872
210.4905	0.6481
210.7075	0.6479
210.9245	0.6468
211.1416	0.6689
211.3586	0.6987
211.5756	0.5983
211.7926	0.5838
212.0096	0.6141
212.2265	0.5658
212.4435	0.5915
212.6604	0.6147
212.8774	0.5966
213.0943	0.5486
213.3112	0.6092
213.5281	0.5174
213.745	0.5177
213.9619	0.5314
214.1788	0.5235
214.3956	0.4627
214.6125	0.4693
214.8293	0.4503
215.0461	0.4969
215.2629	0.4872
215.4798	0.4876
215.6965	0.4428
215.9133	0.4541
216.1301	0.4198
216.3469	0.4374
216.5636	0.4312
216.7803	0.3847
216.9971	0.4121
217.2138	0.394
217.4305	0.3972
217.6472	0.3478
217.8639	0.375
218.0805	0.375
218.2972	0.3471
218.5138	0.3572
218.7305	0.3519
218.9471	0.3044
219.1637	0.3003
219.3803	0.275
219.5969	0.2683
219.8135	0.2714
220.0301	0.2899
220.2466	0.2781
220.4632	0.2795
220.6797	0.2393
220.8962	0.2377
221.1127	0.284
221.3292	0.2605
221.5457	0.231
221.7622	0.242
221.9787	0.2454
222.1951	0.2459
222.4116	0.2802
222.628	0.265
222.8444	0.25
223.0608	0.2576
223.2772	0.251
223.4936	0.2661
223.71	0.243
223.9264	0.2664
224.1427	0.2582
224.3591	0.2607
224.5754	0.2728
224.7917	0.2787
225.008	0.257
225.2243	0.2631
225.4406	0.2953
225.6569	0.2878
225.8732	0.2559
226.0894	0.2722
226.3057	0.2896
226.5219	0.2849
226.7381	0.2969
226.9543	0.2901
227.1705	0.3141
227.3867	0.2928
227.6029	0.3087
227.8191	0.2968
228.0352	0.295
228.2513	0.298
228.4675	0.3162
228.6836	0.2974
228.8997	0.2961
229.1158	0.3171
229.3319	0.3275
229.548	0.3338
229.764	0.3128
229.9801	0.3096
230.1961	0.3259
230.4121	0.3333
230.6282	0.3478
230.8442	0.3313
231.0602	0.3561
231.2761	0.3484
231.4921	0.3327
231.7081	0.356
231.924	0.3497
232.14	0.3634
232.3559	0.3317
232.5718	0.3674
232.7877	0.3596
233.0036	0.3584
233.2195	0.3702
233.4353	0.3515
233.6512	0.3605
233.867	0.3581
234.0829	0.3641
234.2987	0.3726
234.5145	0.3766
234.7303	0.3836
234.9461	0.403
235.1619	0.3748
235.3776	0.3936
235.5934	0.3887
235.8091	0.3848
236.0249	0.3737
236.2406	0.3874
236.4563	0.3762
236.672	0.3983
236.8877	0.4106
237.1034	0.3941
237.319	0.4001
237.5347	0.4163
237.7503	0.4114
237.966	0.4137
238.1816	0.4151
238.3972	0.4078
238.6128	0.4006
238.8284	0.4055
239.0439	0.4384
239.2595	0.4224
239.475	0.4255
239.6906	0.4283
239.9061	0.3925
240.1216	0.421
240.3371	0.4109
240.5526	0.3933
240.7681	0.4091
240.9836	0.3947
241.199	0.3996
241.4145	0.3977
241.6299	0.3965
241.8453	0.3686
242.0607	0.3824
242.2761	0.3627
242.4915	0.363
242.7069	0.3868
242.9223	0.3624
243.1376	0.3636
243.353	0.3592
243.5683	0.3598
243.7836	0.3341
243.9989	0.3337
244.2142	0.3108
244.4295	0.3164
244.6448	0.3138
244.86	0.3156
245.0753	0.2775
245.2905	0.2837
245.5057	0.2738
245.721	0.2746
245.9362	0.2748
246.1514	0.2706
246.3665	0.2741
246.5817	0.2559
246.7969	0.2601
247.012	0.2346
247.2271	0.231
247.4423	0.2586
247.6574	0.2505
247.8725	0.2329
248.0876	0.2219
248.3026	0.2373
248.5177	0.2269
248.7328	0.2027
248.9478	0.2159
249.1628	0.2151
249.3779	0.2158
249.5929	0.2116
249.8079	0.2288
250.0228	0.203
250.2378	0.2168
250.4528	0.1969
250.6677	0.1859
250.8827	0.1968
251.0976	0.1962
251.3125	0.1955
251.5274	0.1855
251.7423	0.1871
251.9572	0.1982
252.172	0.1837
252.3869	0.1955
252.6017	0.1824
252.8166	0.1778
253.0314	0.1703
253.2462	0.1693
253.461	0.1843
253.6758	0.1763
253.8906	0.1776
254.1053	0.1712
254.3201	0.1813
254.5348	0.1889
254.7496	0.1818
254.9643	0.1728
255.179	0.1786
255.3937	0.1765
255.6083	0.1786
255.823	0.1707
256.0377	0.1776
256.2523	0.1704
256.467	0.1508
256.6816	0.1804
256.8962	0.1838
257.1108	0.1663
257.3254	0.1763
257.54	0.1723
257.7545	0.173
257.9691	0.1822
258.1836	0.1801
258.3981	0.1696
258.6127	0.1768
258.8272	0.1703
259.0417	0.1728
259.2561	0.1747
259.4706	0.1726
259.6851	0.1739
259.8995	0.1668
260.114	0.1776
260.3284	0.1636
260.5428	0.1595
260.7572	0.1652
260.9716	0.18
261.186	0.1504
261.4003	0.1765
261.6147	0.1771
261.829	0.1718
262.0433	0.1614
262.2577	0.159
262.472	0.1673
262.6863	0.1678
262.9005	0.1704
263.1148	0.1721
263.3291	0.1593
263.5433	0.1721
263.7576	0.1646
263.9718	0.166
264.186	0.1762
264.4002	0.1716
264.6144	0.1714
264.8286	0.1741
265.0427	0.1739
265.2569	0.1628
265.471	0.1727
265.6851	0.1625
265.8993	0.161
266.1134	0.1648
266.3275	0.1619
266.5415	0.1615
266.7556	0.1672
266.9697	0.1644
267.1837	0.1794
267.3978	0.1597
267.6118	0.1758
267.8258	0.1661
268.0398	0.1529
268.2538	0.1666
268.4677	0.1594
268.6817	0.1655
268.8957	0.1612
269.1096	0.1736
269.3235	0.1677
269.5374	0.1527
269.7514	0.1616
269.9652	0.1575
270.1791	0.1498
270.393	0.1497
270.6068	0.1606
270.8207	0.1316
271.0345	0.1374
271.2483	0.1607
271.4622	0.1429
271.676	0.1596
271.8897	0.1566
272.1035	0.1488
272.3173	0.1308
272.531	0.1489
272.7448	0.1493
272.9585	0.1361
273.1722	0.1491
273.3859	0.1463
273.5996	0.1347
273.8133	0.1416
274.0269	0.1457
274.2406	0.1325
274.4542	0.1471
274.6679	0.1304
274.8815	0.1487
275.0951	0.1481
275.3087	0.1499
275.5223	0.1532
275.7358	0.1472
275.9494	0.153
276.1629	0.147
276.3765	0.1485
276.59	0.1413
276.8035	0.147
277.017	0.1441
277.2305	0.1344
277.444	0.1434
277.6574	0.1492
277.8709	0.149
278.0843	0.1397
278.2978	0.1365
278.5112	0.1435
278.7246	0.1392
278.938	0.1541
279.1513	0.1595
279.3647	0.1512
279.5781	0.1395
279.7914	0.1516
280.0047	0.1612
280.2181	0.1489
280.4314	0.1602
280.6447	0.1575
280.8579	0.1528
281.0712	0.1545
281.2845	0.1491
281.4977	0.1504
281.711	0.1487
281.9242	0.1432
282.1374	0.1571
282.3506	0.1539
282.5638	0.161
282.7769	0.162
282.9901	0.1483
283.2033	0.1615
283.4164	0.1607
283.6295	0.1498
283.8426	0.1446
284.0557	0.1418
284.2688	0.1684
284.4819	0.1662
284.695	0.1528
284.908	0.1529
285.1211	0.1572
285.3341	0.1576
285.5471	0.1681
285.7601	0.1512
285.9731	0.1507
286.1861	0.1623
286.3991	0.1692
286.612	0.1654
286.825	0.1505
287.0379	0.1752
287.2508	0.1667
287.4637	0.1617
287.6766	0.1595
287.8895	0.1654
288.1024	0.18
288.3152	0.1687
288.5281	0.162
288.7409	0.1727
288.9538	0.1619
289.1666	0.1616
289.3794	0.1696
289.5922	0.1625
289.8049	0.1686
290.0177	0.1702
290.2304	0.1762
290.4432	0.1675
290.6559	0.1812
290.8686	0.1747
291.0813	0.164
291.294	0.1737
291.5067	0.1783
291.7194	0.1695
291.932	0.1826
292.1447	0.1786
292.3573	0.1539
292.5699	0.1689
292.7825	0.1616
292.9951	0.176
293.2077	0.1836
293.4203	0.1793
293.6328	0.1645
293.8454	0.1702
294.0579	0.1729
294.2704	0.1797
294.4829	0.1591
294.6954	0.1742
294.9079	0.1797
295.1204	0.1678
295.3328	0.169
295.5453	0.1622
295.7577	0.1749
295.9701	0.1547
296.1825	0.1708
296.3949	0.1637
296.6073	0.1736
296.8197	0.1647
297.0321	0.1712
297.2444	0.158
297.4567	0.168
297.6691	0.1679
297.8814	0.1635
298.0937	0.1628
298.306	0.1647
298.5182	0.1685
298.7305	0.1778
298.9428	0.1576
299.155	0.1756
299.3672	0.1605
299.5794	0.1652
299.7916	0.1644
300.0038	0.1692
300.216	0.1715
300.4282	0.1708
300.6403	0.1708
300.8525	0.178
301.0646	0.1687
301.2767	0.1693
301.4888	0.1587
301.7009	0.176
301.913	0.1618
302.125	0.1659
302.3371	0.1649
302.5491	0.1738
302.7612	0.1666
302.9732	0.1722
303.1852	0.1653
303.3972	0.1708
303.6092	0.1605
303.8211	0.155
304.0331	0.1695
304.245	0.1616
304.457	0.1662
304.6689	0.161
304.8808	0.1644
305.0927	0.1568
305.3046	0.1486
305.5164	0.161
305.7283	0.1561
305.9401	0.1493
306.152	0.1535
306.3638	0.1628
306.5756	0.1464
306.7874	0.1551
306.9992	0.1507
307.2109	0.1424
307.4227	0.1267
307.6344	0.151
307.8462	0.1412
308.0579	0.1419
308.2696	0.1418
308.4813	0.1344
308.693	0.1475
308.9046	0.1495
309.1163	0.1252
309.328	0.1452
309.5396	0.1166
309.7512	0.1294
309.9628	0.1226
310.1744	0.123
310.386	0.1205
310.5976	0.1157
310.8091	0.1274
311.0207	0.121
311.2322	0.1213
311.4437	0.1135
311.6552	0.1191
311.8667	0.1239
312.0782	0.0997
312.2897	0.1031
312.5012	0.1067
312.7126	0.1083
312.924	0.0988
313.1355	0.1116
313.3469	0.1119
313.5583	0.1107
313.7696	0.1089
313.981	0.1112
314.1924	0.0998
314.4037	0.1024
314.6151	0.1043
314.8264	0.0977
315.0377	0.0959
315.249	0.1021
315.4603	0.1026
315.6716	0.1084
315.8828	0.0936
316.0941	0.0943
316.3053	0.1031
316.5165	0.0912
316.7277	0.0918
316.9389	0.1038
317.1501	0.0789
317.3613	0.1131
317.5724	0.0846
317.7836	0.1136
317.9947	0.0948
318.2058	0.0913
318.417	0.0943
318.6281	0.0781
318.8391	0.101
319.0502	0.0927
319.2613	0.0976
319.4723	0.1012
319.6834	0.1026
319.8944	0.0898
320.1054	0.0991
320.3164	0.097
320.5274	0.1028
320.7383	0.0925
320.9493	0.1027
321.1602	0.1106
321.3712	0.0789
321.5821	0.0917
321.793	0.1083
322.0039	0.101
322.2148	0.0903
322.4257	0.1106
322.6365	0.0946
322.8474	0.094
323.0582	0.0965
323.269	0.0959
323.4798	0.1115
323.6906	0.1001
323.9014	0.0972
324.1122	0.106
324.3229	0.1069
324.5337	0.1023
324.7444	0.0972
324.9551	0.1173
325.1658	0.0995
325.3765	0.1117
325.5872	0.1111
325.7979	0.0945
326.0085	0.1086
326.2192	0.1007
326.4298	0.1038
326.6404	0.0934
326.851	0.0869
327.0616	0.0903
327.2722	0.0894
327.4828	0.1156
327.6933	0.0991
327.9039	0.1139
328.1144	0.1002
328.3249	0.0954
328.5354	0.1011
328.7459	0.0966
328.9564	0.0948
329.1669	0.1118
329.3773	0.1015
329.5878	0.112
329.7982	0.106
330.0086	0.097
330.219	0.1023
330.4294	0.1045
330.6398	0.1043
330.8502	0.0967
331.0605	0.1046
331.2708	0.1049
331.4812	0.1107
331.6915	0.1147
331.9018	0.1054
332.1121	0.0998
332.3224	0.1067
332.5326	0.1055
332.7429	0.1002
332.9531	0.1166
333.1633	0.1102
333.3735	0.1146
333.5837	0.1
333.7939	0.1069
334.0041	0.1246
334.2143	0.1173
334.4244	0.1161
334.6346	0.09
334.8447	0.1216
335.0548	0.0938
335.2649	0.0962
335.475	0.1191
335.685	0.1048
335.8951	0.1171
336.1051	0.1084
336.3152	0.1153
336.5252	0.1178
336.7352	0.1017
336.9452	0.1145
337.1552	0.1089
337.3652	0.1069
337.5751	0.1021
337.7851	0.1088
337.995	0.1138
338.2049	0.1114
338.4148	0.1098
338.6247	0.0967
338.8346	0.0955
339.0445	0.1108
339.2543	0.1025
339.4642	0.1134
339.674	0.1036
339.8838	0.1058
340.0936	0.1002
340.3034	0.1274
340.5132	0.1078
340.7229	0.1159
340.9327	0.1121
341.1424	0.1157
341.3522	0.1233
341.5619	0.1204
341.7716	0.1151
341.9813	0.1115
342.1909	0.1105
342.4006	0.1275
342.6102	0.1245
342.8199	0.1246
343.0295	0.121
343.2391	0.1189
343.4487	0.1219
343.6583	0.1165
343.8679	0.1239
344.0774	0.1245
344.287	0.1211
344.4965	0.1246
344.706	0.1149
344.9155	0.1165
345.125	0.1108
345.3345	0.1272
345.544	0.1221
345.7534	0.1167
345.9629	0.116
346.1723	0.1341
346.3817	0.1292
346.5911	0.1174
346.8005	0.1301
347.0099	0.1189
347.2193	0.1319
347.4286	0.1334
347.638	0.1414
347.8473	0.1399
348.0566	0.1436
348.2659	0.136
348.4752	0.1467
348.6845	0.1266
348.8937	0.1309
349.103	0.1477
349.3122	0.1246
349.5214	0.134
349.7306	0.1339
349.9398	0.144
350.149	0.1381
350.3582	0.1327
350.5674	0.1531
350.7765	0.1511
350.9856	0.1347
351.1948	0.1321
351.4039	0.1263
351.613	0.1342
351.822	0.1392
352.0311	0.1352
352.2402	0.1352
352.4492	0.1373
352.6582	0.1533
352.8672	0.1462
353.0762	0.1505
353.2852	0.1469
353.4942	0.1452
353.7032	0.1584
353.9121	0.1516
354.1211	0.1444
354.33	0.159
354.5389	0.1518
354.7478	0.1504
354.9567	0.1515
355.1655	0.1405
355.3744	0.1543
355.5833	0.1514
355.7921	0.1699
356.0009	0.1672
356.2097	0.1776
356.4185	0.1663
356.6273	0.1725
356.8361	0.1614
357.0448	0.148
357.2536	0.1595
357.4623	0.1471
357.671	0.1674
357.8797	0.1522
358.0884	0.1727
358.2971	0.1593
358.5057	0.1621
358.7144	0.1658
358.923	0.174
359.1316	0.1685
359.3402	0.1658
359.5488	0.1783
359.7574	0.1646
359.966	0.1785
360.1746	0.1727
360.3831	0.1848
360.5916	0.1664
360.8002	0.1664
361.0087	0.174
361.2172	0.1942
361.4256	0.1818
361.6341	0.1895
361.8426	0.1934
362.051	0.1699
362.2594	0.1846
362.4678	0.1955
362.6762	0.1994
362.8846	0.1873
363.093	0.1808
363.3014	0.1746
363.5097	0.1614
363.718	0.1795
363.9264	0.2024
364.1347	0.1852
364.343	0.2033
364.5513	0.1805
364.7595	0.21
364.9678	0.2072
365.176	0.1891
365.3842	0.1967
365.5925	0.1915
365.8007	0.2067
366.0089	0.1948
366.217	0.1889
366.4252	0.2182
366.6333	0.2022
366.8415	0.2192
367.0496	0.1911
367.2577	0.1984
367.4658	0.2153
367.6739	0.2029
367.882	0.2097
368.09	0.2111
368.2981	0.1998
368.5061	0.2079
368.7141	0.2019
368.9221	0.2227
369.1301	0.2292
369.3381	0.2163
369.5461	0.214
369.754	0.217
369.962	0.2253
370.1699	0.2309
370.3778	0.2184
370.5857	0.2257
370.7936	0.2088
371.0015	0.2095
371.2093	0.2135
371.4172	0.2355
371.625	0.2087
371.8328	0.2046
372.0406	0.2271
372.2484	0.235
372.4562	0.2305
372.664	0.2161
372.8717	0.236
373.0795	0.2093
373.2872	0.2162
373.4949	0.2247
373.7026	0.2132
373.9103	0.2263
374.118	0.2378
374.3256	0.2292
374.5333	0.223
374.7409	0.2248
374.9485	0.2424
375.1561	0.2323
375.3637	0.236
375.5713	0.2413
375.7789	0.2392
375.9864	0.2375
376.194	0.2372
376.4015	0.2461
376.609	0.2451
376.8165	0.2362
377.024	0.2328
377.2315	0.2318
377.4389	0.2476
377.6464	0.25
377.8538	0.2511
378.0612	0.234
378.2686	0.2461
378.476	0.2619
378.6834	0.2544
378.8908	0.251
379.0981	0.247
379.3055	0.2415
379.5128	0.2482
379.7201	0.2391
379.9274	0.2319
380.1347	0.2431
380.342	0.2712
380.5492	0.2534
380.7565	0.2554
380.9637	0.2673
381.1709	0.2478
381.3781	0.257
381.5853	0.2605
381.7925	0.2591
381.9997	0.2705
382.2068	0.2632
382.4139	0.2616
382.6211	0.2477
382.8282	0.2409
383.0353	0.2619
383.2424	0.248
383.4494	0.2727
383.6565	0.2417
383.8635	0.2554
384.0706	0.2642
384.2776	0.2707
384.4846	0.2375
384.6916	0.2723
384.8986	0.2469
385.1055	0.2677
385.3125	0.2792
385.5194	0.2614
385.7263	0.2676
385.9333	0.262
386.1402	0.2475
386.347	0.2567
386.5539	0.2542
386.7608	0.2578
386.9676	0.242
387.1744	0.2533
387.3813	0.2395
387.5881	0.2416
387.7948	0.2381
388.0016	0.2442
388.2084	0.2732
388.4151	0.2376
388.6219	0.27
388.8286	0.2749
389.0353	0.2719
389.242	0.2565
389.4487	0.2478
389.6553	0.2505
389.862	0.2328
390.0686	0.2347
390.2753	0.237
390.4819	0.2644
390.6885	0.2354
390.8951	0.258
391.1016	0.2466
391.3082	0.2382
391.5147	0.2537
391.7213	0.2491
391.9278	0.2403
392.1343	0.2311
392.3408	0.2591
392.5473	0.2538
392.7537	0.225
392.9602	0.2251
393.1666	0.2511
393.373	0.2314
393.5794	0.2504
393.7858	0.2284
393.9922	0.22
394.1986	0.2354
394.4049	0.2338
394.6113	0.2311
394.8176	0.2161
395.0239	0.2164
395.2302	0.2249
395.4365	0.2199
395.6428	0.2372
395.8491	0.2153
396.0553	0.2393
396.2615	0.2168
396.4678	0.2235
396.674	0.2047
396.8802	0.2325
397.0863	0.2431
397.2925	0.2076
397.4987	0.2331
397.7048	0.2176
397.9109	0.2212
398.117	0.2118
398.3231	0.2096
398.5292	0.2232
398.7353	0.2394
398.9413	0.2304
399.1474	0.2221
399.3534	0.2037
399.5594	0.2051
399.7654	0.2288
399.9714	0.2472
400.1774	0.2243
400.3833	0.2073
400.5893	0.2159
400.7952	0.2132
401.0011	0.226
401.207	0.2252
401.4129	0.221
401.6188	0.2164
401.8247	0.222
402.0305	0.2143
402.2364	0.2156
402.4422	0.2297
402.648	0.2375
402.8538	0.2301
403.0596	0.2051
403.2654	0.2383
403.4711	0.2119
403.6768	0.2261
403.8826	0.2256
404.0883	0.2234
404.294	0.2223
404.4997	0.2233
404.7054	0.2153
404.911	0.2158
405.1167	0.2265
405.3223	0.219
405.5279	0.2314
405.7335	0.2493
405.9391	0.2223
406.1447	0.2159
406.3502	0.2316
406.5558	0.2367
406.7613	0.2215
406.9668	0.2246
407.1724	0.2054
407.3778	0.2253
407.5833	0.2138
407.7888	0.231
407.9942	0.2287
408.1997	0.2005
408.4051	0.2126
408.6105	0.2172
408.8159	0.2154
409.0213	0.2133
409.2267	0.2306
409.432	0.1914
409.6374	0.2234
409.8427	0.2027
410.048	0.2141
410.2533	0.2021
410.4586	0.2178
410.6639	0.1857
410.8691	0.2031
411.0744	0.1968
411.2796	0.2196
411.4848	0.2127
411.69	0.2068
411.8952	0.2289
412.1004	0.2232
412.3056	0.2161
412.5107	0.2202
412.7158	0.2221
412.921	0.2142
413.1261	0.2221
413.3312	0.1935
413.5362	0.2128
413.7413	0.2065
413.9464	0.215
414.1514	0.2041
414.3564	0.2053
414.5614	0.2146
414.7664	0.2053
414.9714	0.2214
415.1764	0.2051
415.3813	0.2235
415.5863	0.208
415.7912	0.2021
415.9961	0.2093
416.201	0.2137
416.4059	0.2136
416.6108	0.2013
416.8156	0.222
417.0205	0.2138
417.2253	0.1992
417.4301	0.2272
417.6349	0.2013
417.8397	0.2059
418.0445	0.2047
418.2492	0.2045
418.454	0.2028
418.6587	0.2191
418.8634	0.2117
419.0681	0.1882
419.2728	0.1908
419.4775	0.2056
419.6822	0.1954
419.8868	0.196
420.0915	0.1873
420.2961	0.1961
420.5007	0.1921
420.7053	0.191
420.9099	0.2002
421.1144	0.1941
421.319	0.1905
421.5235	0.2093
421.728	0.1981
421.9325	0.1797
422.137	0.2144
422.3415	0.1869
422.546	0.1972
422.7504	0.1901
422.9549	0.2031
423.1593	0.1866
423.3637	0.184
423.5681	0.1905
423.7725	0.1885
423.9769	0.1741
424.1812	0.1803
424.3856	0.1821
424.5899	0.1698
424.7942	0.1782
424.9985	0.1899
425.2028	0.1792
425.4071	0.1934
425.6113	0.1797
425.8156	0.187
426.0198	0.1832
426.224	0.1648
426.4282	0.1796
426.6324	0.1624
