Data from MonoPyChalIsomerACN10uM420nmA_Absorbance_15-09-53-734.txt Node
Date: Fri Jul 05 15:09:53 BST 2024
User: LASERRRRR
Spectrometer: FLMT03099
Trigger mode: 0
Integration Time (sec): 1.000000E-1
Scans to average: 1
Electric dark correction enabled: true
Nonlinearity correction enabled: false
Boxcar width: 0
XAxis mode: Wavelengths
Number of Pixels in Spectrum: 3648
>>>>>Begin Spectral Data<<<<<
179.3399	-0.0601
179.5586	-0.0601
179.7771	-0.0601
179.9957	0.1006
180.2143	-0
180.4329	-0.0665
180.6514	0.2748
180.8699	0.2617
181.0885	0.0024
181.307	0.1669
181.5255	0.9777
181.744	-0.4364
181.9625	-0
182.181	-0.7891
182.3994	0.9089
182.6179	-0
182.8363	-0.1007
183.0547	-0.4004
183.2732	-0.0203
183.4916	0.2569
183.71	0.1411
183.9284	0.118
184.1467	0.027
184.3651	0.0237
184.5835	-0.0864
184.8018	0.0346
185.0201	-0.0425
185.2385	0.102
185.4568	0.0039
185.6751	0.2924
185.8934	0.2406
186.1117	-0.0117
186.3299	0.0374
186.5482	0.3928
186.7664	-0.0194
186.9847	-0.0522
187.2029	-0.0165
187.4211	0.0123
187.6393	0.4942
187.8575	0.1984
188.0757	0.0388
188.2939	0.1792
188.512	0.0969
188.7302	-0.0808
188.9483	0.0752
189.1665	0.1969
189.3846	0.2045
189.6027	0.1038
189.8208	0.1865
190.0389	0.1155
190.257	0.2237
190.475	0.0407
190.6931	0.2227
190.9111	0.5107
191.1292	0.1525
191.3472	0.4272
191.5652	0.2873
191.7832	0.3807
192.0012	0.4173
192.2192	0.5077
192.4371	0.4981
192.6551	0.4879
192.873	0.4434
193.091	0.3675
193.3089	0.785
193.5268	0.7343
193.7447	0.5318
193.9626	0.6074
194.1805	0.4965
194.3984	1.0691
194.6162	0.5313
194.8341	0.6558
195.0519	0.5109
195.2697	0.6268
195.4875	0.6066
195.7054	0.6523
195.9231	0.5968
196.1409	0.5552
196.3587	0.5838
196.5765	0.627
196.7942	0.5969
197.012	0.7407
197.2297	0.6059
197.4474	0.8103
197.6651	0.6439
197.8828	0.6081
198.1005	0.5181
198.3182	0.6692
198.5358	0.8354
198.7535	0.5866
198.9711	0.6833
199.1888	0.754
199.4064	0.8068
199.624	0.6819
199.8416	0.579
200.0592	0.5787
200.2767	0.6672
200.4943	0.6605
200.7119	0.8803
200.9294	0.7198
201.1469	0.5732
201.3645	0.5911
201.582	0.5902
201.7995	0.5935
202.017	0.5702
202.2344	0.5901
202.4519	0.719
202.6694	0.6593
202.8868	0.6009
203.1042	0.7884
203.3217	0.7471
203.5391	0.6467
203.7565	0.63
203.9739	0.6257
204.1913	0.6634
204.4086	0.7488
204.626	0.7183
204.8433	0.596
205.0607	0.6479
205.278	0.6341
205.4953	0.572
205.7126	0.639
205.9299	0.775
206.1472	0.7807
206.3644	0.6577
206.5817	0.7069
206.7989	0.7109
207.0162	0.658
207.2334	0.7385
207.4506	0.7045
207.6678	0.6523
207.885	0.7389
208.1022	0.7141
208.3194	0.6928
208.5365	0.7203
208.7537	0.6932
208.9708	0.6386
209.1879	0.7172
209.405	0.6675
209.6222	0.7295
209.8392	0.6974
210.0563	0.5829
210.2734	0.6998
210.4905	0.6776
210.7075	0.6691
210.9245	0.6342
211.1416	0.6666
211.3586	0.6081
211.5756	0.6648
211.7926	0.6637
212.0096	0.626
212.2265	0.5763
212.4435	0.6207
212.6604	0.5631
212.8774	0.5749
213.0943	0.6408
213.3112	0.587
213.5281	0.559
213.745	0.5137
213.9619	0.513
214.1788	0.5002
214.3956	0.5201
214.6125	0.4784
214.8293	0.4748
215.0461	0.4998
215.2629	0.4677
215.4798	0.5063
215.6965	0.475
215.9133	0.4531
216.1301	0.4227
216.3469	0.4449
216.5636	0.4191
216.7803	0.4019
216.9971	0.398
217.2138	0.4027
217.4305	0.3917
217.6472	0.3673
217.8639	0.3828
218.0805	0.3196
218.2972	0.3274
218.5138	0.3035
218.7305	0.3161
218.9471	0.3129
219.1637	0.2961
219.3803	0.2812
219.5969	0.2971
219.8135	0.2685
220.0301	0.2586
220.2466	0.2896
220.4632	0.2759
220.6797	0.245
220.8962	0.2533
221.1127	0.2455
221.3292	0.2539
221.5457	0.2475
221.7622	0.2529
221.9787	0.2628
222.1951	0.2482
222.4116	0.2599
222.628	0.261
222.8444	0.2574
223.0608	0.2404
223.2772	0.2518
223.4936	0.2518
223.71	0.2559
223.9264	0.2911
224.1427	0.2339
224.3591	0.248
224.5754	0.2552
224.7917	0.2721
225.008	0.2601
225.2243	0.2646
225.4406	0.2897
225.6569	0.2931
225.8732	0.2686
226.0894	0.2647
226.3057	0.257
226.5219	0.2967
226.7381	0.2751
226.9543	0.2776
227.1705	0.2993
227.3867	0.2845
227.6029	0.3033
227.8191	0.2933
228.0352	0.2804
228.2513	0.2926
228.4675	0.3284
228.6836	0.3145
228.8997	0.312
229.1158	0.3239
229.3319	0.3061
229.548	0.2967
229.764	0.3227
229.9801	0.3244
230.1961	0.3386
230.4121	0.3307
230.6282	0.3321
230.8442	0.3151
231.0602	0.361
231.2761	0.3579
231.4921	0.3445
231.7081	0.3673
231.924	0.3399
232.14	0.3744
232.3559	0.3619
232.5718	0.3618
232.7877	0.3522
233.0036	0.3453
233.2195	0.367
233.4353	0.3457
233.6512	0.3763
233.867	0.3663
234.0829	0.372
234.2987	0.3716
234.5145	0.3803
234.7303	0.3739
234.9461	0.3919
235.1619	0.382
235.3776	0.3734
235.5934	0.3796
235.8091	0.3745
236.0249	0.3751
236.2406	0.3847
236.4563	0.3814
236.672	0.3968
236.8877	0.4008
237.1034	0.3732
237.319	0.3872
237.5347	0.4061
237.7503	0.3921
237.966	0.3982
238.1816	0.4063
238.3972	0.4047
238.6128	0.3875
238.8284	0.414
239.0439	0.4068
239.2595	0.4123
239.475	0.4181
239.6906	0.4162
239.9061	0.4042
240.1216	0.4028
240.3371	0.4164
240.5526	0.4078
240.7681	0.4034
240.9836	0.3885
241.199	0.4281
241.4145	0.4045
241.6299	0.389
241.8453	0.3881
242.0607	0.3947
242.2761	0.374
242.4915	0.3793
242.7069	0.3729
242.9223	0.3662
243.1376	0.3687
243.353	0.3762
243.5683	0.3673
243.7836	0.3577
243.9989	0.3644
244.2142	0.3275
244.4295	0.3339
244.6448	0.317
244.86	0.3177
245.0753	0.2982
245.2905	0.3043
245.5057	0.2997
245.721	0.2844
245.9362	0.2823
246.1514	0.3015
246.3665	0.2601
246.5817	0.2704
246.7969	0.2586
247.012	0.2562
247.2271	0.2653
247.4423	0.2591
247.6574	0.2604
247.8725	0.2491
248.0876	0.2262
248.3026	0.2424
248.5177	0.238
248.7328	0.2344
248.9478	0.2177
249.1628	0.2238
249.3779	0.2359
249.5929	0.2256
249.8079	0.235
250.0228	0.2231
250.2378	0.2159
250.4528	0.2171
250.6677	0.206
250.8827	0.2109
251.0976	0.2007
251.3125	0.2005
251.5274	0.1804
251.7423	0.201
251.9572	0.2044
252.172	0.1898
252.3869	0.199
252.6017	0.1952
252.8166	0.1882
253.0314	0.1824
253.2462	0.168
253.461	0.1884
253.6758	0.1874
253.8906	0.1843
254.1053	0.1784
254.3201	0.1834
254.5348	0.1869
254.7496	0.1858
254.9643	0.1839
255.179	0.1783
255.3937	0.1704
255.6083	0.1955
255.823	0.1793
256.0377	0.1718
256.2523	0.1808
256.467	0.1484
256.6816	0.1894
256.8962	0.1812
257.1108	0.1732
257.3254	0.179
257.54	0.1664
257.7545	0.1922
257.9691	0.1802
258.1836	0.1728
258.3981	0.1713
258.6127	0.1787
258.8272	0.1696
259.0417	0.1744
259.2561	0.1652
259.4706	0.172
259.6851	0.1744
259.8995	0.1747
260.114	0.1774
260.3284	0.1707
260.5428	0.1571
260.7572	0.1803
260.9716	0.186
261.186	0.1643
261.4003	0.1714
261.6147	0.1731
261.829	0.1709
262.0433	0.1639
262.2577	0.1641
262.472	0.1814
262.6863	0.1559
262.9005	0.1731
263.1148	0.1683
263.3291	0.1535
263.5433	0.1596
263.7576	0.1641
263.9718	0.1723
264.186	0.1749
264.4002	0.1663
264.6144	0.1744
264.8286	0.1783
265.0427	0.1706
265.2569	0.1734
265.471	0.1767
265.6851	0.1616
265.8993	0.1637
266.1134	0.171
266.3275	0.1591
266.5415	0.1627
266.7556	0.1769
266.9697	0.1647
267.1837	0.1799
267.3978	0.1771
267.6118	0.1768
267.8258	0.1876
268.0398	0.162
268.2538	0.1826
268.4677	0.1699
268.6817	0.1689
268.8957	0.1695
269.1096	0.1819
269.3235	0.1805
269.5374	0.1629
269.7514	0.1676
269.9652	0.1658
270.1791	0.1618
270.393	0.1621
270.6068	0.1654
270.8207	0.1534
271.0345	0.162
271.2483	0.1647
271.4622	0.1555
271.676	0.1677
271.8897	0.1576
272.1035	0.1551
272.3173	0.1572
272.531	0.1639
272.7448	0.1567
272.9585	0.1539
273.1722	0.169
273.3859	0.164
273.5996	0.1618
273.8133	0.1698
274.0269	0.1459
274.2406	0.1506
274.4542	0.1614
274.6679	0.161
274.8815	0.1578
275.0951	0.1615
275.3087	0.1691
275.5223	0.1725
275.7358	0.1568
275.9494	0.1645
276.1629	0.1618
276.3765	0.1613
276.59	0.1722
276.8035	0.1668
277.017	0.1626
277.2305	0.1595
277.444	0.1696
277.6574	0.159
277.8709	0.1813
278.0843	0.1475
278.2978	0.174
278.5112	0.148
278.7246	0.1635
278.938	0.1707
279.1513	0.173
279.3647	0.1769
279.5781	0.1702
279.7914	0.1683
280.0047	0.1733
280.2181	0.1683
280.4314	0.1701
280.6447	0.1716
280.8579	0.1615
281.0712	0.1731
281.2845	0.1666
281.4977	0.1688
281.711	0.151
281.9242	0.1616
282.1374	0.1715
282.3506	0.1603
282.5638	0.1738
282.7769	0.1639
282.9901	0.1612
283.2033	0.1785
283.4164	0.1769
283.6295	0.1691
283.8426	0.1644
284.0557	0.1634
284.2688	0.1769
284.4819	0.1655
284.695	0.1589
284.908	0.1688
285.1211	0.1568
285.3341	0.1645
285.5471	0.161
285.7601	0.1695
285.9731	0.162
286.1861	0.1564
286.3991	0.1681
286.612	0.1738
286.825	0.1709
287.0379	0.1832
287.2508	0.1673
287.4637	0.1782
287.6766	0.151
287.8895	0.1643
288.1024	0.1711
288.3152	0.1737
288.5281	0.151
288.7409	0.1648
288.9538	0.1665
289.1666	0.1707
289.3794	0.1574
289.5922	0.1614
289.8049	0.1649
290.0177	0.1704
290.2304	0.1638
290.4432	0.1748
290.6559	0.1686
290.8686	0.1652
291.0813	0.1584
291.294	0.1569
291.5067	0.1691
291.7194	0.1502
291.932	0.1652
292.1447	0.1601
292.3573	0.1492
292.5699	0.1636
292.7825	0.1678
292.9951	0.1601
293.2077	0.1573
293.4203	0.1598
293.6328	0.1489
293.8454	0.1646
294.0579	0.156
294.2704	0.162
294.4829	0.1564
294.6954	0.1682
294.9079	0.1573
295.1204	0.154
295.3328	0.1525
295.5453	0.1488
295.7577	0.1615
295.9701	0.1551
296.1825	0.1629
296.3949	0.1501
296.6073	0.1469
296.8197	0.1433
297.0321	0.1632
297.2444	0.1504
297.4567	0.1672
297.6691	0.1493
297.8814	0.1588
298.0937	0.1602
298.306	0.1615
298.5182	0.154
298.7305	0.1657
298.9428	0.1451
299.155	0.162
299.3672	0.1443
299.5794	0.1524
299.7916	0.1442
300.0038	0.1551
300.216	0.1662
300.4282	0.1632
300.6403	0.1596
300.8525	0.1594
301.0646	0.1441
301.2767	0.1513
301.4888	0.1559
301.7009	0.1612
301.913	0.1549
302.125	0.158
302.3371	0.1486
302.5491	0.1546
302.7612	0.1582
302.9732	0.164
303.1852	0.1585
303.3972	0.1498
303.6092	0.1463
303.8211	0.1456
304.0331	0.1505
304.245	0.15
304.457	0.1501
304.6689	0.1505
304.8808	0.1561
305.0927	0.1473
305.3046	0.1476
305.5164	0.1423
305.7283	0.1439
305.9401	0.1404
306.152	0.1447
306.3638	0.1494
306.5756	0.1466
306.7874	0.1388
306.9992	0.1417
307.2109	0.1416
307.4227	0.1233
307.6344	0.1304
307.8462	0.1284
308.0579	0.1304
308.2696	0.1291
308.4813	0.1305
308.693	0.1224
308.9046	0.1401
309.1163	0.1294
309.328	0.1328
309.5396	0.1178
309.7512	0.1185
309.9628	0.1201
310.1744	0.1224
310.386	0.1055
310.5976	0.1166
310.8091	0.1174
311.0207	0.1268
311.2322	0.1169
311.4437	0.117
311.6552	0.1126
311.8667	0.1118
312.0782	0.1049
312.2897	0.1069
312.5012	0.1094
312.7126	0.1068
312.924	0.1066
313.1355	0.1224
313.3469	0.1104
313.5583	0.1209
313.7696	0.117
313.981	0.1174
314.1924	0.1088
314.4037	0.1112
314.6151	0.1154
314.8264	0.103
315.0377	0.1024
315.249	0.1069
315.4603	0.1118
315.6716	0.1059
315.8828	0.1041
316.0941	0.1117
316.3053	0.106
316.5165	0.1083
316.7277	0.1048
316.9389	0.1088
317.1501	0.0968
317.3613	0.1151
317.5724	0.0987
317.7836	0.112
317.9947	0.1059
318.2058	0.1029
318.417	0.0959
318.6281	0.0971
318.8391	0.1001
319.0502	0.1031
319.2613	0.1176
319.4723	0.1106
319.6834	0.1144
319.8944	0.0998
320.1054	0.1171
320.3164	0.1084
320.5274	0.0989
320.7383	0.1109
320.9493	0.1081
321.1602	0.1206
321.3712	0.1012
321.5821	0.1045
321.793	0.116
322.0039	0.1097
322.2148	0.1017
322.4257	0.1173
322.6365	0.1083
322.8474	0.1199
323.0582	0.1246
323.269	0.1187
323.4798	0.1185
323.6906	0.1178
323.9014	0.1194
324.1122	0.1225
324.3229	0.1074
324.5337	0.1169
324.7444	0.1067
324.9551	0.1306
325.1658	0.1162
325.3765	0.1204
325.5872	0.1166
325.7979	0.1136
326.0085	0.115
326.2192	0.1175
326.4298	0.121
326.6404	0.1093
326.851	0.1037
327.0616	0.12
327.2722	0.1134
327.4828	0.1131
327.6933	0.1018
327.9039	0.1232
328.1144	0.127
328.3249	0.116
328.5354	0.1031
328.7459	0.1117
328.9564	0.1041
329.1669	0.1167
329.3773	0.1135
329.5878	0.1253
329.7982	0.1169
330.0086	0.1117
330.219	0.1194
330.4294	0.1241
330.6398	0.1128
330.8502	0.1098
331.0605	0.1187
331.2708	0.1238
331.4812	0.1088
331.6915	0.1216
331.9018	0.1195
332.1121	0.1117
332.3224	0.1203
332.5326	0.1232
332.7429	0.114
332.9531	0.131
333.1633	0.1134
333.3735	0.1171
333.5837	0.1188
333.7939	0.1203
334.0041	0.1292
334.2143	0.1208
334.4244	0.1233
334.6346	0.1069
334.8447	0.1375
335.0548	0.12
335.2649	0.1128
335.475	0.1315
335.685	0.1182
335.8951	0.1317
336.1051	0.1269
336.3152	0.1288
336.5252	0.1147
336.7352	0.1308
336.9452	0.1258
337.1552	0.1129
337.3652	0.1215
337.5751	0.123
337.7851	0.1355
337.995	0.1187
338.2049	0.1214
338.4148	0.1223
338.6247	0.1285
338.8346	0.1166
339.0445	0.1133
339.2543	0.1206
339.4642	0.1249
339.674	0.1102
339.8838	0.1348
340.0936	0.1282
340.3034	0.1353
340.5132	0.119
340.7229	0.1272
340.9327	0.132
341.1424	0.1292
341.3522	0.1221
341.5619	0.136
341.7716	0.1219
341.9813	0.131
342.1909	0.128
342.4006	0.1373
342.6102	0.1434
342.8199	0.1277
343.0295	0.1342
343.2391	0.132
343.4487	0.1324
343.6583	0.1338
343.8679	0.1297
344.0774	0.1304
344.287	0.1332
344.4965	0.1301
344.706	0.1446
344.9155	0.1367
345.125	0.1375
345.3345	0.1497
345.544	0.1347
345.7534	0.1362
345.9629	0.1368
346.1723	0.1335
346.3817	0.1398
346.5911	0.1298
346.8005	0.1466
347.0099	0.1317
347.2193	0.1497
347.4286	0.119
347.638	0.1532
347.8473	0.1531
348.0566	0.1358
348.2659	0.1438
348.4752	0.1407
348.6845	0.1509
348.8937	0.1404
349.103	0.1578
349.3122	0.1357
349.5214	0.1381
349.7306	0.1461
349.9398	0.1528
350.149	0.1538
350.3582	0.1457
350.5674	0.1562
350.7765	0.1511
350.9856	0.1486
351.1948	0.1382
351.4039	0.1286
351.613	0.1357
351.822	0.1549
352.0311	0.1572
352.2402	0.1529
352.4492	0.1452
352.6582	0.1486
352.8672	0.1503
353.0762	0.1578
353.2852	0.1499
353.4942	0.1397
353.7032	0.1568
353.9121	0.1587
354.1211	0.1409
354.33	0.16
354.5389	0.1612
354.7478	0.1519
354.9567	0.14
355.1655	0.1428
355.3744	0.1607
355.5833	0.1561
355.7921	0.1728
356.0009	0.1673
356.2097	0.1722
356.4185	0.1686
356.6273	0.1645
356.8361	0.1695
357.0448	0.1568
357.2536	0.1582
357.4623	0.1593
357.671	0.1742
357.8797	0.1679
358.0884	0.1743
358.2971	0.162
358.5057	0.1781
358.7144	0.1649
358.923	0.1725
359.1316	0.1577
359.3402	0.1758
359.5488	0.1668
359.7574	0.1581
359.966	0.1896
360.1746	0.1725
360.3831	0.1833
360.5916	0.1722
360.8002	0.1639
361.0087	0.1882
361.2172	0.1768
361.4256	0.1892
361.6341	0.1901
361.8426	0.181
362.051	0.1707
362.2594	0.1678
362.4678	0.1674
362.6762	0.1931
362.8846	0.1687
363.093	0.1855
363.3014	0.1859
363.5097	0.1689
363.718	0.1704
363.9264	0.1806
364.1347	0.1751
364.343	0.2017
364.5513	0.1944
364.7595	0.1887
364.9678	0.1934
365.176	0.1962
365.3842	0.1998
365.5925	0.1879
365.8007	0.1875
366.0089	0.1832
366.217	0.1865
366.4252	0.1904
366.6333	0.2142
366.8415	0.1934
367.0496	0.1971
367.2577	0.2075
367.4658	0.2104
367.6739	0.1996
367.882	0.2061
368.09	0.1869
368.2981	0.2091
368.5061	0.1758
368.7141	0.2026
368.9221	0.2187
369.1301	0.1973
369.3381	0.2033
369.5461	0.201
369.754	0.1937
369.962	0.2078
370.1699	0.2044
370.3778	0.2002
370.5857	0.2123
370.7936	0.201
371.0015	0.1957
371.2093	0.2028
371.4172	0.2149
371.625	0.189
371.8328	0.1973
372.0406	0.189
372.2484	0.2031
372.4562	0.2145
372.664	0.2153
372.8717	0.2188
373.0795	0.187
373.2872	0.2107
373.4949	0.2058
373.7026	0.2165
373.9103	0.2098
374.118	0.2044
374.3256	0.219
374.5333	0.2001
374.7409	0.2049
374.9485	0.2031
375.1561	0.208
375.3637	0.2125
375.5713	0.2248
375.7789	0.2072
375.9864	0.2102
376.194	0.2062
376.4015	0.2205
376.609	0.226
376.8165	0.2032
377.024	0.2234
377.2315	0.2013
377.4389	0.2137
377.6464	0.2129
377.8538	0.215
378.0612	0.2224
378.2686	0.214
378.476	0.2452
378.6834	0.222
378.8908	0.2332
379.0981	0.2142
379.3055	0.2433
379.5128	0.2157
379.7201	0.2136
379.9274	0.2048
380.1347	0.2232
380.342	0.2355
380.5492	0.211
380.7565	0.2267
380.9637	0.2184
381.1709	0.2179
381.3781	0.2174
381.5853	0.2334
381.7925	0.2186
381.9997	0.2335
382.2068	0.2325
382.4139	0.2295
382.6211	0.2283
382.8282	0.2246
383.0353	0.2133
383.2424	0.2175
383.4494	0.2323
383.6565	0.2162
383.8635	0.2221
384.0706	0.2297
384.2776	0.2209
384.4846	0.2167
384.6916	0.2314
384.8986	0.2176
385.1055	0.2327
385.3125	0.2467
385.5194	0.2009
385.7263	0.2285
385.9333	0.2121
386.1402	0.2159
386.347	0.2336
386.5539	0.2163
386.7608	0.2293
386.9676	0.2058
387.1744	0.2279
387.3813	0.2249
387.5881	0.2142
387.7948	0.2503
388.0016	0.213
388.2084	0.2216
388.4151	0.2112
388.6219	0.2365
388.8286	0.2083
389.0353	0.2358
389.242	0.2345
389.4487	0.2255
389.6553	0.1995
389.862	0.1964
390.0686	0.2032
390.2753	0.2231
390.4819	0.2205
390.6885	0.2145
390.8951	0.2264
391.1016	0.2084
391.3082	0.1957
391.5147	0.2019
391.7213	0.2157
391.9278	0.2034
392.1343	0.2062
392.3408	0.207
392.5473	0.2192
392.7537	0.2087
392.9602	0.1941
393.1666	0.1968
393.373	0.1978
393.5794	0.2062
393.7858	0.1947
393.9922	0.1948
394.1986	0.2059
394.4049	0.1956
394.6113	0.2054
394.8176	0.1943
395.0239	0.1861
395.2302	0.1858
395.4365	0.2101
395.6428	0.1807
395.8491	0.1898
396.0553	0.185
396.2615	0.1911
396.4678	0.1834
396.674	0.1909
396.8802	0.1748
397.0863	0.1955
397.2925	0.1723
397.4987	0.1669
397.7048	0.1812
397.9109	0.1884
398.117	0.173
398.3231	0.1819
398.5292	0.1877
398.7353	0.181
398.9413	0.1878
399.1474	0.1825
399.3534	0.1779
399.5594	0.1772
399.7654	0.1805
399.9714	0.1978
400.1774	0.1765
400.3833	0.1673
400.5893	0.1949
400.7952	0.1944
401.0011	0.1893
401.207	0.1851
401.4129	0.1831
401.6188	0.1919
401.8247	0.1905
402.0305	0.1812
402.2364	0.172
402.4422	0.1959
402.648	0.1836
402.8538	0.2031
403.0596	0.1806
403.2654	0.1791
403.4711	0.1833
403.6768	0.1948
403.8826	0.1862
404.0883	0.1956
404.294	0.1901
404.4997	0.2094
404.7054	0.1868
404.911	0.184
405.1167	0.1873
405.3223	0.1999
405.5279	0.1764
405.7335	0.1958
405.9391	0.1954
406.1447	0.1729
406.3502	0.2
406.5558	0.1716
406.7613	0.1785
406.9668	0.1794
407.1724	0.1932
407.3778	0.1746
407.5833	0.1779
407.7888	0.1646
407.9942	0.1867
408.1997	0.174
408.4051	0.1694
408.6105	0.1921
408.8159	0.1622
409.0213	0.1722
409.2267	0.1988
409.432	0.1721
409.6374	0.1894
409.8427	0.1761
410.048	0.1823
410.2533	0.1772
410.4586	0.1835
410.6639	0.1581
410.8691	0.1665
411.0744	0.173
411.2796	0.1701
411.4848	0.1823
411.69	0.1697
411.8952	0.1845
412.1004	0.1563
412.3056	0.1873
412.5107	0.1503
412.7158	0.1832
412.921	0.1633
413.1261	0.18
413.3312	0.1589
413.5362	0.1676
413.7413	0.1556
413.9464	0.1609
414.1514	0.1821
414.3564	0.18
414.5614	0.1565
414.7664	0.1764
414.9714	0.1633
415.1764	0.1751
415.3813	0.1845
415.5863	0.1592
415.7912	0.1867
415.9961	0.1826
416.201	0.1773
416.4059	0.2015
416.6108	0.1611
416.8156	0.1728
417.0205	0.171
417.2253	0.1648
417.4301	0.182
417.6349	0.1789
417.8397	0.1595
418.0445	0.1756
418.2492	0.1742
418.454	0.1574
418.6587	0.1807
418.8634	0.1617
419.0681	0.1697
419.2728	0.1472
419.4775	0.1654
419.6822	0.1559
419.8868	0.1283
420.0915	0.1488
420.2961	0.1412
420.5007	0.1472
420.7053	0.1726
420.9099	0.1567
421.1144	0.1737
421.319	0.1519
421.5235	0.1706
421.728	0.1699
421.9325	0.1622
422.137	0.1706
422.3415	0.1518
422.546	0.1385
422.7504	0.146
422.9549	0.1603
423.1593	0.1714
423.3637	0.164
423.5681	0.162
423.7725	0.1456
423.9769	0.1437
424.1812	0.1443
424.3856	0.1404
424.5899	0.156
424.7942	0.1546
424.9985	0.149
425.2028	0.1359
425.4071	0.1615
425.6113	0.1253
425.8156	0.1485
426.0198	0.1663
426.224	0.1385
426.4282	0.1323
