Data from MonoPyChalIsomerACN10uM420nmA_Absorbance_15-09-58-034.txt Node
Date: Fri Jul 05 15:09:58 BST 2024
User: LASERRRRR
Spectrometer: FLMT03099
Trigger mode: 0
Integration Time (sec): 1.000000E-1
Scans to average: 1
Electric dark correction enabled: true
Nonlinearity correction enabled: false
Boxcar width: 0
XAxis mode: Wavelengths
Number of Pixels in Spectrum: 3648
>>>>>Begin Spectral Data<<<<<
179.3399	-0.0324
179.5586	-0.0324
179.7771	-0.0324
179.9957	-0
180.2143	1.1875
180.4329	-0.3248
180.6514	-0
180.8699	0.2534
181.0885	0.482
181.307	0.2352
181.5255	-0.6189
181.744	-0.1115
181.9625	0.0653
182.181	-0
182.3994	-0
182.6179	-0
182.8363	-0.3505
183.0547	-0
183.2732	0.1038
183.4916	0.4458
183.71	0.0496
183.9284	0.3003
184.1467	-0.2138
184.3651	0.0399
184.5835	-0.0263
184.8018	0.1644
185.0201	0.2328
185.2385	0.0372
185.4568	0.1573
185.6751	-0.0932
185.8934	0.1042
186.1117	0.1557
186.3299	0.0626
186.5482	0.0045
186.7664	-0.158
186.9847	0.0234
187.2029	0.0631
187.4211	-0.0032
187.6393	-0.0988
187.8575	-0.0608
188.0757	0.3123
188.2939	0.2007
188.512	-0.0157
188.7302	-0.1128
188.9483	0.2634
189.1665	0.1478
189.3846	-0.0593
189.6027	0.1556
189.8208	0.1381
190.0389	0.2044
190.257	0.096
190.475	0.087
190.6931	0.3556
190.9111	0.2514
191.1292	0.1691
191.3472	0.4667
191.5652	0.2241
191.7832	0.27
192.0012	0.6053
192.2192	0.3366
192.4371	0.6104
192.6551	0.2501
192.873	0.5449
193.091	0.3407
193.3089	0.7149
193.5268	0.3765
193.7447	0.5411
193.9626	0.4879
194.1805	0.5763
194.3984	1.0418
194.6162	0.5062
194.8341	0.6568
195.0519	0.4701
195.2697	0.7596
195.4875	0.6425
195.7054	0.6484
195.9231	0.6356
196.1409	0.6885
196.3587	0.7804
196.5765	0.5804
196.7942	0.7654
197.012	0.5492
197.2297	0.6753
197.4474	0.9338
197.6651	0.5608
197.8828	0.5934
198.1005	0.7451
198.3182	0.6008
198.5358	0.7365
198.7535	0.6662
198.9711	0.6741
199.1888	0.623
199.4064	0.6934
199.624	0.5944
199.8416	0.7152
200.0592	0.6705
200.2767	0.5766
200.4943	0.6056
200.7119	0.7304
200.9294	0.6973
201.1469	0.5212
201.3645	0.6317
201.582	0.6344
201.7995	0.7435
202.017	0.6769
202.2344	0.7777
202.4519	0.7567
202.6694	0.7297
202.8868	0.719
203.1042	0.5907
203.3217	0.683
203.5391	0.592
203.7565	0.5875
203.9739	0.6058
204.1913	0.7541
204.4086	0.6702
204.626	0.649
204.8433	0.5945
205.0607	0.6158
205.278	0.5826
205.4953	0.6377
205.7126	0.7782
205.9299	0.6887
206.1472	0.7004
206.3644	0.6255
206.5817	0.7072
206.7989	0.6721
207.0162	0.6654
207.2334	0.6288
207.4506	0.6878
207.6678	0.6508
207.885	0.7052
208.1022	0.7448
208.3194	0.7019
208.5365	0.627
208.7537	0.596
208.9708	0.6155
209.1879	0.6763
209.405	0.634
209.6222	0.7085
209.8392	0.6183
210.0563	0.623
210.2734	0.6308
210.4905	0.661
210.7075	0.6293
210.9245	0.5739
211.1416	0.7404
211.3586	0.5784
211.5756	0.6269
211.7926	0.5927
212.0096	0.591
212.2265	0.5546
212.4435	0.5877
212.6604	0.5598
212.8774	0.6008
213.0943	0.6619
213.3112	0.5375
213.5281	0.5329
213.745	0.521
213.9619	0.5141
214.1788	0.4706
214.3956	0.4874
214.6125	0.4654
214.8293	0.4485
215.0461	0.4852
215.2629	0.515
215.4798	0.4756
215.6965	0.4217
215.9133	0.4421
216.1301	0.4196
216.3469	0.4213
216.5636	0.4173
216.7803	0.3804
216.9971	0.4306
217.2138	0.3764
217.4305	0.3553
217.6472	0.3602
217.8639	0.3597
218.0805	0.3921
218.2972	0.3206
218.5138	0.3304
218.7305	0.3216
218.9471	0.3283
219.1637	0.2958
219.3803	0.3081
219.5969	0.3004
219.8135	0.2531
220.0301	0.2348
220.2466	0.2745
220.4632	0.2655
220.6797	0.2503
220.8962	0.2339
221.1127	0.2652
221.3292	0.2389
221.5457	0.2428
221.7622	0.2131
221.9787	0.2553
222.1951	0.2333
222.4116	0.2644
222.628	0.2475
222.8444	0.2711
223.0608	0.2507
223.2772	0.254
223.4936	0.2302
223.71	0.2504
223.9264	0.2703
224.1427	0.2557
224.3591	0.2638
224.5754	0.2585
224.7917	0.2795
225.008	0.248
225.2243	0.2578
225.4406	0.2741
225.6569	0.2731
225.8732	0.2596
226.0894	0.2608
226.3057	0.2498
226.5219	0.2828
226.7381	0.2717
226.9543	0.2746
227.1705	0.2867
227.3867	0.2709
227.6029	0.2865
227.8191	0.2953
228.0352	0.2891
228.2513	0.3001
228.4675	0.3072
228.6836	0.305
228.8997	0.2834
229.1158	0.3124
229.3319	0.3231
229.548	0.3173
229.764	0.3284
229.9801	0.3161
230.1961	0.3188
230.4121	0.3242
230.6282	0.3291
230.8442	0.3162
231.0602	0.361
231.2761	0.3427
231.4921	0.368
231.7081	0.3639
231.924	0.3504
232.14	0.3564
232.3559	0.3401
232.5718	0.3464
232.7877	0.3579
233.0036	0.3643
233.2195	0.3651
233.4353	0.3618
233.6512	0.3558
233.867	0.3524
234.0829	0.3416
234.2987	0.3636
234.5145	0.3745
234.7303	0.3629
234.9461	0.377
235.1619	0.3769
235.3776	0.3666
235.5934	0.3706
235.8091	0.3743
236.0249	0.3693
236.2406	0.3729
236.4563	0.3675
236.672	0.4015
236.8877	0.3936
237.1034	0.3891
237.319	0.387
237.5347	0.3895
237.7503	0.3789
237.966	0.3859
238.1816	0.3917
238.3972	0.4035
238.6128	0.3784
238.8284	0.402
239.0439	0.3968
239.2595	0.4009
239.475	0.4114
239.6906	0.4061
239.9061	0.3925
240.1216	0.3907
240.3371	0.3948
240.5526	0.4028
240.7681	0.432
240.9836	0.4058
241.199	0.4056
241.4145	0.3898
241.6299	0.3751
241.8453	0.3968
242.0607	0.396
242.2761	0.3803
242.4915	0.3849
242.7069	0.3901
242.9223	0.388
243.1376	0.3637
243.353	0.3653
243.5683	0.3843
243.7836	0.3589
243.9989	0.3539
244.2142	0.3457
244.4295	0.3548
244.6448	0.348
244.86	0.3162
245.0753	0.3077
245.2905	0.3134
245.5057	0.3059
245.721	0.2925
245.9362	0.3016
246.1514	0.3019
246.3665	0.2904
246.5817	0.3006
246.7969	0.2798
247.012	0.277
247.2271	0.2635
247.4423	0.2715
247.6574	0.2692
247.8725	0.2666
248.0876	0.238
248.3026	0.247
248.5177	0.2512
248.7328	0.2382
248.9478	0.2293
249.1628	0.2435
249.3779	0.2352
249.5929	0.2086
249.8079	0.2411
250.0228	0.2058
250.2378	0.2154
250.4528	0.2122
250.6677	0.1964
250.8827	0.2132
251.0976	0.2083
251.3125	0.2084
251.5274	0.1849
251.7423	0.1983
251.9572	0.2013
252.172	0.1968
252.3869	0.1934
252.6017	0.1986
252.8166	0.1823
253.0314	0.1803
253.2462	0.1811
253.461	0.1945
253.6758	0.1727
253.8906	0.1877
254.1053	0.1846
254.3201	0.1738
254.5348	0.1897
254.7496	0.1921
254.9643	0.1799
255.179	0.1843
255.3937	0.1688
255.6083	0.1792
255.823	0.1811
256.0377	0.1751
256.2523	0.1666
256.467	0.1612
256.6816	0.183
256.8962	0.1711
257.1108	0.151
257.3254	0.1637
257.54	0.168
257.7545	0.1694
257.9691	0.1843
258.1836	0.1701
258.3981	0.1778
258.6127	0.1769
258.8272	0.173
259.0417	0.184
259.2561	0.1759
259.4706	0.1752
259.6851	0.1797
259.8995	0.1726
260.114	0.1758
260.3284	0.1677
260.5428	0.1709
260.7572	0.1726
260.9716	0.1706
261.186	0.1713
261.4003	0.1721
261.6147	0.1719
261.829	0.1656
262.0433	0.1746
262.2577	0.1711
262.472	0.1839
262.6863	0.1679
262.9005	0.1679
263.1148	0.1788
263.3291	0.1693
263.5433	0.1727
263.7576	0.1758
263.9718	0.1677
264.186	0.1713
264.4002	0.1732
264.6144	0.1774
264.8286	0.1809
265.0427	0.1751
265.2569	0.1806
265.471	0.1616
265.6851	0.1799
265.8993	0.1668
266.1134	0.1756
266.3275	0.1765
266.5415	0.1649
266.7556	0.1836
266.9697	0.192
267.1837	0.1833
267.3978	0.1758
267.6118	0.1841
267.8258	0.1863
268.0398	0.1684
268.2538	0.1777
268.4677	0.1823
268.6817	0.1841
268.8957	0.1838
269.1096	0.1934
269.3235	0.1839
269.5374	0.1694
269.7514	0.1651
269.9652	0.1697
270.1791	0.1791
270.393	0.1666
270.6068	0.186
270.8207	0.1732
271.0345	0.1691
271.2483	0.165
271.4622	0.1751
271.676	0.1747
271.8897	0.1734
272.1035	0.1695
272.3173	0.1707
272.531	0.178
272.7448	0.1769
272.9585	0.1611
273.1722	0.1834
273.3859	0.1695
273.5996	0.1723
273.8133	0.167
274.0269	0.1614
274.2406	0.1709
274.4542	0.1741
274.6679	0.1544
274.8815	0.1818
275.0951	0.1879
275.3087	0.1718
275.5223	0.1732
275.7358	0.1768
275.9494	0.1719
276.1629	0.1724
276.3765	0.1663
276.59	0.1794
276.8035	0.1721
277.017	0.1744
277.2305	0.1761
277.444	0.179
277.6574	0.1693
277.8709	0.1831
278.0843	0.1734
278.2978	0.1738
278.5112	0.1746
278.7246	0.1902
278.938	0.1725
279.1513	0.1818
279.3647	0.1838
279.5781	0.177
279.7914	0.1805
280.0047	0.1883
280.2181	0.1734
280.4314	0.1845
280.6447	0.1784
280.8579	0.1797
281.0712	0.1771
281.2845	0.1797
281.4977	0.1718
281.711	0.1615
281.9242	0.1733
282.1374	0.1793
282.3506	0.1752
282.5638	0.1839
282.7769	0.1649
282.9901	0.1738
283.2033	0.1796
283.4164	0.1677
283.6295	0.1685
283.8426	0.171
284.0557	0.1874
284.2688	0.1778
284.4819	0.1771
284.695	0.1738
284.908	0.1708
285.1211	0.1713
285.3341	0.1663
285.5471	0.1676
285.7601	0.1652
285.9731	0.169
286.1861	0.1562
286.3991	0.174
286.612	0.1785
286.825	0.1661
287.0379	0.1852
287.2508	0.164
287.4637	0.1623
287.6766	0.1634
287.8895	0.1624
288.1024	0.1762
288.3152	0.1662
288.5281	0.155
288.7409	0.1605
288.9538	0.1555
289.1666	0.155
289.3794	0.1605
289.5922	0.1498
289.8049	0.1561
290.0177	0.1558
290.2304	0.1627
290.4432	0.1486
290.6559	0.153
290.8686	0.1621
291.0813	0.1559
291.294	0.1472
291.5067	0.1665
291.7194	0.1577
291.932	0.1703
292.1447	0.1423
292.3573	0.1465
292.5699	0.1447
292.7825	0.1511
292.9951	0.1523
293.2077	0.1503
293.4203	0.1494
293.6328	0.1373
293.8454	0.1545
294.0579	0.1506
294.2704	0.1482
294.4829	0.139
294.6954	0.1517
294.9079	0.1559
295.1204	0.1562
295.3328	0.143
295.5453	0.156
295.7577	0.148
295.9701	0.1334
296.1825	0.1571
296.3949	0.148
296.6073	0.1425
296.8197	0.1368
297.0321	0.1541
297.2444	0.1269
297.4567	0.1418
297.6691	0.1433
297.8814	0.1357
298.0937	0.1385
298.306	0.1516
298.5182	0.14
298.7305	0.1471
298.9428	0.1325
299.155	0.1498
299.3672	0.1427
299.5794	0.1382
299.7916	0.1481
300.0038	0.1482
300.216	0.1453
300.4282	0.1463
300.6403	0.136
300.8525	0.1437
301.0646	0.1279
301.2767	0.1515
301.4888	0.1331
301.7009	0.1375
301.913	0.1423
302.125	0.1497
302.3371	0.1404
302.5491	0.1428
302.7612	0.1467
302.9732	0.1377
303.1852	0.1455
303.3972	0.1471
303.6092	0.1294
303.8211	0.1286
304.0331	0.1406
304.245	0.1377
304.457	0.1336
304.6689	0.1353
304.8808	0.1471
305.0927	0.1303
305.3046	0.1398
305.5164	0.1455
305.7283	0.126
305.9401	0.1408
306.152	0.1348
306.3638	0.1492
306.5756	0.1387
306.7874	0.1421
306.9992	0.136
307.2109	0.131
307.4227	0.121
307.6344	0.1351
307.8462	0.1298
308.0579	0.1348
308.2696	0.1317
308.4813	0.1147
308.693	0.12
308.9046	0.1335
309.1163	0.1313
309.328	0.1248
309.5396	0.1169
309.7512	0.1211
309.9628	0.1106
310.1744	0.1279
310.386	0.1268
310.5976	0.1228
310.8091	0.1242
311.0207	0.1292
311.2322	0.1149
311.4437	0.1249
311.6552	0.1189
311.8667	0.1176
312.0782	0.1067
312.2897	0.104
312.5012	0.1179
312.7126	0.114
312.924	0.105
313.1355	0.1243
313.3469	0.1163
313.5583	0.1121
313.7696	0.119
313.981	0.1122
314.1924	0.1016
314.4037	0.1127
314.6151	0.1218
314.8264	0.1206
315.0377	0.1078
315.249	0.1166
315.4603	0.1234
315.6716	0.1082
315.8828	0.1087
316.0941	0.1004
316.3053	0.1098
316.5165	0.1048
316.7277	0.1062
316.9389	0.1223
317.1501	0.1209
317.3613	0.1134
317.5724	0.1072
317.7836	0.1078
317.9947	0.1037
318.2058	0.1234
318.417	0.1114
318.6281	0.1115
318.8391	0.115
319.0502	0.1125
319.2613	0.1111
319.4723	0.1244
319.6834	0.1249
319.8944	0.1089
320.1054	0.1195
320.3164	0.1222
320.5274	0.1158
320.7383	0.1178
320.9493	0.1158
321.1602	0.1289
321.3712	0.1127
321.5821	0.1287
321.793	0.1206
322.0039	0.1215
322.2148	0.1093
322.4257	0.1277
322.6365	0.1265
322.8474	0.1176
323.0582	0.1095
323.269	0.1238
323.4798	0.1366
323.6906	0.1196
323.9014	0.1249
324.1122	0.1225
324.3229	0.1084
324.5337	0.1238
324.7444	0.1188
324.9551	0.1328
325.1658	0.1334
325.3765	0.1249
325.5872	0.1219
325.7979	0.1271
326.0085	0.1328
326.2192	0.1336
326.4298	0.1204
326.6404	0.1153
326.851	0.1189
327.0616	0.122
327.2722	0.1219
327.4828	0.1278
327.6933	0.1173
327.9039	0.123
328.1144	0.132
328.3249	0.1294
328.5354	0.125
328.7459	0.123
328.9564	0.1207
329.1669	0.1301
329.3773	0.1353
329.5878	0.1229
329.7982	0.1202
330.0086	0.1199
330.219	0.1245
330.4294	0.1252
330.6398	0.1148
330.8502	0.1245
331.0605	0.1256
331.2708	0.1287
331.4812	0.1227
331.6915	0.1298
331.9018	0.1273
332.1121	0.1331
332.3224	0.1306
332.5326	0.1345
332.7429	0.1245
332.9531	0.1354
333.1633	0.1374
333.3735	0.1389
333.5837	0.1242
333.7939	0.128
334.0041	0.1424
334.2143	0.1349
334.4244	0.135
334.6346	0.1052
334.8447	0.1517
335.0548	0.1232
335.2649	0.1358
335.475	0.1376
335.685	0.1237
335.8951	0.1385
336.1051	0.1214
336.3152	0.1376
336.5252	0.1239
336.7352	0.1352
336.9452	0.1406
337.1552	0.1322
337.3652	0.1213
337.5751	0.131
337.7851	0.1327
337.995	0.1303
338.2049	0.1446
338.4148	0.1366
338.6247	0.1531
338.8346	0.1324
339.0445	0.1236
339.2543	0.126
339.4642	0.1464
339.674	0.1374
339.8838	0.1459
340.0936	0.1365
340.3034	0.141
340.5132	0.1352
340.7229	0.1438
340.9327	0.1331
341.1424	0.14
341.3522	0.1434
341.5619	0.1564
341.7716	0.1491
341.9813	0.1369
342.1909	0.1526
342.4006	0.1544
342.6102	0.1477
342.8199	0.1477
343.0295	0.1529
343.2391	0.1478
343.4487	0.1515
343.6583	0.1521
343.8679	0.1388
344.0774	0.1512
344.287	0.1511
344.4965	0.1445
344.706	0.1391
344.9155	0.1424
345.125	0.137
345.3345	0.1652
345.544	0.1392
345.7534	0.1424
345.9629	0.1382
346.1723	0.1408
346.3817	0.1314
346.5911	0.1438
346.8005	0.1585
347.0099	0.144
347.2193	0.1346
347.4286	0.1428
347.638	0.1595
347.8473	0.1492
348.0566	0.1539
348.2659	0.1462
348.4752	0.143
348.6845	0.1498
348.8937	0.1535
349.103	0.1548
349.3122	0.1499
349.5214	0.1504
349.7306	0.1582
349.9398	0.1493
350.149	0.1459
350.3582	0.1461
350.5674	0.1576
350.7765	0.1392
350.9856	0.1508
351.1948	0.1535
351.4039	0.1446
351.613	0.1523
351.822	0.1623
352.0311	0.1553
352.2402	0.1522
352.4492	0.1729
352.6582	0.1626
352.8672	0.1514
353.0762	0.1612
353.2852	0.1692
353.4942	0.1353
353.7032	0.152
353.9121	0.1627
354.1211	0.1618
354.33	0.1776
354.5389	0.162
354.7478	0.1454
354.9567	0.1451
355.1655	0.1595
355.3744	0.1581
355.5833	0.1621
355.7921	0.1684
356.0009	0.1644
356.2097	0.1796
356.4185	0.1779
356.6273	0.1729
356.8361	0.1715
357.0448	0.1678
357.2536	0.1516
357.4623	0.1659
357.671	0.1533
357.8797	0.1525
358.0884	0.1655
358.2971	0.1765
358.5057	0.1692
358.7144	0.1701
358.923	0.1629
359.1316	0.1676
359.3402	0.1675
359.5488	0.1764
359.7574	0.1664
359.966	0.1579
360.1746	0.1785
360.3831	0.1664
360.5916	0.1721
360.8002	0.1584
361.0087	0.1863
361.2172	0.1763
361.4256	0.1642
361.6341	0.1628
361.8426	0.174
362.051	0.1718
362.2594	0.1675
362.4678	0.158
362.6762	0.1937
362.8846	0.1759
363.093	0.1671
363.3014	0.1706
363.5097	0.1651
363.718	0.1731
363.9264	0.1856
364.1347	0.162
364.343	0.1766
364.5513	0.1993
364.7595	0.1901
364.9678	0.1814
365.176	0.1867
365.3842	0.1911
365.5925	0.1885
365.8007	0.1914
366.0089	0.1925
366.217	0.17
366.4252	0.1949
366.6333	0.1947
366.8415	0.192
367.0496	0.1828
367.2577	0.1847
367.4658	0.204
367.6739	0.1878
367.882	0.1879
368.09	0.1884
368.2981	0.1855
368.5061	0.1805
368.7141	0.1869
368.9221	0.1967
369.1301	0.1911
369.3381	0.1832
369.5461	0.1989
369.754	0.1911
369.962	0.1992
370.1699	0.1905
370.3778	0.1904
370.5857	0.1822
370.7936	0.1876
371.0015	0.1846
371.2093	0.1978
371.4172	0.2036
371.625	0.1798
371.8328	0.1891
372.0406	0.1914
372.2484	0.1848
372.4562	0.1897
372.664	0.1925
372.8717	0.191
373.0795	0.1608
373.2872	0.2039
373.4949	0.1907
373.7026	0.1918
373.9103	0.1985
374.118	0.181
374.3256	0.1805
374.5333	0.1843
374.7409	0.1875
374.9485	0.1962
375.1561	0.195
375.3637	0.2006
375.5713	0.1803
375.7789	0.1949
375.9864	0.1811
376.194	0.1722
376.4015	0.1978
376.609	0.1976
376.8165	0.1822
377.024	0.1813
377.2315	0.1966
377.4389	0.1937
377.6464	0.1994
377.8538	0.1801
378.0612	0.1993
378.2686	0.2021
378.476	0.208
378.6834	0.2005
378.8908	0.1942
379.0981	0.1902
379.3055	0.1817
379.5128	0.1901
379.7201	0.2038
379.9274	0.1885
380.1347	0.1941
380.342	0.1967
380.5492	0.1879
380.7565	0.1922
380.9637	0.2114
381.1709	0.1862
381.3781	0.205
381.5853	0.2019
381.7925	0.1818
381.9997	0.2067
382.2068	0.2031
382.4139	0.1934
382.6211	0.1849
382.8282	0.1975
383.0353	0.1761
383.2424	0.1927
383.4494	0.1971
383.6565	0.1804
383.8635	0.1839
384.0706	0.1983
384.2776	0.1928
384.4846	0.1922
384.6916	0.1996
384.8986	0.1714
385.1055	0.2031
385.3125	0.1934
385.5194	0.179
385.7263	0.2021
385.9333	0.1818
386.1402	0.1783
386.347	0.1814
386.5539	0.1932
386.7608	0.1953
386.9676	0.1802
387.1744	0.2011
387.3813	0.1654
387.5881	0.1916
387.7948	0.1962
388.0016	0.1797
388.2084	0.1897
388.4151	0.1735
388.6219	0.2045
388.8286	0.1869
389.0353	0.2097
389.242	0.172
389.4487	0.1867
389.6553	0.1775
389.862	0.1484
390.0686	0.1815
390.2753	0.1915
390.4819	0.1725
390.6885	0.1636
390.8951	0.1854
391.1016	0.1691
391.3082	0.1682
391.5147	0.1823
391.7213	0.1662
391.9278	0.1658
392.1343	0.1667
392.3408	0.1713
392.5473	0.1773
392.7537	0.1711
392.9602	0.1797
393.1666	0.1735
393.373	0.1691
393.5794	0.1779
393.7858	0.17
393.9922	0.1611
394.1986	0.1643
394.4049	0.1736
394.6113	0.1705
394.8176	0.1591
395.0239	0.1509
395.2302	0.1617
395.4365	0.1634
395.6428	0.1491
395.8491	0.1589
396.0553	0.1656
396.2615	0.1515
396.4678	0.16
396.674	0.1378
396.8802	0.1585
397.0863	0.1755
397.2925	0.1623
397.4987	0.1594
397.7048	0.1523
397.9109	0.1501
398.117	0.1408
398.3231	0.1586
398.5292	0.1637
398.7353	0.1629
398.9413	0.1463
399.1474	0.1518
399.3534	0.1562
399.5594	0.1329
399.7654	0.1449
399.9714	0.1668
400.1774	0.1555
400.3833	0.1514
400.5893	0.1569
400.7952	0.1529
401.0011	0.1548
401.207	0.1691
401.4129	0.141
401.6188	0.157
401.8247	0.1476
402.0305	0.1508
402.2364	0.1381
402.4422	0.1661
402.648	0.1464
402.8538	0.1625
403.0596	0.1495
403.2654	0.1518
403.4711	0.1537
403.6768	0.1615
403.8826	0.156
404.0883	0.1488
404.294	0.1528
404.4997	0.1584
404.7054	0.1481
404.911	0.1468
405.1167	0.1586
405.3223	0.154
405.5279	0.1429
405.7335	0.1504
405.9391	0.1762
406.1447	0.1414
406.3502	0.176
406.5558	0.1287
406.7613	0.1482
406.9668	0.1505
407.1724	0.1623
407.3778	0.1477
407.5833	0.1515
407.7888	0.1274
407.9942	0.1545
408.1997	0.1376
408.4051	0.1326
408.6105	0.1529
408.8159	0.1431
409.0213	0.1249
409.2267	0.159
409.432	0.1378
409.6374	0.1614
409.8427	0.1399
410.048	0.1461
410.2533	0.1483
410.4586	0.134
410.6639	0.1305
410.8691	0.1326
411.0744	0.1363
411.2796	0.1352
411.4848	0.1442
411.69	0.1299
411.8952	0.1581
412.1004	0.1363
412.3056	0.149
412.5107	0.1467
412.7158	0.1541
412.921	0.136
413.1261	0.136
413.3312	0.1367
413.5362	0.131
413.7413	0.1508
413.9464	0.1302
414.1514	0.1403
414.3564	0.1514
414.5614	0.1328
414.7664	0.1456
414.9714	0.1448
415.1764	0.1336
415.3813	0.1342
415.5863	0.1375
415.7912	0.1384
415.9961	0.1314
416.201	0.146
416.4059	0.1392
416.6108	0.1114
416.8156	0.1292
417.0205	0.1209
417.2253	0.145
417.4301	0.1467
417.6349	0.1274
417.8397	0.1329
418.0445	0.1266
418.2492	0.1505
418.454	0.1344
418.6587	0.1208
418.8634	0.1368
419.0681	0.1308
419.2728	0.1248
419.4775	0.1288
419.6822	0.1342
419.8868	0.1249
420.0915	0.1239
420.2961	0.1151
420.5007	0.1173
420.7053	0.1228
420.9099	0.132
421.1144	0.1303
421.319	0.1112
421.5235	0.1413
421.728	0.1285
421.9325	0.1316
422.137	0.1272
422.3415	0.1245
422.546	0.1192
422.7504	0.1161
422.9549	0.1292
423.1593	0.1251
423.3637	0.1365
423.5681	0.1251
423.7725	0.1248
423.9769	0.1212
424.1812	0.099
424.3856	0.1042
424.5899	0.1227
424.7942	0.1125
424.9985	0.1255
425.2028	0.1141
425.4071	0.1406
425.6113	0.0914
425.8156	0.1125
426.0198	0.1198
426.224	0.1093
426.4282	0.1147
