Data from MonoPyChalIsomerACN10uM420nmA_Absorbance_15-09-55-934.txt Node
Date: Fri Jul 05 15:09:55 BST 2024
User: LASERRRRR
Spectrometer: FLMT03099
Trigger mode: 0
Integration Time (sec): 1.000000E-1
Scans to average: 1
Electric dark correction enabled: true
Nonlinearity correction enabled: false
Boxcar width: 0
XAxis mode: Wavelengths
Number of Pixels in Spectrum: 3648
>>>>>Begin Spectral Data<<<<<
179.3399	0.0987
179.5586	0.0987
179.7771	0.0987
179.9957	1.7088
180.2143	-0
180.4329	-0.1484
180.6514	-0
180.8699	-0
181.0885	-0.1003
181.307	0.6347
181.5255	-0
181.744	-0
181.9625	-0
182.181	-1.1178
182.3994	-0
182.6179	-0
182.8363	-0.1747
183.0547	-0.2942
183.2732	0.1026
183.4916	0.3444
183.71	0.1353
183.9284	0.273
184.1467	-0.2733
184.3651	-0.1654
184.5835	-0.1153
184.8018	0.1227
185.0201	0.1837
185.2385	-0.0539
185.4568	0.1624
185.6751	0.0473
185.8934	0.5716
186.1117	0.0066
186.3299	0.0371
186.5482	0.1785
186.7664	-0.1454
186.9847	-0.1094
187.2029	-0.0105
187.4211	0.0494
187.6393	0.2388
187.8575	-0.0464
188.0757	0.24
188.2939	-0.0138
188.512	0.0487
188.7302	0.0891
188.9483	0.7396
189.1665	0.0943
189.3846	-0
189.6027	0.2235
189.8208	0.1819
190.0389	0.1676
190.257	0.1298
190.475	0.1601
190.6931	0.3254
190.9111	0.3744
191.1292	0.2727
191.3472	0.5013
191.5652	0.2624
191.7832	0.1683
192.0012	0.7689
192.2192	0.2574
192.4371	0.5868
192.6551	0.381
192.873	0.3045
193.091	0.442
193.3089	0.6506
193.5268	0.3237
193.7447	0.4948
193.9626	0.4126
194.1805	0.3924
194.3984	0.6439
194.6162	0.6351
194.8341	0.5667
195.0519	0.4929
195.2697	0.9042
195.4875	0.6361
195.7054	0.501
195.9231	0.5292
196.1409	0.6228
196.3587	0.455
196.5765	0.5562
196.7942	0.5237
197.012	0.4556
197.2297	0.6696
197.4474	0.628
197.6651	0.4816
197.8828	0.63
198.1005	0.552
198.3182	0.4856
198.5358	0.8055
198.7535	0.6079
198.9711	0.4777
199.1888	0.5309
199.4064	0.6648
199.624	0.6442
199.8416	0.5424
200.0592	0.673
200.2767	0.6863
200.4943	0.6345
200.7119	0.687
200.9294	0.7332
201.1469	0.5332
201.3645	0.6488
201.582	0.5392
201.7995	0.6722
202.017	0.6792
202.2344	0.5989
202.4519	0.8296
202.6694	0.5418
202.8868	0.554
203.1042	0.7273
203.3217	0.7134
203.5391	0.6321
203.7565	0.5812
203.9739	0.6053
204.1913	0.5741
204.4086	0.6581
204.626	0.6184
204.8433	0.6163
205.0607	0.5888
205.278	0.71
205.4953	0.631
205.7126	0.6009
205.9299	0.7355
206.1472	0.7236
206.3644	0.6819
206.5817	0.7521
206.7989	0.7651
207.0162	0.6508
207.2334	0.8411
207.4506	0.6351
207.6678	0.6539
207.885	0.6656
208.1022	0.693
208.3194	0.7086
208.5365	0.611
208.7537	0.7311
208.9708	0.5864
209.1879	0.6446
209.405	0.8217
209.6222	0.6805
209.8392	0.5981
210.0563	0.6241
210.2734	0.5915
210.4905	0.6245
210.7075	0.6174
210.9245	0.6176
211.1416	0.7152
211.3586	0.6791
211.5756	0.5739
211.7926	0.6291
212.0096	0.568
212.2265	0.5807
212.4435	0.5863
212.6604	0.5689
212.8774	0.5621
213.0943	0.5865
213.3112	0.5796
213.5281	0.5691
213.745	0.5032
213.9619	0.501
214.1788	0.4712
214.3956	0.4498
214.6125	0.4903
214.8293	0.4755
215.0461	0.4323
215.2629	0.4384
215.4798	0.4739
215.6965	0.4178
215.9133	0.4337
216.1301	0.3971
216.3469	0.4357
216.5636	0.4508
216.7803	0.4044
216.9971	0.4081
217.2138	0.3607
217.4305	0.3684
217.6472	0.356
217.8639	0.3489
218.0805	0.4001
218.2972	0.3349
218.5138	0.3167
218.7305	0.3305
218.9471	0.3063
219.1637	0.2829
219.3803	0.2824
219.5969	0.2884
219.8135	0.2605
220.0301	0.297
220.2466	0.2779
220.4632	0.2492
220.6797	0.2178
220.8962	0.2518
221.1127	0.2485
221.3292	0.2456
221.5457	0.2338
221.7622	0.2236
221.9787	0.2488
222.1951	0.2248
222.4116	0.281
222.628	0.2548
222.8444	0.2498
223.0608	0.2415
223.2772	0.2484
223.4936	0.256
223.71	0.2562
223.9264	0.2607
224.1427	0.2556
224.3591	0.2329
224.5754	0.2701
224.7917	0.2712
225.008	0.2345
225.2243	0.2555
225.4406	0.2843
225.6569	0.2578
225.8732	0.264
226.0894	0.2735
226.3057	0.2653
226.5219	0.2682
226.7381	0.2742
226.9543	0.2902
227.1705	0.2759
227.3867	0.2711
227.6029	0.2878
227.8191	0.2914
228.0352	0.286
228.2513	0.3141
228.4675	0.3138
228.6836	0.2881
228.8997	0.2926
229.1158	0.2989
229.3319	0.2943
229.548	0.309
229.764	0.3184
229.9801	0.3301
230.1961	0.3124
230.4121	0.334
230.6282	0.3372
230.8442	0.305
231.0602	0.3496
231.2761	0.3477
231.4921	0.3551
231.7081	0.3497
231.924	0.3549
232.14	0.3518
232.3559	0.3428
232.5718	0.3417
232.7877	0.3543
233.0036	0.3484
233.2195	0.3582
233.4353	0.3476
233.6512	0.367
233.867	0.3687
234.0829	0.3618
234.2987	0.3543
234.5145	0.3739
234.7303	0.3534
234.9461	0.3938
235.1619	0.372
235.3776	0.3787
235.5934	0.3865
235.8091	0.3694
236.0249	0.4027
236.2406	0.4003
236.4563	0.38
236.672	0.387
236.8877	0.3808
237.1034	0.3871
237.319	0.3869
237.5347	0.4029
237.7503	0.3999
237.966	0.4031
238.1816	0.3943
238.3972	0.4119
238.6128	0.3877
238.8284	0.4048
239.0439	0.4078
239.2595	0.3891
239.475	0.4309
239.6906	0.3986
239.9061	0.4036
240.1216	0.3934
240.3371	0.4137
240.5526	0.3968
240.7681	0.41
240.9836	0.4027
241.199	0.4027
241.4145	0.3928
241.6299	0.3966
241.8453	0.3987
242.0607	0.3905
242.2761	0.3798
242.4915	0.3793
242.7069	0.3793
242.9223	0.3735
243.1376	0.3823
243.353	0.3767
243.5683	0.3744
243.7836	0.3638
243.9989	0.3619
244.2142	0.3331
244.4295	0.3355
244.6448	0.3406
244.86	0.3151
245.0753	0.3186
245.2905	0.3055
245.5057	0.3037
245.721	0.306
245.9362	0.2837
246.1514	0.2865
246.3665	0.285
246.5817	0.2837
246.7969	0.2685
247.012	0.2729
247.2271	0.2488
247.4423	0.2657
247.6574	0.257
247.8725	0.2598
248.0876	0.2495
248.3026	0.2417
248.5177	0.2394
248.7328	0.2395
248.9478	0.2213
249.1628	0.2168
249.3779	0.2293
249.5929	0.2184
249.8079	0.2424
250.0228	0.2073
250.2378	0.2234
250.4528	0.2135
250.6677	0.1968
250.8827	0.2128
251.0976	0.2115
251.3125	0.1993
251.5274	0.1927
251.7423	0.188
251.9572	0.2196
252.172	0.1922
252.3869	0.2015
252.6017	0.1963
252.8166	0.1768
253.0314	0.1679
253.2462	0.182
253.461	0.1972
253.6758	0.171
253.8906	0.1832
254.1053	0.182
254.3201	0.1814
254.5348	0.1927
254.7496	0.1816
254.9643	0.1818
255.179	0.183
255.3937	0.1748
255.6083	0.1823
255.823	0.1776
256.0377	0.177
256.2523	0.1745
256.467	0.1568
256.6816	0.1849
256.8962	0.1749
257.1108	0.158
257.3254	0.1823
257.54	0.1635
257.7545	0.1711
257.9691	0.18
258.1836	0.1625
258.3981	0.1799
258.6127	0.1771
258.8272	0.1708
259.0417	0.1731
259.2561	0.1661
259.4706	0.1775
259.6851	0.1729
259.8995	0.17
260.114	0.1713
260.3284	0.172
260.5428	0.1753
260.7572	0.1754
260.9716	0.1808
261.186	0.1639
261.4003	0.176
261.6147	0.1855
261.829	0.1761
262.0433	0.179
262.2577	0.1589
262.472	0.1728
262.6863	0.1685
262.9005	0.1669
263.1148	0.1708
263.3291	0.1637
263.5433	0.172
263.7576	0.1654
263.9718	0.1701
264.186	0.1688
264.4002	0.1602
264.6144	0.176
264.8286	0.1783
265.0427	0.171
265.2569	0.1689
265.471	0.1735
265.6851	0.17
265.8993	0.1788
266.1134	0.1658
266.3275	0.1723
266.5415	0.16
266.7556	0.1858
266.9697	0.1699
267.1837	0.1773
267.3978	0.1722
267.6118	0.1772
267.8258	0.1863
268.0398	0.1634
268.2538	0.1778
268.4677	0.1701
268.6817	0.1655
268.8957	0.174
269.1096	0.1775
269.3235	0.177
269.5374	0.1871
269.7514	0.1749
269.9652	0.1626
270.1791	0.1681
270.393	0.1738
270.6068	0.1762
270.8207	0.1763
271.0345	0.1654
271.2483	0.1703
271.4622	0.1632
271.676	0.1697
271.8897	0.1587
272.1035	0.1635
272.3173	0.1582
272.531	0.1591
272.7448	0.1569
272.9585	0.154
273.1722	0.1667
273.3859	0.1782
273.5996	0.1526
273.8133	0.1581
274.0269	0.1641
274.2406	0.1614
274.4542	0.161
274.6679	0.1632
274.8815	0.1614
275.0951	0.1634
275.3087	0.1718
275.5223	0.1746
275.7358	0.1755
275.9494	0.1701
276.1629	0.1616
276.3765	0.1665
276.59	0.1741
276.8035	0.1727
277.017	0.1656
277.2305	0.1725
277.444	0.1791
277.6574	0.1607
277.8709	0.1631
278.0843	0.1684
278.2978	0.1724
278.5112	0.1737
278.7246	0.1726
278.938	0.1704
279.1513	0.1773
279.3647	0.1791
279.5781	0.1668
279.7914	0.1663
280.0047	0.1891
280.2181	0.1811
280.4314	0.1699
280.6447	0.1778
280.8579	0.1722
281.0712	0.1783
281.2845	0.1763
281.4977	0.1688
281.711	0.1595
281.9242	0.1736
282.1374	0.1786
282.3506	0.1718
282.5638	0.1716
282.7769	0.1807
282.9901	0.1701
283.2033	0.1835
283.4164	0.1849
283.6295	0.1676
283.8426	0.1594
284.0557	0.1642
284.2688	0.1756
284.4819	0.1702
284.695	0.1663
284.908	0.1739
285.1211	0.166
285.3341	0.1756
285.5471	0.1772
285.7601	0.1605
285.9731	0.1625
286.1861	0.1553
286.3991	0.1678
286.612	0.1709
286.825	0.1605
287.0379	0.1649
287.2508	0.1662
287.4637	0.1608
287.6766	0.1493
287.8895	0.1683
288.1024	0.1791
288.3152	0.1597
288.5281	0.1392
288.7409	0.1605
288.9538	0.1575
289.1666	0.1545
289.3794	0.1623
289.5922	0.1546
289.8049	0.1618
290.0177	0.1491
290.2304	0.1536
290.4432	0.1477
290.6559	0.1626
290.8686	0.1595
291.0813	0.1687
291.294	0.1603
291.5067	0.1655
291.7194	0.1606
291.932	0.1728
292.1447	0.1494
292.3573	0.1404
292.5699	0.1653
292.7825	0.1617
292.9951	0.154
293.2077	0.1597
293.4203	0.1568
293.6328	0.1332
293.8454	0.1613
294.0579	0.1546
294.2704	0.1467
294.4829	0.1375
294.6954	0.1621
294.9079	0.1557
295.1204	0.1542
295.3328	0.1463
295.5453	0.1497
295.7577	0.1575
295.9701	0.1389
296.1825	0.1566
296.3949	0.1472
296.6073	0.1444
296.8197	0.1474
297.0321	0.1629
297.2444	0.1279
297.4567	0.1501
297.6691	0.148
297.8814	0.1465
298.0937	0.1351
298.306	0.1495
298.5182	0.1562
298.7305	0.1586
298.9428	0.1472
299.155	0.1555
299.3672	0.1522
299.5794	0.1444
299.7916	0.1482
300.0038	0.1433
300.216	0.1532
300.4282	0.1594
300.6403	0.1528
300.8525	0.1603
301.0646	0.139
301.2767	0.1499
301.4888	0.1409
301.7009	0.1559
301.913	0.1408
302.125	0.1574
302.3371	0.1498
302.5491	0.1458
302.7612	0.1504
302.9732	0.1505
303.1852	0.1588
303.3972	0.1499
303.6092	0.1437
303.8211	0.1436
304.0331	0.146
304.245	0.1363
304.457	0.1448
304.6689	0.14
304.8808	0.1545
305.0927	0.1392
305.3046	0.138
305.5164	0.1442
305.7283	0.148
305.9401	0.1351
306.152	0.1379
306.3638	0.1425
306.5756	0.1382
306.7874	0.1426
306.9992	0.1447
307.2109	0.1348
307.4227	0.1224
307.6344	0.1358
307.8462	0.1227
308.0579	0.1236
308.2696	0.1285
308.4813	0.1244
308.693	0.1396
308.9046	0.1403
309.1163	0.1268
309.328	0.1254
309.5396	0.1192
309.7512	0.1296
309.9628	0.1107
310.1744	0.1262
310.386	0.1186
310.5976	0.1235
310.8091	0.1228
311.0207	0.1118
311.2322	0.1376
311.4437	0.1297
311.6552	0.1186
311.8667	0.1263
312.0782	0.1015
312.2897	0.1034
312.5012	0.1163
312.7126	0.1114
312.924	0.1046
313.1355	0.1198
313.3469	0.1104
313.5583	0.119
313.7696	0.1118
313.981	0.1204
314.1924	0.1161
314.4037	0.1083
314.6151	0.1121
314.8264	0.0995
315.0377	0.1063
315.249	0.0981
315.4603	0.1228
315.6716	0.1214
315.8828	0.1057
316.0941	0.1169
316.3053	0.1102
316.5165	0.1033
316.7277	0.0997
316.9389	0.1091
317.1501	0.1066
317.3613	0.1279
317.5724	0.094
317.7836	0.1107
317.9947	0.1066
318.2058	0.1187
318.417	0.0976
318.6281	0.1075
318.8391	0.1094
319.0502	0.1216
319.2613	0.1087
319.4723	0.1223
319.6834	0.1278
319.8944	0.1032
320.1054	0.111
320.3164	0.1118
320.5274	0.1045
320.7383	0.1152
320.9493	0.1135
321.1602	0.136
321.3712	0.1014
321.5821	0.1157
321.793	0.1149
322.0039	0.1188
322.2148	0.1133
322.4257	0.1088
322.6365	0.124
322.8474	0.1164
323.0582	0.1097
323.269	0.1111
323.4798	0.1295
323.6906	0.1232
323.9014	0.1172
324.1122	0.1233
324.3229	0.1147
324.5337	0.1182
324.7444	0.1062
324.9551	0.1308
325.1658	0.1274
325.3765	0.1289
325.5872	0.1176
325.7979	0.1179
326.0085	0.1111
326.2192	0.1259
326.4298	0.1189
326.6404	0.1262
326.851	0.1068
327.0616	0.1187
327.2722	0.12
327.4828	0.1354
327.6933	0.1121
327.9039	0.1246
328.1144	0.1324
328.3249	0.1296
328.5354	0.126
328.7459	0.1165
328.9564	0.1206
329.1669	0.1178
329.3773	0.1184
329.5878	0.1289
329.7982	0.1071
330.0086	0.1226
330.219	0.1223
330.4294	0.124
330.6398	0.1226
330.8502	0.1111
331.0605	0.1279
331.2708	0.1112
331.4812	0.1198
331.6915	0.1229
331.9018	0.116
332.1121	0.1203
332.3224	0.1147
332.5326	0.1263
332.7429	0.1341
332.9531	0.1355
333.1633	0.1322
333.3735	0.1172
333.5837	0.1156
333.7939	0.1208
334.0041	0.1279
334.2143	0.1376
334.4244	0.1261
334.6346	0.1122
334.8447	0.1371
335.0548	0.1143
335.2649	0.1226
335.475	0.1257
335.685	0.1211
335.8951	0.1299
336.1051	0.1195
336.3152	0.1388
336.5252	0.1221
336.7352	0.1312
336.9452	0.1213
337.1552	0.1313
337.3652	0.122
337.5751	0.125
337.7851	0.138
337.995	0.1153
338.2049	0.1364
338.4148	0.1238
338.6247	0.1385
338.8346	0.1237
339.0445	0.1154
339.2543	0.1308
339.4642	0.1334
339.674	0.1179
339.8838	0.1373
340.0936	0.1333
340.3034	0.1357
340.5132	0.1285
340.7229	0.1336
340.9327	0.1292
341.1424	0.1303
341.3522	0.1438
341.5619	0.1302
341.7716	0.138
341.9813	0.1415
342.1909	0.1226
342.4006	0.1425
342.6102	0.1508
342.8199	0.1445
343.0295	0.1491
343.2391	0.1514
343.4487	0.1382
343.6583	0.1396
343.8679	0.1385
344.0774	0.143
344.287	0.145
344.4965	0.1335
344.706	0.1546
344.9155	0.1448
345.125	0.1484
345.3345	0.135
345.544	0.1311
345.7534	0.1404
345.9629	0.1367
346.1723	0.141
346.3817	0.1391
346.5911	0.1324
346.8005	0.1326
347.0099	0.15
347.2193	0.1519
347.4286	0.1363
347.638	0.1403
347.8473	0.1503
348.0566	0.147
348.2659	0.1488
348.4752	0.1459
348.6845	0.1419
348.8937	0.1429
349.103	0.1577
349.3122	0.1367
349.5214	0.1325
349.7306	0.1554
349.9398	0.1427
350.149	0.1466
350.3582	0.1392
350.5674	0.1614
350.7765	0.1499
350.9856	0.1528
351.1948	0.1488
351.4039	0.1448
351.613	0.1411
351.822	0.1601
352.0311	0.1534
352.2402	0.1516
352.4492	0.1533
352.6582	0.1592
352.8672	0.1443
353.0762	0.145
353.2852	0.1524
353.4942	0.1419
353.7032	0.1624
353.9121	0.1732
354.1211	0.1513
354.33	0.1615
354.5389	0.1612
354.7478	0.1569
354.9567	0.156
355.1655	0.1454
355.3744	0.1546
355.5833	0.1601
355.7921	0.1736
356.0009	0.153
356.2097	0.1594
356.4185	0.1633
356.6273	0.1586
356.8361	0.1706
357.0448	0.1547
357.2536	0.1571
357.4623	0.1576
357.671	0.1654
357.8797	0.1621
358.0884	0.1572
358.2971	0.16
358.5057	0.1693
358.7144	0.1746
358.923	0.1811
359.1316	0.1637
359.3402	0.1618
359.5488	0.1725
359.7574	0.1694
359.966	0.1748
360.1746	0.1679
360.3831	0.1652
360.5916	0.1652
360.8002	0.1566
361.0087	0.1807
361.2172	0.1729
361.4256	0.1602
361.6341	0.1913
361.8426	0.1746
362.051	0.1764
362.2594	0.1657
362.4678	0.1802
362.6762	0.1845
362.8846	0.1733
363.093	0.1772
363.3014	0.1755
363.5097	0.1744
363.718	0.1751
363.9264	0.1797
364.1347	0.1753
364.343	0.206
364.5513	0.1853
364.7595	0.1858
364.9678	0.1842
365.176	0.1806
365.3842	0.1808
365.5925	0.1765
365.8007	0.1854
366.0089	0.1915
366.217	0.1749
366.4252	0.1912
366.6333	0.1935
366.8415	0.1786
367.0496	0.1854
367.2577	0.1987
367.4658	0.1875
367.6739	0.1914
367.882	0.2007
368.09	0.1745
368.2981	0.1764
368.5061	0.1833
368.7141	0.1939
368.9221	0.1929
369.1301	0.1814
369.3381	0.1921
369.5461	0.1821
369.754	0.1922
369.962	0.1875
370.1699	0.1899
370.3778	0.198
370.5857	0.1762
370.7936	0.1959
371.0015	0.1901
371.2093	0.1946
371.4172	0.2122
371.625	0.1886
371.8328	0.1971
372.0406	0.2004
372.2484	0.1725
372.4562	0.1913
372.664	0.1964
372.8717	0.2175
373.0795	0.1695
373.2872	0.198
373.4949	0.1923
373.7026	0.2016
373.9103	0.194
374.118	0.2013
374.3256	0.2033
374.5333	0.1883
374.7409	0.1914
374.9485	0.1985
375.1561	0.1896
375.3637	0.2046
375.5713	0.2029
375.7789	0.1883
375.9864	0.206
376.194	0.1951
376.4015	0.2114
376.609	0.204
376.8165	0.2018
377.024	0.195
377.2315	0.1852
377.4389	0.2081
377.6464	0.2048
377.8538	0.2008
378.0612	0.2041
378.2686	0.1968
378.476	0.2291
378.6834	0.2029
378.8908	0.2107
379.0981	0.2064
379.3055	0.2149
379.5128	0.2099
379.7201	0.2072
379.9274	0.1961
380.1347	0.2062
380.342	0.2249
380.5492	0.2103
380.7565	0.197
380.9637	0.2179
381.1709	0.2027
381.3781	0.2029
381.5853	0.2104
381.7925	0.2176
381.9997	0.2076
382.2068	0.2222
382.4139	0.2138
382.6211	0.1975
382.8282	0.1953
383.0353	0.2029
383.2424	0.1983
383.4494	0.2287
383.6565	0.2069
383.8635	0.2087
384.0706	0.1942
384.2776	0.2096
384.4846	0.1964
384.6916	0.2152
384.8986	0.2018
385.1055	0.2107
385.3125	0.2178
385.5194	0.1953
385.7263	0.221
385.9333	0.1988
386.1402	0.195
386.347	0.189
386.5539	0.2087
386.7608	0.2137
386.9676	0.1897
387.1744	0.2064
387.3813	0.1908
387.5881	0.197
387.7948	0.2049
388.0016	0.2025
388.2084	0.1968
388.4151	0.1963
388.6219	0.2082
388.8286	0.2013
389.0353	0.2143
389.242	0.2031
389.4487	0.194
389.6553	0.189
389.862	0.1847
390.0686	0.1706
390.2753	0.1898
390.4819	0.1968
390.6885	0.1857
390.8951	0.1946
391.1016	0.1946
391.3082	0.1847
391.5147	0.192
391.7213	0.1885
391.9278	0.1695
392.1343	0.1776
392.3408	0.1851
392.5473	0.1838
392.7537	0.1753
392.9602	0.1874
393.1666	0.1864
393.373	0.1785
393.5794	0.1812
393.7858	0.1886
393.9922	0.1723
394.1986	0.1854
394.4049	0.1809
394.6113	0.1756
394.8176	0.1563
395.0239	0.176
395.2302	0.1645
395.4365	0.1652
395.6428	0.1684
395.8491	0.1748
396.0553	0.1716
396.2615	0.1741
396.4678	0.1675
396.674	0.1611
396.8802	0.1647
397.0863	0.1934
397.2925	0.1786
397.4987	0.1695
397.7048	0.1628
397.9109	0.1631
398.117	0.1516
398.3231	0.17
398.5292	0.1821
398.7353	0.1785
398.9413	0.1498
399.1474	0.1607
399.3534	0.167
399.5594	0.1645
399.7654	0.181
399.9714	0.17
400.1774	0.15
400.3833	0.1622
400.5893	0.1677
400.7952	0.1723
401.0011	0.1687
401.207	0.172
401.4129	0.1777
401.6188	0.1724
401.8247	0.1604
402.0305	0.1522
402.2364	0.1644
402.4422	0.1804
402.648	0.1664
402.8538	0.1647
403.0596	0.1722
403.2654	0.1659
403.4711	0.1704
403.6768	0.1697
403.8826	0.1665
404.0883	0.18
404.294	0.1649
404.4997	0.1508
404.7054	0.1532
404.911	0.1545
405.1167	0.1617
405.3223	0.158
405.5279	0.1727
405.7335	0.1541
405.9391	0.1789
406.1447	0.1671
406.3502	0.1786
406.5558	0.163
406.7613	0.1749
406.9668	0.1628
407.1724	0.1594
407.3778	0.1567
407.5833	0.1566
407.7888	0.1524
407.9942	0.1726
408.1997	0.1634
408.4051	0.1553
408.6105	0.1513
408.8159	0.1491
409.0213	0.1566
409.2267	0.1869
409.432	0.1537
409.6374	0.1704
409.8427	0.1417
410.048	0.1781
410.2533	0.154
410.4586	0.1603
410.6639	0.1557
410.8691	0.1473
411.0744	0.1513
411.2796	0.1412
411.4848	0.1679
411.69	0.1588
411.8952	0.1744
412.1004	0.1538
412.3056	0.165
412.5107	0.1368
412.7158	0.1668
412.921	0.1459
413.1261	0.1501
413.3312	0.1425
413.5362	0.1543
413.7413	0.1489
413.9464	0.1667
414.1514	0.1575
414.3564	0.1485
414.5614	0.1441
414.7664	0.1453
414.9714	0.1565
415.1764	0.1531
415.3813	0.1704
415.5863	0.153
415.7912	0.165
415.9961	0.1635
416.201	0.1547
416.4059	0.1642
416.6108	0.1547
416.8156	0.1546
417.0205	0.145
417.2253	0.1437
417.4301	0.1703
417.6349	0.1408
417.8397	0.1396
418.0445	0.159
418.2492	0.1347
418.454	0.1515
418.6587	0.1387
418.8634	0.1533
419.0681	0.1274
419.2728	0.134
419.4775	0.1419
419.6822	0.1346
419.8868	0.138
420.0915	0.1323
420.2961	0.1254
420.5007	0.1429
420.7053	0.1274
420.9099	0.1406
421.1144	0.1597
421.319	0.1319
421.5235	0.1416
421.728	0.151
421.9325	0.1471
422.137	0.1378
422.3415	0.1377
422.546	0.1373
422.7504	0.1354
422.9549	0.1431
423.1593	0.144
423.3637	0.1517
423.5681	0.1408
423.7725	0.1224
423.9769	0.1309
424.1812	0.1203
424.3856	0.1222
424.5899	0.128
424.7942	0.1241
424.9985	0.1465
425.2028	0.1186
425.4071	0.154
425.6113	0.1195
425.8156	0.1318
426.0198	0.1314
426.224	0.1199
426.4282	0.1199
426.6324	0.1156
426.8366	0.125
