Data from MonoPyChalIsomerACN10uM420nmA_Absorbance_15-09-54-635.txt Node
Date: Fri Jul 05 15:09:54 BST 2024
User: LASERRRRR
Spectrometer: FLMT03099
Trigger mode: 0
Integration Time (sec): 1.000000E-1
Scans to average: 1
Electric dark correction enabled: true
Nonlinearity correction enabled: false
Boxcar width: 0
XAxis mode: Wavelengths
Number of Pixels in Spectrum: 3648
>>>>>Begin Spectral Data<<<<<
179.3399	-0.5356
179.5586	-0.5356
179.7771	-0.5356
179.9957	-0
180.2143	-0
180.4329	-0.301
180.6514	0.2957
180.8699	-0.0476
181.0885	-0.1753
181.307	0.1277
181.5255	-0
181.744	-0
181.9625	-0
182.181	-0
182.3994	0.64
182.6179	-0
182.8363	0.0021
183.0547	-0.2621
183.2732	-0.0427
183.4916	-0.0265
183.71	0.1465
183.9284	0.2423
184.1467	0.0045
184.3651	0.039
184.5835	-0.0008
184.8018	-0.0391
185.0201	0.275
185.2385	0.077
185.4568	0.2216
185.6751	0.3403
185.8934	0.0896
186.1117	-0.008
186.3299	-0.0488
186.5482	-0.0432
186.7664	0.1316
186.9847	0.079
187.2029	0.1832
187.4211	0.1402
187.6393	0.1639
187.8575	0.3824
188.0757	0.2663
188.2939	0.0446
188.512	0.2241
188.7302	-0.0558
188.9483	0.1232
189.1665	0.3444
189.3846	0.0376
189.6027	0.1548
189.8208	0.2321
190.0389	0.1193
190.257	0.26
190.475	0.306
190.6931	0.3769
190.9111	0.7729
191.1292	0.2385
191.3472	0.7161
191.5652	0.4574
191.7832	0.2692
192.0012	0.6215
192.2192	0.4002
192.4371	0.9077
192.6551	0.4342
192.873	0.3617
193.091	0.3716
193.3089	0.4861
193.5268	0.4215
193.7447	0.6423
193.9626	0.4016
194.1805	0.5919
194.3984	0.7197
194.6162	0.6084
194.8341	0.5369
195.0519	0.5255
195.2697	0.6433
195.4875	0.8041
195.7054	0.5435
195.9231	0.5848
196.1409	0.642
196.3587	0.525
196.5765	0.6931
196.7942	0.6798
197.012	0.5651
197.2297	0.684
197.4474	0.8378
197.6651	0.557
197.8828	0.5214
198.1005	0.6111
198.3182	0.5042
198.5358	0.9256
198.7535	0.6309
198.9711	0.6054
199.1888	0.7091
199.4064	0.9297
199.624	0.6978
199.8416	0.6526
200.0592	0.6533
200.2767	0.7139
200.4943	0.7171
200.7119	0.8342
200.9294	0.6098
201.1469	0.597
201.3645	0.5669
201.582	0.6449
201.7995	0.6819
202.017	0.6587
202.2344	0.6499
202.4519	0.5847
202.6694	0.6566
202.8868	0.6656
203.1042	0.7716
203.3217	0.7698
203.5391	0.5238
203.7565	0.6729
203.9739	0.6786
204.1913	0.6077
204.4086	0.611
204.626	0.6205
204.8433	0.6501
205.0607	0.6116
205.278	0.6762
205.4953	0.6564
205.7126	0.6915
205.9299	0.7433
206.1472	0.7585
206.3644	0.5951
206.5817	0.6264
206.7989	0.6928
207.0162	0.7027
207.2334	0.6572
207.4506	0.6765
207.6678	0.6576
207.885	0.709
208.1022	0.6732
208.3194	0.7106
208.5365	0.6719
208.7537	0.6984
208.9708	0.6082
209.1879	0.6368
209.405	0.759
209.6222	0.6896
209.8392	0.6328
210.0563	0.6633
210.2734	0.6814
210.4905	0.6824
210.7075	0.6517
210.9245	0.5922
211.1416	0.724
211.3586	0.6471
211.5756	0.6319
211.7926	0.5764
212.0096	0.6002
212.2265	0.5993
212.4435	0.535
212.6604	0.6049
212.8774	0.5937
213.0943	0.5941
213.3112	0.5468
213.5281	0.5234
213.745	0.5457
213.9619	0.5367
214.1788	0.4951
214.3956	0.4678
214.6125	0.5226
214.8293	0.4528
215.0461	0.4867
215.2629	0.4556
215.4798	0.4769
215.6965	0.4616
215.9133	0.4587
216.1301	0.4615
216.3469	0.4764
216.5636	0.4424
216.7803	0.4221
216.9971	0.4223
217.2138	0.3798
217.4305	0.3957
217.6472	0.3626
217.8639	0.3796
218.0805	0.3654
218.2972	0.3274
218.5138	0.3096
218.7305	0.3555
218.9471	0.3286
219.1637	0.3009
219.3803	0.2986
219.5969	0.3048
219.8135	0.2571
220.0301	0.265
220.2466	0.2733
220.4632	0.2478
220.6797	0.2475
220.8962	0.2332
221.1127	0.2378
221.3292	0.2642
221.5457	0.2468
221.7622	0.2221
221.9787	0.2491
222.1951	0.2536
222.4116	0.2628
222.628	0.2626
222.8444	0.252
223.0608	0.2516
223.2772	0.2758
223.4936	0.2557
223.71	0.2625
223.9264	0.2693
224.1427	0.2717
224.3591	0.2402
224.5754	0.2785
224.7917	0.2819
225.008	0.2651
225.2243	0.2672
225.4406	0.2961
225.6569	0.2621
225.8732	0.2503
226.0894	0.27
226.3057	0.2706
226.5219	0.2976
226.7381	0.2641
226.9543	0.2897
227.1705	0.2886
227.3867	0.2723
227.6029	0.2912
227.8191	0.2814
228.0352	0.3106
228.2513	0.3197
228.4675	0.3278
228.6836	0.3176
228.8997	0.2984
229.1158	0.3058
229.3319	0.3105
229.548	0.317
229.764	0.3402
229.9801	0.3312
230.1961	0.3291
230.4121	0.3335
230.6282	0.3375
230.8442	0.3169
231.0602	0.351
231.2761	0.3457
231.4921	0.3342
231.7081	0.3536
231.924	0.3476
232.14	0.371
232.3559	0.3286
232.5718	0.3493
232.7877	0.3339
233.0036	0.3588
233.2195	0.3588
233.4353	0.3587
233.6512	0.3585
233.867	0.3787
234.0829	0.3711
234.2987	0.347
234.5145	0.3837
234.7303	0.3805
234.9461	0.3842
235.1619	0.3884
235.3776	0.3678
235.5934	0.3914
235.8091	0.374
236.0249	0.3876
236.2406	0.3658
236.4563	0.3771
236.672	0.4015
236.8877	0.3866
237.1034	0.3808
237.319	0.4151
237.5347	0.411
237.7503	0.3967
237.966	0.3948
238.1816	0.4036
238.3972	0.399
238.6128	0.3757
238.8284	0.4181
239.0439	0.4102
239.2595	0.4094
239.475	0.4103
239.6906	0.4139
239.9061	0.4059
240.1216	0.4145
240.3371	0.4137
240.5526	0.3996
240.7681	0.3966
240.9836	0.411
241.199	0.3982
241.4145	0.4064
241.6299	0.3897
241.8453	0.3678
242.0607	0.3903
242.2761	0.3655
242.4915	0.3817
242.7069	0.3957
242.9223	0.3833
243.1376	0.3576
243.353	0.365
243.5683	0.3805
243.7836	0.3434
243.9989	0.3586
244.2142	0.3301
244.4295	0.3372
244.6448	0.3351
244.86	0.3157
245.0753	0.3221
245.2905	0.3047
245.5057	0.2956
245.721	0.2988
245.9362	0.2791
246.1514	0.3042
246.3665	0.2878
246.5817	0.2767
246.7969	0.2664
247.012	0.2562
247.2271	0.2654
247.4423	0.2673
247.6574	0.2545
247.8725	0.2483
248.0876	0.24
248.3026	0.2428
248.5177	0.2292
248.7328	0.2302
248.9478	0.2286
249.1628	0.2372
249.3779	0.2375
249.5929	0.2311
249.8079	0.2407
250.0228	0.2141
250.2378	0.2046
250.4528	0.2163
250.6677	0.1988
250.8827	0.2049
251.0976	0.2058
251.3125	0.2093
251.5274	0.1918
251.7423	0.1932
251.9572	0.1893
252.172	0.1868
252.3869	0.1921
252.6017	0.1923
252.8166	0.1821
253.0314	0.1705
253.2462	0.1837
253.461	0.1913
253.6758	0.1839
253.8906	0.1893
254.1053	0.1801
254.3201	0.1777
254.5348	0.1852
254.7496	0.182
254.9643	0.1751
255.179	0.1875
255.3937	0.1767
255.6083	0.183
255.823	0.1676
256.0377	0.1633
256.2523	0.1744
256.467	0.16
256.6816	0.1819
256.8962	0.1826
257.1108	0.1748
257.3254	0.1828
257.54	0.1685
257.7545	0.1722
257.9691	0.1831
258.1836	0.1704
258.3981	0.1891
258.6127	0.1867
258.8272	0.1625
259.0417	0.1751
259.2561	0.1664
259.4706	0.1768
259.6851	0.1594
259.8995	0.1723
260.114	0.1707
260.3284	0.1758
260.5428	0.1667
260.7572	0.1605
260.9716	0.1717
261.186	0.1531
261.4003	0.1712
261.6147	0.1748
261.829	0.1695
262.0433	0.1779
262.2577	0.1623
262.472	0.1738
262.6863	0.1636
262.9005	0.1658
263.1148	0.172
263.3291	0.1616
263.5433	0.1657
263.7576	0.1696
263.9718	0.1744
264.186	0.1732
264.4002	0.1738
264.6144	0.1675
264.8286	0.1829
265.0427	0.1771
265.2569	0.1751
265.471	0.1593
265.6851	0.1575
265.8993	0.1789
266.1134	0.1737
266.3275	0.1721
266.5415	0.166
266.7556	0.1934
266.9697	0.1626
267.1837	0.1687
267.3978	0.1804
267.6118	0.172
267.8258	0.1814
268.0398	0.1721
268.2538	0.1791
268.4677	0.1718
268.6817	0.1669
268.8957	0.1825
269.1096	0.1779
269.3235	0.1767
269.5374	0.1764
269.7514	0.1629
269.9652	0.1678
270.1791	0.1666
270.393	0.167
270.6068	0.1735
270.8207	0.1732
271.0345	0.1531
271.2483	0.1641
271.4622	0.165
271.676	0.1727
271.8897	0.1717
272.1035	0.1615
272.3173	0.1598
272.531	0.1619
272.7448	0.1648
272.9585	0.1633
273.1722	0.1533
273.3859	0.1682
273.5996	0.1593
273.8133	0.1656
274.0269	0.1576
274.2406	0.1692
274.4542	0.1758
274.6679	0.1519
274.8815	0.165
275.0951	0.1655
275.3087	0.1738
275.5223	0.1712
275.7358	0.1782
275.9494	0.1635
276.1629	0.1602
276.3765	0.1701
276.59	0.1645
276.8035	0.1618
277.017	0.1649
277.2305	0.1554
277.444	0.182
277.6574	0.1478
277.8709	0.1599
278.0843	0.1534
278.2978	0.1528
278.5112	0.1583
278.7246	0.1632
278.938	0.1707
279.1513	0.1615
279.3647	0.1681
279.5781	0.1607
279.7914	0.1745
280.0047	0.1678
280.2181	0.178
280.4314	0.1774
280.6447	0.1704
280.8579	0.1785
281.0712	0.1764
281.2845	0.1744
281.4977	0.1761
281.711	0.1667
281.9242	0.1732
282.1374	0.1653
282.3506	0.1625
282.5638	0.1694
282.7769	0.1698
282.9901	0.1762
283.2033	0.1862
283.4164	0.1795
283.6295	0.1653
283.8426	0.1717
284.0557	0.164
284.2688	0.1807
284.4819	0.1711
284.695	0.1673
284.908	0.1632
285.1211	0.1632
285.3341	0.1715
285.5471	0.1778
285.7601	0.1555
285.9731	0.162
286.1861	0.1668
286.3991	0.1733
286.612	0.1652
286.825	0.1657
287.0379	0.1625
287.2508	0.1646
287.4637	0.1621
287.6766	0.1628
287.8895	0.1701
288.1024	0.1787
288.3152	0.1791
288.5281	0.1639
288.7409	0.1593
288.9538	0.1627
289.1666	0.159
289.3794	0.1739
289.5922	0.1476
289.8049	0.1589
290.0177	0.1596
290.2304	0.1606
290.4432	0.1612
290.6559	0.1659
290.8686	0.168
291.0813	0.1583
291.294	0.1641
291.5067	0.1657
291.7194	0.1525
291.932	0.1722
292.1447	0.1586
292.3573	0.1563
292.5699	0.1504
292.7825	0.1532
292.9951	0.1535
293.2077	0.1581
293.4203	0.1663
293.6328	0.1479
293.8454	0.1564
294.0579	0.1578
294.2704	0.1594
294.4829	0.1406
294.6954	0.1614
294.9079	0.1499
295.1204	0.1606
295.3328	0.1548
295.5453	0.1568
295.7577	0.1547
295.9701	0.1421
296.1825	0.1502
296.3949	0.1535
296.6073	0.1535
296.8197	0.1422
297.0321	0.159
297.2444	0.145
297.4567	0.1507
297.6691	0.1501
297.8814	0.1326
298.0937	0.1521
298.306	0.1586
298.5182	0.1469
298.7305	0.162
298.9428	0.1379
299.155	0.1554
299.3672	0.149
299.5794	0.1541
299.7916	0.154
300.0038	0.1625
300.216	0.1517
300.4282	0.1521
300.6403	0.1495
300.8525	0.1559
301.0646	0.1393
301.2767	0.1487
301.4888	0.1455
301.7009	0.1585
301.913	0.1435
302.125	0.1555
302.3371	0.1447
302.5491	0.1522
302.7612	0.1589
302.9732	0.1561
303.1852	0.1549
303.3972	0.1524
303.6092	0.1469
303.8211	0.1507
304.0331	0.1468
304.245	0.1389
304.457	0.1452
304.6689	0.1399
304.8808	0.1589
305.0927	0.1372
305.3046	0.1363
305.5164	0.1458
305.7283	0.1293
305.9401	0.1505
306.152	0.1282
306.3638	0.1527
306.5756	0.1311
306.7874	0.1481
306.9992	0.1448
307.2109	0.1334
307.4227	0.133
307.6344	0.1355
307.8462	0.1247
308.0579	0.1355
308.2696	0.1312
308.4813	0.127
308.693	0.1367
308.9046	0.1397
309.1163	0.1263
309.328	0.1271
309.5396	0.1218
309.7512	0.1297
309.9628	0.1291
310.1744	0.1176
310.386	0.1236
310.5976	0.1094
310.8091	0.132
311.0207	0.1162
311.2322	0.1261
311.4437	0.1195
311.6552	0.1239
311.8667	0.1158
312.0782	0.1059
312.2897	0.1107
312.5012	0.1125
312.7126	0.1121
312.924	0.1048
313.1355	0.1155
313.3469	0.1193
313.5583	0.1107
313.7696	0.1132
313.981	0.1157
314.1924	0.1113
314.4037	0.1
314.6151	0.1239
314.8264	0.1088
315.0377	0.1097
315.249	0.1142
315.4603	0.1145
315.6716	0.1076
315.8828	0.1095
316.0941	0.1028
316.3053	0.1141
316.5165	0.1147
316.7277	0.0987
316.9389	0.1223
317.1501	0.1015
317.3613	0.1107
317.5724	0.1053
317.7836	0.1205
317.9947	0.104
318.2058	0.1053
318.417	0.0999
318.6281	0.0972
318.8391	0.1028
319.0502	0.1046
319.2613	0.1147
319.4723	0.1105
319.6834	0.1171
319.8944	0.1095
320.1054	0.1221
320.3164	0.1214
320.5274	0.1039
320.7383	0.1086
320.9493	0.1142
321.1602	0.1179
321.3712	0.0964
321.5821	0.1126
321.793	0.1198
322.0039	0.1035
322.2148	0.1062
322.4257	0.1063
322.6365	0.1216
322.8474	0.1045
323.0582	0.1061
323.269	0.1156
323.4798	0.1219
323.6906	0.1107
323.9014	0.113
324.1122	0.1094
324.3229	0.1152
324.5337	0.1089
324.7444	0.1103
324.9551	0.1205
325.1658	0.1258
325.3765	0.1163
325.5872	0.1134
325.7979	0.1159
326.0085	0.1141
326.2192	0.1239
326.4298	0.1216
326.6404	0.106
326.851	0.1081
327.0616	0.1109
327.2722	0.118
327.4828	0.1305
327.6933	0.1234
327.9039	0.1258
328.1144	0.1203
328.3249	0.115
328.5354	0.1061
328.7459	0.1212
328.9564	0.1231
329.1669	0.1233
329.3773	0.1192
329.5878	0.1234
329.7982	0.1166
330.0086	0.1098
330.219	0.1146
330.4294	0.1144
330.6398	0.1172
330.8502	0.1108
331.0605	0.1197
331.2708	0.1156
331.4812	0.1249
331.6915	0.1243
331.9018	0.1094
332.1121	0.1217
332.3224	0.1343
332.5326	0.1252
332.7429	0.1208
332.9531	0.1239
333.1633	0.1205
333.3735	0.1138
333.5837	0.1062
333.7939	0.1156
334.0041	0.1222
334.2143	0.1377
334.4244	0.138
334.6346	0.109
334.8447	0.1306
335.0548	0.1175
335.2649	0.113
335.475	0.1213
335.685	0.1261
335.8951	0.1228
336.1051	0.1123
336.3152	0.1337
336.5252	0.118
336.7352	0.132
336.9452	0.136
337.1552	0.1251
337.3652	0.1239
337.5751	0.1328
337.7851	0.1333
337.995	0.1199
338.2049	0.131
338.4148	0.1322
338.6247	0.1341
338.8346	0.1307
339.0445	0.1254
339.2543	0.1174
339.4642	0.125
339.674	0.1248
339.8838	0.1373
340.0936	0.1192
340.3034	0.1389
340.5132	0.1367
340.7229	0.1379
340.9327	0.1294
341.1424	0.1291
341.3522	0.1466
341.5619	0.1428
341.7716	0.1364
341.9813	0.1423
342.1909	0.1341
342.4006	0.1358
342.6102	0.143
342.8199	0.1252
343.0295	0.1348
343.2391	0.1452
343.4487	0.1516
343.6583	0.1382
343.8679	0.1326
344.0774	0.1361
344.287	0.153
344.4965	0.1406
344.706	0.1494
344.9155	0.1408
345.125	0.1452
345.3345	0.1404
345.544	0.1428
345.7534	0.1358
345.9629	0.1432
346.1723	0.1399
346.3817	0.1256
346.5911	0.1469
346.8005	0.1457
347.0099	0.1472
347.2193	0.1398
347.4286	0.1392
347.638	0.1414
347.8473	0.1544
348.0566	0.1502
348.2659	0.1482
348.4752	0.1341
348.6845	0.1436
348.8937	0.1393
349.103	0.1488
349.3122	0.1366
349.5214	0.1387
349.7306	0.1444
349.9398	0.1447
350.149	0.1514
350.3582	0.1432
350.5674	0.158
350.7765	0.1445
350.9856	0.1488
351.1948	0.159
351.4039	0.143
351.613	0.1461
351.822	0.1574
352.0311	0.1522
352.2402	0.1513
352.4492	0.1581
352.6582	0.1462
352.8672	0.154
353.0762	0.1295
353.2852	0.1452
353.4942	0.1455
353.7032	0.1568
353.9121	0.1496
354.1211	0.1614
354.33	0.1555
354.5389	0.1631
354.7478	0.1532
354.9567	0.1548
355.1655	0.1401
355.3744	0.1607
355.5833	0.1615
355.7921	0.1758
356.0009	0.1674
356.2097	0.1727
356.4185	0.1651
356.6273	0.165
356.8361	0.1602
357.0448	0.1596
357.2536	0.1536
357.4623	0.1585
357.671	0.1682
357.8797	0.1696
358.0884	0.1667
358.2971	0.1587
358.5057	0.1693
358.7144	0.1801
358.923	0.1904
359.1316	0.1681
359.3402	0.1786
359.5488	0.1734
359.7574	0.1498
359.966	0.1675
360.1746	0.1924
360.3831	0.1764
360.5916	0.1602
360.8002	0.1599
361.0087	0.1931
361.2172	0.1719
361.4256	0.1678
361.6341	0.1758
361.8426	0.1862
362.051	0.1646
362.2594	0.1785
362.4678	0.188
362.6762	0.1847
362.8846	0.1869
363.093	0.1896
363.3014	0.1824
363.5097	0.1495
363.718	0.1838
363.9264	0.1877
364.1347	0.162
364.343	0.1764
364.5513	0.1909
364.7595	0.1904
364.9678	0.1885
365.176	0.1837
365.3842	0.1777
365.5925	0.1792
365.8007	0.1778
366.0089	0.1936
366.217	0.1921
366.4252	0.1903
366.6333	0.1977
366.8415	0.1882
367.0496	0.1838
367.2577	0.1987
367.4658	0.2025
367.6739	0.1858
367.882	0.2046
368.09	0.1979
368.2981	0.2031
368.5061	0.1821
368.7141	0.2107
368.9221	0.2097
369.1301	0.2006
369.3381	0.2103
369.5461	0.1907
369.754	0.1916
369.962	0.2005
370.1699	0.1979
370.3778	0.213
370.5857	0.1889
370.7936	0.2032
371.0015	0.2028
371.2093	0.2045
371.4172	0.2206
371.625	0.202
371.8328	0.1973
372.0406	0.1917
372.2484	0.1955
372.4562	0.2193
372.664	0.2044
372.8717	0.1977
373.0795	0.2043
373.2872	0.198
373.4949	0.1955
373.7026	0.2069
373.9103	0.2191
374.118	0.1995
374.3256	0.2039
374.5333	0.2024
374.7409	0.2104
374.9485	0.204
375.1561	0.2179
375.3637	0.1974
375.5713	0.2069
375.7789	0.2157
375.9864	0.205
376.194	0.2199
376.4015	0.2265
376.609	0.2171
376.8165	0.2074
377.024	0.2046
377.2315	0.1998
377.4389	0.2159
377.6464	0.2217
377.8538	0.1979
378.0612	0.1947
378.2686	0.2199
378.476	0.2268
378.6834	0.2176
378.8908	0.2203
379.0981	0.2136
379.3055	0.2175
379.5128	0.2051
379.7201	0.2174
379.9274	0.2117
380.1347	0.2081
380.342	0.2291
380.5492	0.1985
380.7565	0.2168
380.9637	0.2156
381.1709	0.2274
381.3781	0.206
381.5853	0.2158
381.7925	0.2295
381.9997	0.2214
382.2068	0.2434
382.4139	0.23
382.6211	0.2042
382.8282	0.2212
383.0353	0.2161
383.2424	0.2247
383.4494	0.2295
383.6565	0.2185
383.8635	0.213
384.0706	0.2035
384.2776	0.2179
384.4846	0.2268
384.6916	0.2154
384.8986	0.207
385.1055	0.2092
385.3125	0.2167
385.5194	0.2055
385.7263	0.2363
385.9333	0.2088
386.1402	0.22
386.347	0.2157
386.5539	0.2002
386.7608	0.219
386.9676	0.2017
387.1744	0.2182
387.3813	0.2108
387.5881	0.2079
387.7948	0.2126
388.0016	0.2124
388.2084	0.2078
388.4151	0.2082
388.6219	0.2287
388.8286	0.1928
389.0353	0.2129
389.242	0.2177
389.4487	0.2014
389.6553	0.2071
389.862	0.1992
390.0686	0.2086
390.2753	0.2066
390.4819	0.2095
390.6885	0.2224
390.8951	0.2027
391.1016	0.1974
391.3082	0.2046
391.5147	0.2051
391.7213	0.1974
391.9278	0.1895
392.1343	0.188
392.3408	0.1827
392.5473	0.1934
392.7537	0.1924
392.9602	0.1923
393.1666	0.1978
393.373	0.2107
393.5794	0.2043
393.7858	0.1856
393.9922	0.174
394.1986	0.2027
394.4049	0.1832
394.6113	0.1774
394.8176	0.1816
395.0239	0.1788
395.2302	0.1778
395.4365	0.1814
395.6428	0.2093
395.8491	0.1767
396.0553	0.1747
396.2615	0.1864
396.4678	0.1782
396.674	0.1587
396.8802	0.1675
397.0863	0.1936
397.2925	0.1762
397.4987	0.1655
397.7048	0.1791
397.9109	0.1834
398.117	0.1552
398.3231	0.1648
398.5292	0.1834
398.7353	0.1865
398.9413	0.1818
399.1474	0.1678
399.3534	0.171
399.5594	0.1628
399.7654	0.1899
399.9714	0.1984
400.1774	0.1738
400.3833	0.1731
400.5893	0.163
400.7952	0.1773
401.0011	0.1641
401.207	0.1866
401.4129	0.1898
401.6188	0.1837
401.8247	0.171
402.0305	0.1714
402.2364	0.1638
402.4422	0.191
402.648	0.1875
402.8538	0.1761
403.0596	0.1733
403.2654	0.1846
403.4711	0.1769
403.6768	0.1762
403.8826	0.1785
404.0883	0.1852
404.294	0.1803
404.4997	0.176
404.7054	0.1768
404.911	0.1814
405.1167	0.1734
405.3223	0.1784
405.5279	0.1744
405.7335	0.1915
405.9391	0.1881
406.1447	0.1564
406.3502	0.1753
406.5558	0.1649
406.7613	0.1816
406.9668	0.1745
407.1724	0.169
407.3778	0.1549
407.5833	0.1702
407.7888	0.152
407.9942	0.1819
408.1997	0.167
408.4051	0.1786
408.6105	0.1713
408.8159	0.159
409.0213	0.1664
409.2267	0.1807
409.432	0.1409
409.6374	0.1724
409.8427	0.159
410.048	0.1691
410.2533	0.166
410.4586	0.1624
410.6639	0.1585
410.8691	0.169
411.0744	0.1564
411.2796	0.1452
411.4848	0.1625
411.69	0.1555
411.8952	0.1735
412.1004	0.1602
412.3056	0.1719
412.5107	0.1522
412.7158	0.194
412.921	0.1659
413.1261	0.1678
413.3312	0.1507
413.5362	0.1601
413.7413	0.1732
413.9464	0.1618
414.1514	0.1664
414.3564	0.1724
414.5614	0.1497
414.7664	0.1699
414.9714	0.1666
415.1764	0.1642
415.3813	0.1785
415.5863	0.1741
415.7912	0.1613
415.9961	0.1593
416.201	0.1621
416.4059	0.1707
416.6108	0.159
416.8156	0.1863
417.0205	0.1474
417.2253	0.1506
417.4301	0.1556
417.6349	0.1509
417.8397	0.1639
418.0445	0.164
418.2492	0.1709
418.454	0.1626
418.6587	0.1474
418.8634	0.1495
419.0681	0.1493
419.2728	0.1483
419.4775	0.1573
419.6822	0.1543
419.8868	0.1376
420.0915	0.1582
420.2961	0.1395
420.5007	0.1451
420.7053	0.1434
420.9099	0.1557
421.1144	0.1645
421.319	0.1569
421.5235	0.1752
421.728	0.1564
421.9325	0.1613
422.137	0.1621
422.3415	0.1509
422.546	0.1599
422.7504	0.1444
422.9549	0.1488
423.1593	0.1501
423.3637	0.1533
423.5681	0.1402
423.7725	0.1395
423.9769	0.1414
424.1812	0.15
424.3856	0.1538
424.5899	0.139
424.7942	0.1321
424.9985	0.1476
425.2028	0.1372
425.4071	0.1608
425.6113	0.1282
425.8156	0.1385
426.0198	0.1378
426.224	0.1379
426.4282	0.1379
