Data from MonoPyChalIsomerACN10uM420nmA_Absorbance_15-09-50-535.txt Node
Date: Fri Jul 05 15:09:50 BST 2024
User: LASERRRRR
Spectrometer: FLMT03099
Trigger mode: 0
Integration Time (sec): 1.000000E-1
Scans to average: 1
Electric dark correction enabled: true
Nonlinearity correction enabled: false
Boxcar width: 0
XAxis mode: Wavelengths
Number of Pixels in Spectrum: 3648
>>>>>Begin Spectral Data<<<<<
179.3399	-0.1008
179.5586	-0.1008
179.7771	-0.1008
179.9957	-0.1841
180.2143	-0.0843
180.4329	-0.0043
180.6514	-0
180.8699	-0
181.0885	-0.2624
181.307	0.3717
181.5255	-0.7404
181.744	-0
181.9625	-0
182.181	-0
182.3994	-0
182.6179	-0
182.8363	0.0299
183.0547	-0
183.2732	0.1026
183.4916	0.0866
183.71	-0.0087
183.9284	0.3157
184.1467	0.0625
184.3651	-0.0376
184.5835	0.0316
184.8018	-0.0697
185.0201	0.0503
185.2385	0.0528
185.4568	0.2132
185.6751	-0.1386
185.8934	0.2531
186.1117	0.0463
186.3299	0.1296
186.5482	0.0125
186.7664	-0.0243
186.9847	-0.1199
187.2029	0.154
187.4211	0.0903
187.6393	0.2671
187.8575	-0.1153
188.0757	0.2252
188.2939	-0.0439
188.512	0.0312
188.7302	-0.0015
188.9483	0.0978
189.1665	0.0614
189.3846	-0.4226
189.6027	0.2121
189.8208	0.1651
190.0389	0.2321
190.257	0.1545
190.475	0.0514
190.6931	0.2502
190.9111	0.807
191.1292	0.0456
191.3472	0.4374
191.5652	0.2693
191.7832	0.2993
192.0012	0.458
192.2192	0.2864
192.4371	0.6085
192.6551	0.308
192.873	0.3787
193.091	0.4517
193.3089	0.7466
193.5268	0.472
193.7447	0.6052
193.9626	0.4242
194.1805	0.7526
194.3984	0.9368
194.6162	0.6702
194.8341	0.3957
195.0519	0.5642
195.2697	0.7434
195.4875	0.6737
195.7054	0.7186
195.9231	0.4863
196.1409	0.6416
196.3587	0.749
196.5765	0.5371
196.7942	0.5966
197.012	0.6498
197.2297	0.5003
197.4474	0.8741
197.6651	0.7036
197.8828	0.4301
198.1005	0.552
198.3182	0.6313
198.5358	0.7519
198.7535	0.634
198.9711	0.5487
199.1888	0.5626
199.4064	0.6294
199.624	0.6777
199.8416	0.5925
200.0592	0.6869
200.2767	0.6335
200.4943	0.6262
200.7119	0.7653
200.9294	0.7851
201.1469	0.5227
201.3645	0.6237
201.582	0.4802
201.7995	0.5881
202.017	0.6499
202.2344	0.6899
202.4519	0.7657
202.6694	0.6279
202.8868	0.678
203.1042	0.7986
203.3217	0.6359
203.5391	0.6743
203.7565	0.6028
203.9739	0.6173
204.1913	0.6397
204.4086	0.706
204.626	0.7108
204.8433	0.6358
205.0607	0.6332
205.278	0.6512
205.4953	0.6351
205.7126	0.8115
205.9299	0.7748
206.1472	0.7236
206.3644	0.6458
206.5817	0.694
206.7989	0.7768
207.0162	0.6871
207.2334	0.8164
207.4506	0.5668
207.6678	0.712
207.885	0.608
208.1022	0.6057
208.3194	0.648
208.5365	0.6395
208.7537	0.6744
208.9708	0.589
209.1879	0.6446
209.405	0.7001
209.6222	0.6546
209.8392	0.6542
210.0563	0.6256
210.2734	0.698
210.4905	0.6621
210.7075	0.6485
210.9245	0.642
211.1416	0.6967
211.3586	0.5916
211.5756	0.5739
211.7926	0.6178
212.0096	0.5977
212.2265	0.5491
212.4435	0.5863
212.6604	0.6425
212.8774	0.597
213.0943	0.6039
213.3112	0.5614
213.5281	0.5956
213.745	0.5307
213.9619	0.528
214.1788	0.5377
214.3956	0.4864
214.6125	0.5034
214.8293	0.4755
215.0461	0.4826
215.2629	0.4377
215.4798	0.4894
215.6965	0.4365
215.9133	0.4337
216.1301	0.3971
216.3469	0.4836
216.5636	0.4397
216.7803	0.3903
216.9971	0.413
217.2138	0.4057
217.4305	0.3894
217.6472	0.3787
217.8639	0.3982
218.0805	0.3741
218.2972	0.3561
218.5138	0.3668
218.7305	0.3342
218.9471	0.3281
219.1637	0.3053
219.3803	0.2944
219.5969	0.2947
219.8135	0.2582
220.0301	0.2711
220.2466	0.2856
220.4632	0.2721
220.6797	0.268
220.8962	0.2329
221.1127	0.2838
221.3292	0.2497
221.5457	0.2533
221.7622	0.2556
221.9787	0.2572
222.1951	0.2533
222.4116	0.2708
222.628	0.268
222.8444	0.2733
223.0608	0.2365
223.2772	0.2614
223.4936	0.2867
223.71	0.2464
223.9264	0.2598
224.1427	0.2483
224.3591	0.2519
224.5754	0.2537
224.7917	0.2806
225.008	0.2826
225.2243	0.2751
225.4406	0.2825
225.6569	0.2638
225.8732	0.2535
226.0894	0.261
226.3057	0.2762
226.5219	0.3014
226.7381	0.2802
226.9543	0.2998
227.1705	0.2795
227.3867	0.2845
227.6029	0.3015
227.8191	0.3044
228.0352	0.3226
228.2513	0.329
228.4675	0.3116
228.6836	0.3167
228.8997	0.2998
229.1158	0.3166
229.3319	0.3306
229.548	0.3139
229.764	0.3367
229.9801	0.3272
230.1961	0.3382
230.4121	0.3595
230.6282	0.3273
230.8442	0.327
231.0602	0.3554
231.2761	0.3508
231.4921	0.3553
231.7081	0.3799
231.924	0.3504
232.14	0.3826
232.3559	0.3368
232.5718	0.3855
232.7877	0.3584
233.0036	0.3447
233.2195	0.3648
233.4353	0.373
233.6512	0.3582
233.867	0.3754
234.0829	0.3899
234.2987	0.3582
234.5145	0.3728
234.7303	0.3709
234.9461	0.393
235.1619	0.3985
235.3776	0.3819
235.5934	0.4047
235.8091	0.3729
236.0249	0.3695
236.2406	0.4047
236.4563	0.3856
236.672	0.4193
236.8877	0.3986
237.1034	0.3931
237.319	0.4056
237.5347	0.4162
237.7503	0.4013
237.966	0.4111
238.1816	0.406
238.3972	0.4176
238.6128	0.4068
238.8284	0.4148
239.0439	0.4121
239.2595	0.4163
239.475	0.4273
239.6906	0.4185
239.9061	0.4054
240.1216	0.408
240.3371	0.422
240.5526	0.3952
240.7681	0.4126
240.9836	0.394
241.199	0.402
241.4145	0.4004
241.6299	0.3736
241.8453	0.373
242.0607	0.3878
242.2761	0.3621
242.4915	0.3629
242.7069	0.3846
242.9223	0.3618
243.1376	0.3594
243.353	0.3586
243.5683	0.3546
243.7836	0.3455
243.9989	0.3351
244.2142	0.3125
244.4295	0.323
244.6448	0.3068
244.86	0.3118
245.0753	0.2972
245.2905	0.3043
245.5057	0.274
245.721	0.2884
245.9362	0.2804
246.1514	0.2803
246.3665	0.2631
246.5817	0.2686
246.7969	0.2553
247.012	0.255
247.2271	0.2587
247.4423	0.2533
247.6574	0.247
247.8725	0.2298
248.0876	0.2348
248.3026	0.2319
248.5177	0.2263
248.7328	0.2287
248.9478	0.2254
249.1628	0.2185
249.3779	0.2292
249.5929	0.2024
249.8079	0.227
250.0228	0.2137
250.2378	0.2055
250.4528	0.2112
250.6677	0.2089
250.8827	0.2021
251.0976	0.197
251.3125	0.2043
251.5274	0.176
251.7423	0.184
251.9572	0.1979
252.172	0.1843
252.3869	0.1905
252.6017	0.1822
252.8166	0.1651
253.0314	0.1755
253.2462	0.1859
253.461	0.1775
253.6758	0.1699
253.8906	0.1903
254.1053	0.1689
254.3201	0.1727
254.5348	0.1764
254.7496	0.1775
254.9643	0.1736
255.179	0.1893
255.3937	0.1603
255.6083	0.1771
255.823	0.1733
256.0377	0.1628
256.2523	0.1746
256.467	0.157
256.6816	0.1783
256.8962	0.1698
257.1108	0.1788
257.3254	0.183
257.54	0.1543
257.7545	0.1674
257.9691	0.1648
258.1836	0.1701
258.3981	0.1855
258.6127	0.1788
258.8272	0.1683
259.0417	0.1634
259.2561	0.1649
259.4706	0.1771
259.6851	0.1848
259.8995	0.1646
260.114	0.1607
260.3284	0.1669
260.5428	0.1621
260.7572	0.1825
260.9716	0.1885
261.186	0.159
261.4003	0.1717
261.6147	0.1821
261.829	0.182
262.0433	0.1604
262.2577	0.1667
262.472	0.1638
262.6863	0.1563
262.9005	0.1844
263.1148	0.1689
263.3291	0.1555
263.5433	0.1746
263.7576	0.1607
263.9718	0.1583
264.186	0.1626
264.4002	0.1526
264.6144	0.1638
264.8286	0.1896
265.0427	0.1693
265.2569	0.1689
265.471	0.1659
265.6851	0.1659
265.8993	0.1643
266.1134	0.1695
266.3275	0.1523
266.5415	0.1673
266.7556	0.1812
266.9697	0.1687
267.1837	0.1609
267.3978	0.1682
267.6118	0.1774
267.8258	0.1734
268.0398	0.157
268.2538	0.1812
268.4677	0.1707
268.6817	0.1658
268.8957	0.1659
269.1096	0.1702
269.3235	0.1652
269.5374	0.1639
269.7514	0.1525
269.9652	0.1561
270.1791	0.1538
270.393	0.1546
270.6068	0.1691
270.8207	0.1461
271.0345	0.167
271.2483	0.1529
271.4622	0.1561
271.676	0.1674
271.8897	0.1422
272.1035	0.1462
272.3173	0.1395
272.531	0.152
272.7448	0.1457
272.9585	0.1477
273.1722	0.1562
273.3859	0.1449
273.5996	0.157
273.8133	0.1597
274.0269	0.1396
274.2406	0.1397
274.4542	0.1428
274.6679	0.1347
274.8815	0.1555
275.0951	0.1517
275.3087	0.1447
275.5223	0.1549
275.7358	0.1483
275.9494	0.1545
276.1629	0.1416
276.3765	0.1446
276.59	0.1484
276.8035	0.1526
277.017	0.1522
277.2305	0.1443
277.444	0.1598
277.6574	0.1349
277.8709	0.1464
278.0843	0.1354
278.2978	0.148
278.5112	0.1364
278.7246	0.1454
278.938	0.1632
279.1513	0.1523
279.3647	0.161
279.5781	0.1485
279.7914	0.1432
280.0047	0.1527
280.2181	0.162
280.4314	0.1652
280.6447	0.152
280.8579	0.1547
281.0712	0.1549
281.2845	0.1656
281.4977	0.1641
281.711	0.1478
281.9242	0.1507
282.1374	0.1707
282.3506	0.1542
282.5638	0.1487
282.7769	0.1571
282.9901	0.1566
283.2033	0.1665
283.4164	0.1663
283.6295	0.1536
283.8426	0.1597
284.0557	0.1584
284.2688	0.1677
284.4819	0.1648
284.695	0.164
284.908	0.1616
285.1211	0.1613
285.3341	0.1609
285.5471	0.1607
285.7601	0.1564
285.9731	0.1512
286.1861	0.1605
286.3991	0.1606
286.612	0.1585
286.825	0.1571
287.0379	0.1712
287.2508	0.1696
287.4637	0.1699
287.6766	0.1636
287.8895	0.1772
288.1024	0.1913
288.3152	0.1653
288.5281	0.163
288.7409	0.1673
288.9538	0.1719
289.1666	0.1706
289.3794	0.1652
289.5922	0.1643
289.8049	0.1631
290.0177	0.1589
290.2304	0.1656
290.4432	0.1681
290.6559	0.165
290.8686	0.1859
291.0813	0.1662
291.294	0.1638
291.5067	0.1874
291.7194	0.1751
291.932	0.1723
292.1447	0.1689
292.3573	0.1582
292.5699	0.1634
292.7825	0.1731
292.9951	0.162
293.2077	0.1675
293.4203	0.1649
293.6328	0.1643
293.8454	0.1865
294.0579	0.1777
294.2704	0.1666
294.4829	0.1608
294.6954	0.1676
294.9079	0.1611
295.1204	0.1638
295.3328	0.1636
295.5453	0.1601
295.7577	0.1627
295.9701	0.1593
296.1825	0.1702
296.3949	0.1578
296.6073	0.1638
296.8197	0.1613
297.0321	0.1738
297.2444	0.1618
297.4567	0.1651
297.6691	0.166
297.8814	0.1667
298.0937	0.1623
298.306	0.175
298.5182	0.1553
298.7305	0.1762
298.9428	0.1728
299.155	0.1732
299.3672	0.1747
299.5794	0.1658
299.7916	0.1496
300.0038	0.1667
300.216	0.1728
300.4282	0.1698
300.6403	0.164
300.8525	0.1755
301.0646	0.1612
301.2767	0.1656
301.4888	0.1593
301.7009	0.1665
301.913	0.1663
302.125	0.1702
302.3371	0.1561
302.5491	0.1707
302.7612	0.1695
302.9732	0.1716
303.1852	0.1725
303.3972	0.16
303.6092	0.1522
303.8211	0.1616
304.0331	0.1519
304.245	0.1541
304.457	0.1558
304.6689	0.1582
304.8808	0.1695
305.0927	0.146
305.3046	0.1512
305.5164	0.1609
305.7283	0.1595
305.9401	0.1521
306.152	0.1566
306.3638	0.1495
306.5756	0.1451
306.7874	0.1513
306.9992	0.1576
307.2109	0.1429
307.4227	0.1284
307.6344	0.1428
307.8462	0.1333
308.0579	0.1396
308.2696	0.1368
308.4813	0.137
308.693	0.1292
308.9046	0.1413
309.1163	0.1357
309.328	0.1304
309.5396	0.1219
309.7512	0.1371
309.9628	0.1233
310.1744	0.1263
310.386	0.1229
310.5976	0.119
310.8091	0.1239
311.0207	0.119
311.2322	0.1203
311.4437	0.108
311.6552	0.1146
311.8667	0.1165
312.0782	0.1042
312.2897	0.1038
312.5012	0.1201
312.7126	0.1052
312.924	0.1073
313.1355	0.117
313.3469	0.1075
313.5583	0.1161
313.7696	0.1071
313.981	0.1126
314.1924	0.1077
314.4037	0.1085
314.6151	0.1155
314.8264	0.0937
315.0377	0.0995
315.249	0.102
315.4603	0.117
315.6716	0.1097
315.8828	0.1005
316.0941	0.0905
316.3053	0.1029
316.5165	0.1003
316.7277	0.0861
316.9389	0.1002
317.1501	0.096
317.3613	0.1031
317.5724	0.08
317.7836	0.1006
317.9947	0.102
318.2058	0.0961
318.417	0.0989
318.6281	0.0967
318.8391	0.1037
319.0502	0.089
319.2613	0.103
319.4723	0.1038
319.6834	0.0969
319.8944	0.0801
320.1054	0.1007
320.3164	0.1075
320.5274	0.0918
320.7383	0.0966
320.9493	0.0972
321.1602	0.1111
321.3712	0.0842
321.5821	0.0998
321.793	0.1072
322.0039	0.0987
322.2148	0.1006
322.4257	0.1043
322.6365	0.1136
322.8474	0.1006
323.0582	0.101
323.269	0.1116
323.4798	0.1118
323.6906	0.1058
323.9014	0.0981
324.1122	0.1079
324.3229	0.101
324.5337	0.0961
324.7444	0.0993
324.9551	0.1179
325.1658	0.1043
325.3765	0.1155
325.5872	0.1039
325.7979	0.1078
326.0085	0.1006
326.2192	0.1064
326.4298	0.1018
326.6404	0.1039
326.851	0.0968
327.0616	0.096
327.2722	0.0953
327.4828	0.1136
327.6933	0.1059
327.9039	0.1016
328.1144	0.1052
328.3249	0.1093
328.5354	0.1088
328.7459	0.1084
328.9564	0.1031
329.1669	0.1093
329.3773	0.1082
329.5878	0.0989
329.7982	0.097
330.0086	0.1025
330.219	0.1088
330.4294	0.097
330.6398	0.1056
330.8502	0.1019
331.0605	0.1062
331.2708	0.1151
331.4812	0.1111
331.6915	0.1117
331.9018	0.1053
332.1121	0.1046
332.3224	0.1066
332.5326	0.1156
332.7429	0.0989
332.9531	0.119
333.1633	0.1046
333.3735	0.1175
333.5837	0.1068
333.7939	0.104
334.0041	0.111
334.2143	0.1097
334.4244	0.1056
334.6346	0.0927
334.8447	0.1219
335.0548	0.1075
335.2649	0.1002
335.475	0.1109
335.685	0.1024
335.8951	0.1198
336.1051	0.1152
336.3152	0.1161
336.5252	0.0988
336.7352	0.1151
336.9452	0.121
337.1552	0.1257
337.3652	0.1081
337.5751	0.1157
337.7851	0.1105
337.995	0.101
338.2049	0.1133
338.4148	0.1221
338.6247	0.132
338.8346	0.117
339.0445	0.1128
339.2543	0.1049
339.4642	0.1115
339.674	0.107
339.8838	0.1112
340.0936	0.1197
340.3034	0.1192
340.5132	0.1268
340.7229	0.1186
340.9327	0.1166
341.1424	0.119
341.3522	0.1227
341.5619	0.1273
341.7716	0.1163
341.9813	0.1226
342.1909	0.1186
342.4006	0.1255
342.6102	0.1388
342.8199	0.1263
343.0295	0.1252
343.2391	0.1255
343.4487	0.1323
343.6583	0.1177
343.8679	0.1352
344.0774	0.1342
344.287	0.1219
344.4965	0.1175
344.706	0.1363
344.9155	0.1269
345.125	0.1261
345.3345	0.144
345.544	0.126
345.7534	0.1223
345.9629	0.1254
346.1723	0.1266
346.3817	0.1203
346.5911	0.1304
346.8005	0.1342
347.0099	0.138
347.2193	0.1222
347.4286	0.1398
347.638	0.1476
347.8473	0.1383
348.0566	0.139
348.2659	0.1304
348.4752	0.1323
348.6845	0.1291
348.8937	0.1295
349.103	0.1418
349.3122	0.1347
349.5214	0.1229
349.7306	0.1369
349.9398	0.1436
350.149	0.1371
350.3582	0.1445
350.5674	0.1562
350.7765	0.1532
350.9856	0.1389
351.1948	0.135
351.4039	0.1309
351.613	0.1367
351.822	0.1485
352.0311	0.1516
352.2402	0.1424
352.4492	0.1556
352.6582	0.1484
352.8672	0.142
353.0762	0.1545
353.2852	0.1443
353.4942	0.1329
353.7032	0.1548
353.9121	0.147
354.1211	0.1601
354.33	0.1462
354.5389	0.1475
354.7478	0.1438
354.9567	0.154
355.1655	0.1477
355.3744	0.1482
355.5833	0.1571
355.7921	0.1662
356.0009	0.1537
356.2097	0.1826
356.4185	0.1614
356.6273	0.1675
356.8361	0.1593
357.0448	0.159
357.2536	0.1556
357.4623	0.1626
357.671	0.1697
357.8797	0.1699
358.0884	0.1754
358.2971	0.161
358.5057	0.17
358.7144	0.1741
358.923	0.1614
359.1316	0.1778
359.3402	0.1661
359.5488	0.1632
359.7574	0.1638
359.966	0.1787
360.1746	0.186
360.3831	0.1852
360.5916	0.1659
360.8002	0.1784
361.0087	0.1821
361.2172	0.183
361.4256	0.1744
361.6341	0.1917
361.8426	0.178
362.051	0.1903
362.2594	0.1819
362.4678	0.1673
362.6762	0.1991
362.8846	0.1926
363.093	0.1976
363.3014	0.1861
363.5097	0.1716
363.718	0.1816
363.9264	0.1901
364.1347	0.1895
364.343	0.1921
364.5513	0.2028
364.7595	0.1922
364.9678	0.1819
365.176	0.1918
365.3842	0.1945
365.5925	0.2075
365.8007	0.197
366.0089	0.1886
366.217	0.1821
366.4252	0.2052
366.6333	0.1926
366.8415	0.2024
367.0496	0.1969
367.2577	0.201
367.4658	0.2165
367.6739	0.1976
367.882	0.2139
368.09	0.1977
368.2981	0.1953
368.5061	0.1995
368.7141	0.2155
368.9221	0.2173
369.1301	0.2244
369.3381	0.1945
369.5461	0.2278
369.754	0.2077
369.962	0.225
370.1699	0.2145
370.3778	0.2254
370.5857	0.2023
370.7936	0.2236
371.0015	0.2236
371.2093	0.2296
371.4172	0.2361
371.625	0.2038
371.8328	0.2033
372.0406	0.2079
372.2484	0.2144
372.4562	0.2329
372.664	0.2118
372.8717	0.2293
373.0795	0.2034
373.2872	0.218
373.4949	0.2211
373.7026	0.2248
373.9103	0.2447
374.118	0.2388
374.3256	0.2344
374.5333	0.2304
374.7409	0.2204
374.9485	0.2358
375.1561	0.2315
375.3637	0.2457
375.5713	0.2248
375.7789	0.2209
375.9864	0.243
376.194	0.226
376.4015	0.234
376.609	0.2313
376.8165	0.2352
377.024	0.2232
377.2315	0.2315
377.4389	0.2338
377.6464	0.2441
377.8538	0.2373
378.0612	0.2451
378.2686	0.2425
378.476	0.2549
378.6834	0.2438
378.8908	0.2509
379.0981	0.2377
379.3055	0.252
379.5128	0.2498
379.7201	0.2502
379.9274	0.2299
380.1347	0.255
380.342	0.2574
380.5492	0.2402
380.7565	0.2449
380.9637	0.2573
381.1709	0.2504
381.3781	0.2676
381.5853	0.2564
381.7925	0.2395
381.9997	0.2498
382.2068	0.2541
382.4139	0.2674
382.6211	0.2385
382.8282	0.2414
383.0353	0.2312
383.2424	0.2695
383.4494	0.258
383.6565	0.2517
383.8635	0.2482
384.0706	0.2672
384.2776	0.2656
384.4846	0.2484
384.6916	0.2466
384.8986	0.2566
385.1055	0.2732
385.3125	0.2659
385.5194	0.2401
385.7263	0.2728
385.9333	0.278
386.1402	0.2532
386.347	0.2621
386.5539	0.2534
386.7608	0.2533
386.9676	0.2479
387.1744	0.2534
387.3813	0.2343
387.5881	0.2597
387.7948	0.2296
388.0016	0.233
388.2084	0.2537
388.4151	0.2402
388.6219	0.2682
388.8286	0.2506
389.0353	0.2583
389.242	0.2541
389.4487	0.2469
389.6553	0.2287
389.862	0.2257
390.0686	0.2372
390.2753	0.2503
390.4819	0.2509
390.6885	0.2405
390.8951	0.243
391.1016	0.2367
391.3082	0.2189
391.5147	0.2391
391.7213	0.2372
391.9278	0.2315
392.1343	0.2216
392.3408	0.2253
392.5473	0.2415
392.7537	0.2097
392.9602	0.2248
393.1666	0.2181
393.373	0.2361
393.5794	0.2362
393.7858	0.2289
393.9922	0.2263
394.1986	0.2233
394.4049	0.2241
394.6113	0.228
394.8176	0.215
395.0239	0.224
395.2302	0.2059
395.4365	0.2182
395.6428	0.2205
395.8491	0.2015
396.0553	0.2219
396.2615	0.2393
396.4678	0.2051
396.674	0.2196
396.8802	0.2187
397.0863	0.2277
397.2925	0.2077
397.4987	0.2088
397.7048	0.2231
397.9109	0.2177
398.117	0.1908
398.3231	0.2177
398.5292	0.2184
398.7353	0.2106
398.9413	0.2264
399.1474	0.2061
399.3534	0.2072
399.5594	0.2039
399.7654	0.2196
399.9714	0.2243
400.1774	0.2112
400.3833	0.2047
400.5893	0.2037
400.7952	0.216
401.0011	0.2244
401.207	0.2241
401.4129	0.2081
401.6188	0.203
401.8247	0.2103
402.0305	0.1934
402.2364	0.2061
402.4422	0.2272
402.648	0.2083
402.8538	0.2333
403.0596	0.1951
403.2654	0.2073
403.4711	0.1918
403.6768	0.206
403.8826	0.2172
404.0883	0.2317
404.294	0.2107
404.4997	0.2019
404.7054	0.2327
404.911	0.2095
405.1167	0.2211
405.3223	0.2258
405.5279	0.2217
405.7335	0.2196
405.9391	0.2165
406.1447	0.2195
406.3502	0.2179
406.5558	0.2123
406.7613	0.2011
406.9668	0.2157
407.1724	0.2205
407.3778	0.1902
407.5833	0.2109
407.7888	0.2043
407.9942	0.2202
408.1997	0.2188
408.4051	0.2102
408.6105	0.2158
408.8159	0.1994
409.0213	0.1965
409.2267	0.236
409.432	0.1994
409.6374	0.2267
409.8427	0.2042
410.048	0.1977
410.2533	0.2128
410.4586	0.2001
410.6639	0.2061
410.8691	0.204
411.0744	0.2062
411.2796	0.202
411.4848	0.2163
411.69	0.1934
411.8952	0.22
412.1004	0.2018
412.3056	0.2093
412.5107	0.1957
412.7158	0.2227
412.921	0.181
413.1261	0.2091
413.3312	0.1938
413.5362	0.2104
413.7413	0.1995
413.9464	0.2032
414.1514	0.1955
414.3564	0.1853
414.5614	0.1887
414.7664	0.2082
414.9714	0.2117
415.1764	0.2044
415.3813	0.2346
415.5863	0.1977
415.7912	0.2134
415.9961	0.2106
416.201	0.2009
416.4059	0.1992
416.6108	0.2001
416.8156	0.2005
417.0205	0.2126
417.2253	0.1971
417.4301	0.2137
417.6349	0.1948
417.8397	0.2016
418.0445	0.2144
418.2492	0.2259
418.454	0.209
418.6587	0.1921
418.8634	0.2017
419.0681	0.1762
419.2728	0.1804
419.4775	0.198
419.6822	0.195
419.8868	0.1713
420.0915	0.1865
420.2961	0.1744
420.5007	0.1823
420.7053	0.186
420.9099	0.1919
421.1144	0.2066
421.319	0.1809
421.5235	0.1919
421.728	0.1799
421.9325	0.1828
422.137	0.199
422.3415	0.1874
422.546	0.1865
422.7504	0.1853
422.9549	0.1899
423.1593	0.2028
423.3637	0.2062
423.5681	0.2032
423.7725	0.1795
423.9769	0.1696
424.1812	0.1638
424.3856	0.1766
424.5899	0.1903
424.7942	0.1589
424.9985	0.1797
425.2028	0.1604
425.4071	0.1861
425.6113	0.1704
425.8156	0.1718
426.0198	0.1716
426.224	0.1502
426.4282	0.1534
426.6324	0.1562
426.8366	0.1524
