Data from D4ACN5uM460nmA_Absorbance_13-05-42-065.txt Node
Date: Fri Feb 21 13:05:42 GMT 2025
User: LASERRRRR
Spectrometer: FLMT03099
Trigger mode: 0
Integration Time (sec): 1.500000E-2
Scans to average: 1
Electric dark correction enabled: true
Nonlinearity correction enabled: false
Boxcar width: 0
XAxis mode: Wavelengths
Number of Pixels in Spectrum: 3648
>>>>>Begin Spectral Data<<<<<
179.3399	-0.7938
179.5586	-0.7938
179.7771	-0.7938
179.9957	-0.0082
180.2143	-1.3854
180.4329	-0.1938
180.6514	-0.0884
180.8699	-0.3198
181.0885	-0
181.307	-0.0054
181.5255	-0.0216
181.744	-0
181.9625	0.0549
182.181	-0
182.3994	-0.6928
182.6179	-0.5554
182.8363	0.0085
183.0547	-0
183.2732	0.0473
183.4916	0.4098
183.71	0.2526
183.9284	0.3867
184.1467	0.0919
184.3651	0.3064
184.5835	0.1838
184.8018	0.223
185.0201	0.0935
185.2385	0.5724
185.4568	0.0837
185.6751	0.1858
185.8934	0.229
186.1117	0.0024
186.3299	0.4136
186.5482	0.196
186.7664	0.2432
186.9847	0.1069
187.2029	0.2773
187.4211	-0.0128
187.6393	0.1852
187.8575	0.2946
188.0757	0.336
188.2939	0.1368
188.512	0.5172
188.7302	0.0723
188.9483	0.1477
189.1665	0.4225
189.3846	0.3116
189.6027	0.1286
189.8208	0.3312
190.0389	0.1449
190.257	0.182
190.475	0.0094
190.6931	0.1114
190.9111	0.163
191.1292	0.1977
191.3472	0.3258
191.5652	0.4298
191.7832	0.2034
192.0012	0.2093
192.2192	0.1465
192.4371	0.1561
192.6551	0.125
192.873	0.2194
193.091	0.1311
193.3089	0.1018
193.5268	0.3112
193.7447	0.2117
193.9626	0.1173
194.1805	0.2836
194.3984	0.3113
194.6162	0.2765
194.8341	0.3204
195.0519	0.2339
195.2697	0.2464
195.4875	0.2931
195.7054	0.206
195.9231	0.2561
196.1409	0.4128
196.3587	0.302
196.5765	0.328
196.7942	0.2891
197.012	0.2756
197.2297	0.3243
197.4474	0.3997
197.6651	0.2577
197.8828	0.3326
198.1005	0.4446
198.3182	0.3743
198.5358	0.3702
198.7535	0.3697
198.9711	0.3919
199.1888	0.3705
199.4064	0.3869
199.624	0.3825
199.8416	0.3029
200.0592	0.3674
200.2767	0.435
200.4943	0.3869
200.7119	0.3972
200.9294	0.413
201.1469	0.4656
201.3645	0.4661
201.582	0.3838
201.7995	0.4073
202.017	0.4161
202.2344	0.3939
202.4519	0.3942
202.6694	0.3738
202.8868	0.4296
203.1042	0.4177
203.3217	0.3925
203.5391	0.3679
203.7565	0.3727
203.9739	0.4122
204.1913	0.3197
204.4086	0.3646
204.626	0.4137
204.8433	0.3749
205.0607	0.3565
205.278	0.3542
205.4953	0.3444
205.7126	0.3624
205.9299	0.3149
206.1472	0.3277
206.3644	0.3518
206.5817	0.2873
206.7989	0.3407
207.0162	0.3427
207.2334	0.344
207.4506	0.312
207.6678	0.3365
207.885	0.3032
208.1022	0.2975
208.3194	0.3027
208.5365	0.3068
208.7537	0.3017
208.9708	0.3053
209.1879	0.2731
209.405	0.2775
209.6222	0.2578
209.8392	0.3031
210.0563	0.2613
210.2734	0.2653
210.4905	0.2502
210.7075	0.2954
210.9245	0.2794
211.1416	0.2753
211.3586	0.2722
211.5756	0.2619
211.7926	0.2695
212.0096	0.2585
212.2265	0.2691
212.4435	0.2814
212.6604	0.2528
212.8774	0.2419
213.0943	0.2637
213.3112	0.2477
213.5281	0.2565
213.745	0.2442
213.9619	0.2546
214.1788	0.2586
214.3956	0.2429
214.6125	0.2624
214.8293	0.2492
215.0461	0.2722
215.2629	0.2589
215.4798	0.25
215.6965	0.2483
215.9133	0.2551
216.1301	0.2643
216.3469	0.2593
216.5636	0.2567
216.7803	0.2633
216.9971	0.2558
217.2138	0.2531
217.4305	0.2464
217.6472	0.2572
217.8639	0.2736
218.0805	0.261
218.2972	0.2637
218.5138	0.2532
218.7305	0.268
218.9471	0.2585
219.1637	0.2782
219.3803	0.2684
219.5969	0.2682
219.8135	0.2752
220.0301	0.2625
220.2466	0.2473
220.4632	0.2603
220.6797	0.275
220.8962	0.2697
221.1127	0.2732
221.3292	0.2792
221.5457	0.2753
221.7622	0.2737
221.9787	0.2806
222.1951	0.2735
222.4116	0.2775
222.628	0.2951
222.8444	0.2753
223.0608	0.2789
223.2772	0.2907
223.4936	0.2833
223.71	0.2983
223.9264	0.3057
224.1427	0.2947
224.3591	0.2992
224.5754	0.2901
224.7917	0.2942
225.008	0.3043
225.2243	0.3072
225.4406	0.2954
225.6569	0.3082
225.8732	0.3232
226.0894	0.319
226.3057	0.3114
226.5219	0.3163
226.7381	0.3199
226.9543	0.3082
227.1705	0.3127
227.3867	0.3269
227.6029	0.3265
227.8191	0.3415
228.0352	0.3502
228.2513	0.3502
228.4675	0.3395
228.6836	0.3431
228.8997	0.348
229.1158	0.3481
229.3319	0.3707
229.548	0.3471
229.764	0.3541
229.9801	0.3704
230.1961	0.3701
230.4121	0.3721
230.6282	0.3923
230.8442	0.3807
231.0602	0.3875
231.2761	0.3803
231.4921	0.4007
231.7081	0.4075
231.924	0.4054
232.14	0.4089
232.3559	0.4088
232.5718	0.3997
232.7877	0.4235
233.0036	0.4102
233.2195	0.4106
233.4353	0.4202
233.6512	0.4137
233.867	0.4256
234.0829	0.4166
234.2987	0.4252
234.5145	0.4324
234.7303	0.4309
234.9461	0.4358
235.1619	0.436
235.3776	0.4402
235.5934	0.4456
235.8091	0.4381
236.0249	0.448
236.2406	0.4388
236.4563	0.4395
236.672	0.4468
236.8877	0.4549
237.1034	0.4461
237.319	0.4494
237.5347	0.4589
237.7503	0.453
237.966	0.4552
238.1816	0.4517
238.3972	0.4538
238.6128	0.4586
238.8284	0.4681
239.0439	0.4559
239.2595	0.4596
239.475	0.4614
239.6906	0.4683
239.9061	0.4603
240.1216	0.466
240.3371	0.4652
240.5526	0.4571
240.7681	0.4576
240.9836	0.4637
241.199	0.457
241.4145	0.4489
241.6299	0.4439
241.8453	0.4403
242.0607	0.4323
242.2761	0.4309
242.4915	0.43
242.7069	0.4127
242.9223	0.4126
243.1376	0.406
243.353	0.3938
243.5683	0.392
243.7836	0.382
243.9989	0.3793
244.2142	0.3719
244.4295	0.361
244.6448	0.3648
244.86	0.3418
245.0753	0.3382
245.2905	0.3318
245.5057	0.329
245.721	0.3338
245.9362	0.3235
246.1514	0.3149
246.3665	0.3048
246.5817	0.2971
246.7969	0.2963
247.012	0.2929
247.2271	0.2945
247.4423	0.2784
247.6574	0.282
247.8725	0.265
248.0876	0.2647
248.3026	0.2647
248.5177	0.2522
248.7328	0.2442
248.9478	0.2514
249.1628	0.2475
249.3779	0.2417
249.5929	0.2396
249.8079	0.2334
250.0228	0.2268
250.2378	0.2299
250.4528	0.2234
250.6677	0.2217
250.8827	0.2103
251.0976	0.218
251.3125	0.2156
251.5274	0.2098
251.7423	0.2088
251.9572	0.2031
252.172	0.2049
252.3869	0.2083
252.6017	0.2055
252.8166	0.1959
253.0314	0.1959
253.2462	0.1979
253.461	0.1942
253.6758	0.1963
253.8906	0.1961
254.1053	0.1949
254.3201	0.193
254.5348	0.188
254.7496	0.1807
254.9643	0.1877
255.179	0.1884
255.3937	0.1883
255.6083	0.1866
255.823	0.1861
256.0377	0.1798
256.2523	0.1844
256.467	0.1874
256.6816	0.1812
256.8962	0.1831
257.1108	0.1799
257.3254	0.1805
257.54	0.1777
257.7545	0.1877
257.9691	0.1804
258.1836	0.176
258.3981	0.1815
258.6127	0.1705
258.8272	0.182
259.0417	0.1739
259.2561	0.1759
259.4706	0.1722
259.6851	0.1826
259.8995	0.1773
260.114	0.1763
260.3284	0.1722
260.5428	0.1764
260.7572	0.1747
260.9716	0.1871
261.186	0.1737
261.4003	0.1706
261.6147	0.1723
261.829	0.1751
262.0433	0.1728
262.2577	0.1811
262.472	0.1789
262.6863	0.1787
262.9005	0.1778
263.1148	0.1703
263.3291	0.1727
263.5433	0.1774
263.7576	0.1748
263.9718	0.1734
264.186	0.1809
264.4002	0.1753
264.6144	0.1788
264.8286	0.1781
265.0427	0.1801
265.2569	0.1759
265.471	0.1781
265.6851	0.1735
265.8993	0.1737
266.1134	0.1761
266.3275	0.1742
266.5415	0.1806
266.7556	0.1799
266.9697	0.1801
267.1837	0.1727
267.3978	0.178
267.6118	0.1702
267.8258	0.1728
268.0398	0.1742
268.2538	0.1794
268.4677	0.1748
268.6817	0.1765
268.8957	0.1691
269.1096	0.1657
269.3235	0.1748
269.5374	0.1718
269.7514	0.1719
269.9652	0.1672
270.1791	0.1662
270.393	0.1737
270.6068	0.1756
270.8207	0.1718
271.0345	0.1651
271.2483	0.1639
271.4622	0.1685
271.676	0.1711
271.8897	0.1637
272.1035	0.1731
272.3173	0.1654
272.531	0.1664
272.7448	0.1666
272.9585	0.1632
273.1722	0.1645
273.3859	0.1643
273.5996	0.1725
273.8133	0.17
274.0269	0.1659
274.2406	0.1649
274.4542	0.1669
274.6679	0.1706
274.8815	0.1704
275.0951	0.1783
275.3087	0.1671
275.5223	0.1695
275.7358	0.17
275.9494	0.1697
276.1629	0.1764
276.3765	0.1676
276.59	0.1653
276.8035	0.1713
277.017	0.1764
277.2305	0.1752
277.444	0.1719
277.6574	0.174
277.8709	0.1761
278.0843	0.1748
278.2978	0.167
278.5112	0.1754
278.7246	0.1735
278.938	0.1701
279.1513	0.1784
279.3647	0.1753
279.5781	0.1773
279.7914	0.1745
280.0047	0.1761
280.2181	0.1768
280.4314	0.1764
280.6447	0.1847
280.8579	0.1716
281.0712	0.1738
281.2845	0.1785
281.4977	0.1775
281.711	0.1768
281.9242	0.175
282.1374	0.1808
282.3506	0.1755
282.5638	0.1774
282.7769	0.1733
282.9901	0.181
283.2033	0.1791
283.4164	0.1783
283.6295	0.1811
283.8426	0.1729
284.0557	0.1802
284.2688	0.1808
284.4819	0.1787
284.695	0.183
284.908	0.1843
285.1211	0.1879
285.3341	0.1816
285.5471	0.1835
285.7601	0.1837
285.9731	0.1796
286.1861	0.1852
286.3991	0.1893
286.612	0.1867
286.825	0.1836
287.0379	0.188
287.2508	0.1905
287.4637	0.1924
287.6766	0.1838
287.8895	0.1825
288.1024	0.19
288.3152	0.1933
288.5281	0.1856
288.7409	0.1961
288.9538	0.1854
289.1666	0.1901
289.3794	0.1916
289.5922	0.188
289.8049	0.1902
290.0177	0.197
290.2304	0.1905
290.4432	0.1988
290.6559	0.1913
290.8686	0.196
291.0813	0.1889
291.294	0.1935
291.5067	0.1881
291.7194	0.1908
291.932	0.1895
292.1447	0.1927
292.3573	0.1893
292.5699	0.1914
292.7825	0.1873
292.9951	0.1916
293.2077	0.1892
293.4203	0.1956
293.6328	0.1934
293.8454	0.1969
294.0579	0.1919
294.2704	0.194
294.4829	0.1907
294.6954	0.1919
294.9079	0.1939
295.1204	0.1871
295.3328	0.1954
295.5453	0.194
295.7577	0.1958
295.9701	0.2011
296.1825	0.1922
296.3949	0.1895
296.6073	0.1912
296.8197	0.1933
297.0321	0.1919
297.2444	0.1907
297.4567	0.1944
297.6691	0.1895
297.8814	0.1979
298.0937	0.1974
298.306	0.1938
298.5182	0.1971
298.7305	0.1954
298.9428	0.1949
299.155	0.1848
299.3672	0.1913
299.5794	0.1917
299.7916	0.1903
300.0038	0.1954
300.216	0.1872
300.4282	0.1901
300.6403	0.1931
300.8525	0.194
301.0646	0.1936
301.2767	0.192
301.4888	0.1931
301.7009	0.1892
301.913	0.1977
302.125	0.1895
302.3371	0.1952
302.5491	0.1891
302.7612	0.1962
302.9732	0.1929
303.1852	0.1883
303.3972	0.1969
303.6092	0.1909
303.8211	0.1895
304.0331	0.1914
304.245	0.1882
304.457	0.1897
304.6689	0.1886
304.8808	0.1877
305.0927	0.1881
305.3046	0.188
305.5164	0.1848
305.7283	0.186
305.9401	0.1752
306.152	0.1766
306.3638	0.1762
306.5756	0.1814
306.7874	0.1735
306.9992	0.172
307.2109	0.1727
307.4227	0.1749
307.6344	0.1733
307.8462	0.1694
308.0579	0.1739
308.2696	0.1661
308.4813	0.1658
308.693	0.1606
308.9046	0.1621
309.1163	0.1584
309.328	0.1588
309.5396	0.1551
309.7512	0.1538
309.9628	0.1487
310.1744	0.15
310.386	0.145
310.5976	0.1413
310.8091	0.1486
311.0207	0.1432
311.2322	0.1392
311.4437	0.1462
311.6552	0.1425
311.8667	0.1498
312.0782	0.1411
312.2897	0.1441
312.5012	0.1372
312.7126	0.1348
312.924	0.1408
313.1355	0.138
313.3469	0.1314
313.5583	0.1335
313.7696	0.1218
313.981	0.1371
314.1924	0.1294
314.4037	0.1282
314.6151	0.1259
314.8264	0.1286
315.0377	0.1248
315.249	0.1288
315.4603	0.1219
315.6716	0.1332
315.8828	0.1245
316.0941	0.1231
316.3053	0.1217
316.5165	0.1324
316.7277	0.1177
316.9389	0.1274
317.1501	0.1231
317.3613	0.1228
317.5724	0.1239
317.7836	0.1128
317.9947	0.1197
318.2058	0.1198
318.417	0.1237
318.6281	0.1138
318.8391	0.1192
319.0502	0.12
319.2613	0.1202
319.4723	0.1223
319.6834	0.121
319.8944	0.1197
320.1054	0.1226
320.3164	0.1153
320.5274	0.1223
320.7383	0.1177
320.9493	0.115
321.1602	0.1203
321.3712	0.121
321.5821	0.1199
321.793	0.1252
322.0039	0.1167
322.2148	0.1175
322.4257	0.1163
322.6365	0.1195
322.8474	0.1219
323.0582	0.1232
323.269	0.1231
323.4798	0.1214
323.6906	0.1205
323.9014	0.1146
324.1122	0.1182
324.3229	0.1221
324.5337	0.1237
324.7444	0.123
324.9551	0.1265
325.1658	0.1194
325.3765	0.127
325.5872	0.1231
325.7979	0.1219
326.0085	0.1203
326.2192	0.1193
326.4298	0.1224
326.6404	0.1247
326.851	0.1206
327.0616	0.1288
327.2722	0.1213
327.4828	0.1259
327.6933	0.135
327.9039	0.1252
328.1144	0.1245
328.3249	0.1232
328.5354	0.1281
328.7459	0.1228
328.9564	0.1296
329.1669	0.1269
329.3773	0.1309
329.5878	0.1309
329.7982	0.1313
330.0086	0.1245
330.219	0.1255
330.4294	0.1259
330.6398	0.1254
330.8502	0.1321
331.0605	0.1257
331.2708	0.1277
331.4812	0.1285
331.6915	0.1293
331.9018	0.1253
332.1121	0.1362
332.3224	0.1314
332.5326	0.1226
332.7429	0.1296
332.9531	0.1348
333.1633	0.127
333.3735	0.1307
333.5837	0.1265
333.7939	0.1306
334.0041	0.1313
334.2143	0.1338
334.4244	0.1406
334.6346	0.1327
334.8447	0.1303
335.0548	0.1352
335.2649	0.1335
335.475	0.1354
335.685	0.1367
335.8951	0.1302
336.1051	0.1389
336.3152	0.1393
336.5252	0.1409
336.7352	0.132
336.9452	0.1366
337.1552	0.1352
337.3652	0.1363
337.5751	0.1325
337.7851	0.1348
337.995	0.1408
338.2049	0.1309
338.4148	0.1394
338.6247	0.143
338.8346	0.1304
339.0445	0.1382
339.2543	0.1366
339.4642	0.1362
339.674	0.1317
339.8838	0.139
340.0936	0.1407
340.3034	0.1375
340.5132	0.1373
340.7229	0.1418
340.9327	0.1477
341.1424	0.1405
341.3522	0.1374
341.5619	0.1404
341.7716	0.1352
341.9813	0.1433
342.1909	0.1424
342.4006	0.1534
342.6102	0.1435
342.8199	0.1445
343.0295	0.1401
343.2391	0.1438
343.4487	0.1456
343.6583	0.1583
343.8679	0.1473
344.0774	0.1486
344.287	0.1509
344.4965	0.1516
344.706	0.153
344.9155	0.1462
345.125	0.1459
345.3345	0.158
345.544	0.1572
345.7534	0.158
345.9629	0.1558
346.1723	0.1539
346.3817	0.156
346.5911	0.1541
346.8005	0.1565
347.0099	0.154
347.2193	0.1611
347.4286	0.1633
347.638	0.1607
347.8473	0.1631
348.0566	0.1626
348.2659	0.1619
348.4752	0.1606
348.6845	0.1704
348.8937	0.1689
349.103	0.164
349.3122	0.1614
349.5214	0.172
349.7306	0.1735
349.9398	0.1643
350.149	0.1632
350.3582	0.1696
350.5674	0.1735
350.7765	0.1756
350.9856	0.1717
351.1948	0.1758
351.4039	0.1738
351.613	0.1658
351.822	0.1713
352.0311	0.175
352.2402	0.1742
352.4492	0.1734
352.6582	0.1752
352.8672	0.1784
353.0762	0.1727
353.2852	0.1761
353.4942	0.1748
353.7032	0.1775
353.9121	0.1761
354.1211	0.1786
354.33	0.1898
354.5389	0.1715
354.7478	0.1725
354.9567	0.187
355.1655	0.1813
355.3744	0.1816
355.5833	0.1824
355.7921	0.1852
356.0009	0.1903
356.2097	0.1804
356.4185	0.1825
356.6273	0.186
356.8361	0.1894
357.0448	0.1862
357.2536	0.1869
357.4623	0.1922
357.671	0.1919
357.8797	0.1861
358.0884	0.1889
358.2971	0.1964
358.5057	0.1959
358.7144	0.1988
358.923	0.2021
359.1316	0.2054
359.3402	0.2006
359.5488	0.1941
359.7574	0.2053
359.966	0.2016
360.1746	0.1919
360.3831	0.2008
360.5916	0.2031
360.8002	0.2094
361.0087	0.2011
361.2172	0.2121
361.4256	0.2076
361.6341	0.2086
361.8426	0.2068
362.051	0.212
362.2594	0.2094
362.4678	0.2127
362.6762	0.2135
362.8846	0.2096
363.093	0.2169
363.3014	0.221
363.5097	0.2232
363.718	0.2222
363.9264	0.2238
364.1347	0.2275
364.343	0.2276
364.5513	0.2217
364.7595	0.2306
364.9678	0.2271
365.176	0.232
365.3842	0.231
365.5925	0.227
365.8007	0.2383
366.0089	0.2381
366.217	0.2377
366.4252	0.232
366.6333	0.2322
366.8415	0.239
367.0496	0.2424
367.2577	0.2359
367.4658	0.2337
367.6739	0.2423
367.882	0.2443
368.09	0.2364
368.2981	0.24
368.5061	0.2436
368.7141	0.2421
368.9221	0.2481
369.1301	0.2494
369.3381	0.254
369.5461	0.249
369.754	0.254
369.962	0.2495
370.1699	0.253
370.3778	0.2589
370.5857	0.2493
370.7936	0.2523
371.0015	0.2566
371.2093	0.2524
371.4172	0.2507
371.625	0.2494
371.8328	0.2568
372.0406	0.2651
372.2484	0.2667
372.4562	0.265
372.664	0.2619
372.8717	0.2618
373.0795	0.2652
373.2872	0.2691
373.4949	0.2666
373.7026	0.2612
373.9103	0.2581
374.118	0.2667
374.3256	0.2739
374.5333	0.2705
374.7409	0.2709
374.9485	0.2701
375.1561	0.2748
375.3637	0.2629
375.5713	0.2822
375.7789	0.2839
375.9864	0.2699
376.194	0.281
376.4015	0.2758
376.609	0.2847
376.8165	0.2807
377.024	0.2844
377.2315	0.2861
377.4389	0.2727
377.6464	0.2793
377.8538	0.2757
378.0612	0.286
378.2686	0.2782
378.476	0.296
378.6834	0.2805
378.8908	0.302
379.0981	0.285
379.3055	0.2857
379.5128	0.2884
379.7201	0.3003
379.9274	0.2913
380.1347	0.3031
380.342	0.3053
380.5492	0.2934
380.7565	0.2862
380.9637	0.2938
381.1709	0.3028
381.3781	0.302
381.5853	0.2921
381.7925	0.303
381.9997	0.3092
382.2068	0.3035
382.4139	0.2949
382.6211	0.2983
382.8282	0.311
383.0353	0.3116
383.2424	0.2994
383.4494	0.3017
383.6565	0.305
383.8635	0.301
384.0706	0.3107
384.2776	0.3039
384.4846	0.3101
384.6916	0.3033
384.8986	0.3178
385.1055	0.3157
385.3125	0.3161
385.5194	0.3196
385.7263	0.3047
385.9333	0.3146
386.1402	0.3076
386.347	0.3092
386.5539	0.31
386.7608	0.3148
386.9676	0.2974
387.1744	0.3099
387.3813	0.3072
387.5881	0.2998
387.7948	0.3081
388.0016	0.3169
388.2084	0.3103
388.4151	0.3161
388.6219	0.301
388.8286	0.3094
389.0353	0.3088
389.242	0.3053
389.4487	0.296
389.6553	0.2976
389.862	0.2994
390.0686	0.3112
390.2753	0.3085
390.4819	0.3
390.6885	0.3005
390.8951	0.296
391.1016	0.3058
391.3082	0.3035
391.5147	0.2892
391.7213	0.2984
391.9278	0.2837
392.1343	0.2951
392.3408	0.2952
392.5473	0.2917
392.7537	0.2946
392.9602	0.2797
393.1666	0.2897
393.373	0.2901
393.5794	0.2832
393.7858	0.288
393.9922	0.2876
394.1986	0.2821
394.4049	0.2804
394.6113	0.2839
394.8176	0.2816
395.0239	0.2747
395.2302	0.2802
395.4365	0.282
395.6428	0.279
395.8491	0.2772
396.0553	0.272
396.2615	0.2711
396.4678	0.2785
396.674	0.2631
396.8802	0.264
397.0863	0.2664
397.2925	0.2676
397.4987	0.267
397.7048	0.2658
397.9109	0.2709
398.117	0.2634
398.3231	0.2612
398.5292	0.2581
398.7353	0.2619
398.9413	0.2579
399.1474	0.2595
399.3534	0.2665
399.5594	0.2619
399.7654	0.2722
399.9714	0.2719
400.1774	0.2573
400.3833	0.2584
400.5893	0.2549
400.7952	0.2713
401.0011	0.2613
401.207	0.2588
401.4129	0.2632
401.6188	0.2582
401.8247	0.2674
402.0305	0.2559
402.2364	0.2681
402.4422	0.2613
402.648	0.263
402.8538	0.267
403.0596	0.2532
403.2654	0.2578
403.4711	0.2481
403.6768	0.2595
403.8826	0.2736
404.0883	0.2602
404.294	0.2731
404.4997	0.2591
404.7054	0.265
404.911	0.2564
405.1167	0.2652
405.3223	0.2525
405.5279	0.2644
405.7335	0.2591
405.9391	0.257
406.1447	0.269
406.3502	0.2654
406.5558	0.2587
406.7613	0.2636
406.9668	0.2595
407.1724	0.2623
407.3778	0.2621
407.5833	0.2507
407.7888	0.2674
407.9942	0.2565
408.1997	0.2676
408.4051	0.2682
408.6105	0.2627
408.8159	0.2504
409.0213	0.2613
409.2267	0.2662
409.432	0.2589
409.6374	0.2594
409.8427	0.2717
410.048	0.2715
410.2533	0.2672
410.4586	0.2528
410.6639	0.2595
410.8691	0.2561
411.0744	0.2559
411.2796	0.2592
411.4848	0.2662
411.69	0.258
411.8952	0.2592
412.1004	0.269
412.3056	0.2557
412.5107	0.2594
412.7158	0.2714
412.921	0.2588
413.1261	0.2604
413.3312	0.2626
413.5362	0.2674
413.7413	0.2547
413.9464	0.2528
414.1514	0.2567
414.3564	0.2518
414.5614	0.2513
414.7664	0.2553
414.9714	0.2513
415.1764	0.2655
415.3813	0.2589
415.5863	0.2589
415.7912	0.2591
415.9961	0.2516
416.201	0.2602
416.4059	0.2515
416.6108	0.2566
416.8156	0.2575
417.0205	0.2525
417.2253	0.2538
417.4301	0.2556
417.6349	0.2524
417.8397	0.2451
418.0445	0.2568
418.2492	0.2537
418.454	0.2518
418.6587	0.2418
418.8634	0.2509
419.0681	0.2545
419.2728	0.2506
419.4775	0.2631
419.6822	0.2385
419.8868	0.2476
420.0915	0.2438
420.2961	0.2428
420.5007	0.2406
420.7053	0.2453
420.9099	0.2444
421.1144	0.2396
421.319	0.2279
421.5235	0.2429
421.728	0.2421
421.9325	0.2383
422.137	0.2272
422.3415	0.2408
422.546	0.2247
422.7504	0.2323
422.9549	0.2421
423.1593	0.2309
423.3637	0.2291
423.5681	0.2312
423.7725	0.2352
423.9769	0.2253
424.1812	0.2114
424.3856	0.2198
424.5899	0.2295
424.7942	0.2205
424.9985	0.2227
425.2028	0.2394
425.4071	0.2283
425.6113	0.2291
425.8156	0.2255
426.0198	0.2223
426.224	0.2262
426.4282	0.2156
426.6324	0.2161
426.8366	0.216
