Data from D4ACN5uM460nmA_Absorbance_13-05-41-840.txt Node
Date: Fri Feb 21 13:05:41 GMT 2025
User: LASERRRRR
Spectrometer: FLMT03099
Trigger mode: 0
Integration Time (sec): 1.500000E-2
Scans to average: 1
Electric dark correction enabled: true
Nonlinearity correction enabled: false
Boxcar width: 0
XAxis mode: Wavelengths
Number of Pixels in Spectrum: 3648
>>>>>Begin Spectral Data<<<<<
179.3399	-0.3265
179.5586	-0.3265
179.7771	-0.3265
179.9957	-0.0471
180.2143	-0
180.4329	-0.0231
180.6514	-1.0941
180.8699	0.5696
181.0885	-0
181.307	0.1275
181.5255	0.3046
181.744	-0
181.9625	-0
182.181	0.2496
182.3994	-0.1241
182.6179	-0.2544
182.8363	-0
183.0547	-0.2264
183.2732	0.2171
183.4916	0.3355
183.71	0.3322
183.9284	-0.0441
184.1467	0.2244
184.3651	-0.0617
184.5835	0.2206
184.8018	0.0758
185.0201	0.3354
185.2385	0.4458
185.4568	0.1711
185.6751	0.3097
185.8934	0.3646
186.1117	-0.175
186.3299	0.1671
186.5482	0.362
186.7664	0.3912
186.9847	0.0899
187.2029	0.4303
187.4211	-0.023
187.6393	0.2716
187.8575	0.1797
188.0757	0.3136
188.2939	0.0643
188.512	0.1588
188.7302	0.3857
188.9483	0.5774
189.1665	0.4155
189.3846	0.1362
189.6027	0.1077
189.8208	0.1746
190.0389	0.2548
190.257	0.1541
190.475	-0.1363
190.6931	0.0692
190.9111	0.0958
191.1292	0.1516
191.3472	0.1621
191.5652	0.3411
191.7832	0.1522
192.0012	0.1157
192.2192	0.2865
192.4371	0.065
192.6551	0.154
192.873	0.0321
193.091	0.0571
193.3089	0.1425
193.5268	0.2334
193.7447	0.3351
193.9626	0.1947
194.1805	0.2109
194.3984	0.2208
194.6162	0.1748
194.8341	0.3931
195.0519	0.2159
195.2697	0.2768
195.4875	0.3119
195.7054	0.2721
195.9231	0.2138
196.1409	0.2657
196.3587	0.3622
196.5765	0.3267
196.7942	0.3242
197.012	0.3492
197.2297	0.3066
197.4474	0.4288
197.6651	0.2917
197.8828	0.3298
198.1005	0.3754
198.3182	0.3592
198.5358	0.4137
198.7535	0.3827
198.9711	0.4832
199.1888	0.3888
199.4064	0.3604
199.624	0.4036
199.8416	0.3721
200.0592	0.3881
200.2767	0.3757
200.4943	0.4534
200.7119	0.3802
200.9294	0.4043
201.1469	0.3883
201.3645	0.462
201.582	0.3864
201.7995	0.3965
202.017	0.3985
202.2344	0.4051
202.4519	0.4379
202.6694	0.373
202.8868	0.364
203.1042	0.3954
203.3217	0.4086
203.5391	0.3777
203.7565	0.3661
203.9739	0.3541
204.1913	0.3425
204.4086	0.3227
204.626	0.3555
204.8433	0.3631
205.0607	0.3415
205.278	0.323
205.4953	0.3292
205.7126	0.3218
205.9299	0.3504
206.1472	0.3236
206.3644	0.3272
206.5817	0.3354
206.7989	0.3162
207.0162	0.3074
207.2334	0.326
207.4506	0.2868
207.6678	0.319
207.885	0.277
208.1022	0.2862
208.3194	0.2848
208.5365	0.2877
208.7537	0.308
208.9708	0.2875
209.1879	0.2981
209.405	0.2906
209.6222	0.2732
209.8392	0.2807
210.0563	0.2873
210.2734	0.2578
210.4905	0.2912
210.7075	0.2692
210.9245	0.2738
211.1416	0.2741
211.3586	0.2654
211.5756	0.2651
211.7926	0.2505
212.0096	0.2657
212.2265	0.2769
212.4435	0.2713
212.6604	0.2575
212.8774	0.2481
213.0943	0.2481
213.3112	0.2417
213.5281	0.2544
213.745	0.2444
213.9619	0.2402
214.1788	0.2619
214.3956	0.2531
214.6125	0.2339
214.8293	0.2428
215.0461	0.243
215.2629	0.2493
215.4798	0.2337
215.6965	0.2389
215.9133	0.2434
216.1301	0.2322
216.3469	0.2497
216.5636	0.2539
216.7803	0.2516
216.9971	0.2744
217.2138	0.2602
217.4305	0.2273
217.6472	0.2407
217.8639	0.2624
218.0805	0.2422
218.2972	0.2429
218.5138	0.2504
218.7305	0.2601
218.9471	0.2439
219.1637	0.2705
219.3803	0.2572
219.5969	0.2569
219.8135	0.2666
220.0301	0.2529
220.2466	0.253
220.4632	0.2564
220.6797	0.2644
220.8962	0.2665
221.1127	0.2595
221.3292	0.2652
221.5457	0.2751
221.7622	0.2737
221.9787	0.2768
222.1951	0.2742
222.4116	0.2779
222.628	0.2894
222.8444	0.2707
223.0608	0.2725
223.2772	0.29
223.4936	0.2806
223.71	0.2812
223.9264	0.2702
224.1427	0.2907
224.3591	0.2902
224.5754	0.3007
224.7917	0.2984
225.008	0.3023
225.2243	0.3087
225.4406	0.3036
225.6569	0.3053
225.8732	0.3142
226.0894	0.2962
226.3057	0.3159
226.5219	0.31
226.7381	0.3179
226.9543	0.3068
227.1705	0.3238
227.3867	0.3241
227.6029	0.336
227.8191	0.3326
228.0352	0.338
228.2513	0.3424
228.4675	0.3546
228.6836	0.3513
228.8997	0.3389
229.1158	0.3605
229.3319	0.3663
229.548	0.3696
229.764	0.3674
229.9801	0.3743
230.1961	0.3701
230.4121	0.3628
230.6282	0.3833
230.8442	0.3837
231.0602	0.3754
231.2761	0.3812
231.4921	0.3918
231.7081	0.3967
231.924	0.4037
232.14	0.4008
232.3559	0.4013
232.5718	0.4014
232.7877	0.41
233.0036	0.4015
233.2195	0.4135
233.4353	0.4209
233.6512	0.4161
233.867	0.4185
234.0829	0.41
234.2987	0.4296
234.5145	0.4333
234.7303	0.4306
234.9461	0.4335
235.1619	0.4378
235.3776	0.4347
235.5934	0.4278
235.8091	0.4449
236.0249	0.4549
236.2406	0.4498
236.4563	0.4421
236.672	0.4466
236.8877	0.4597
237.1034	0.4442
237.319	0.4527
237.5347	0.4462
237.7503	0.4543
237.966	0.4481
238.1816	0.452
238.3972	0.4633
238.6128	0.4617
238.8284	0.4628
239.0439	0.4579
239.2595	0.4642
239.475	0.458
239.6906	0.453
239.9061	0.4623
240.1216	0.4611
240.3371	0.4646
240.5526	0.462
240.7681	0.46
240.9836	0.4551
241.199	0.4527
241.4145	0.4528
241.6299	0.4486
241.8453	0.4371
242.0607	0.4285
242.2761	0.4274
242.4915	0.4193
242.7069	0.4145
242.9223	0.4158
243.1376	0.4065
243.353	0.3974
243.5683	0.3843
243.7836	0.3858
243.9989	0.3804
244.2142	0.377
244.4295	0.3624
244.6448	0.3583
244.86	0.3444
245.0753	0.3393
245.2905	0.3345
245.5057	0.3318
245.721	0.3291
245.9362	0.3134
246.1514	0.3103
246.3665	0.3001
246.5817	0.3059
246.7969	0.2877
247.012	0.2864
247.2271	0.2949
247.4423	0.2836
247.6574	0.2776
247.8725	0.2684
248.0876	0.2648
248.3026	0.2675
248.5177	0.2611
248.7328	0.2464
248.9478	0.2506
249.1628	0.2426
249.3779	0.2455
249.5929	0.2407
249.8079	0.2387
250.0228	0.2347
250.2378	0.224
250.4528	0.2262
250.6677	0.225
250.8827	0.2134
251.0976	0.2149
251.3125	0.2154
251.5274	0.2088
251.7423	0.2005
251.9572	0.2066
252.172	0.2022
252.3869	0.206
252.6017	0.1966
252.8166	0.1975
253.0314	0.1963
253.2462	0.194
253.461	0.196
253.6758	0.1895
253.8906	0.1917
254.1053	0.1891
254.3201	0.1905
254.5348	0.181
254.7496	0.178
254.9643	0.188
255.179	0.1811
255.3937	0.1861
255.6083	0.19
255.823	0.1832
256.0377	0.1765
256.2523	0.1799
256.467	0.1848
256.6816	0.1791
256.8962	0.1783
257.1108	0.1855
257.3254	0.1835
257.54	0.1759
257.7545	0.1844
257.9691	0.1801
258.1836	0.1736
258.3981	0.1807
258.6127	0.1681
258.8272	0.1817
259.0417	0.1754
259.2561	0.173
259.4706	0.1717
259.6851	0.1762
259.8995	0.1729
260.114	0.1769
260.3284	0.1754
260.5428	0.1744
260.7572	0.1743
260.9716	0.1824
261.186	0.1711
261.4003	0.1719
261.6147	0.1738
261.829	0.1772
262.0433	0.1764
262.2577	0.176
262.472	0.1731
262.6863	0.1752
262.9005	0.1743
263.1148	0.1726
263.3291	0.1714
263.5433	0.1792
263.7576	0.1774
263.9718	0.1749
264.186	0.1766
264.4002	0.174
264.6144	0.1805
264.8286	0.1745
265.0427	0.178
265.2569	0.1806
265.471	0.1816
265.6851	0.1796
265.8993	0.1736
266.1134	0.1772
266.3275	0.1774
266.5415	0.1764
266.7556	0.1796
266.9697	0.177
267.1837	0.175
267.3978	0.1802
267.6118	0.1719
267.8258	0.1728
268.0398	0.1755
268.2538	0.1745
268.4677	0.1687
268.6817	0.1763
268.8957	0.1673
269.1096	0.1711
269.3235	0.1707
269.5374	0.1732
269.7514	0.1746
269.9652	0.1723
270.1791	0.1688
270.393	0.17
270.6068	0.1722
270.8207	0.1673
271.0345	0.1663
271.2483	0.1646
271.4622	0.1679
271.676	0.1664
271.8897	0.1683
272.1035	0.1719
272.3173	0.1671
272.531	0.1625
272.7448	0.1673
272.9585	0.1594
273.1722	0.1645
273.3859	0.1636
273.5996	0.1625
273.8133	0.1683
274.0269	0.1631
274.2406	0.1659
274.4542	0.1675
274.6679	0.1693
274.8815	0.1728
275.0951	0.1727
275.3087	0.1689
275.5223	0.1738
275.7358	0.164
275.9494	0.169
276.1629	0.1719
276.3765	0.1694
276.59	0.1651
276.8035	0.1685
277.017	0.1743
277.2305	0.1716
277.444	0.1705
277.6574	0.173
277.8709	0.1741
278.0843	0.1714
278.2978	0.1774
278.5112	0.1744
278.7246	0.1735
278.938	0.1648
279.1513	0.1756
279.3647	0.1727
279.5781	0.1726
279.7914	0.176
280.0047	0.1736
280.2181	0.169
280.4314	0.1797
280.6447	0.1828
280.8579	0.169
281.0712	0.176
281.2845	0.1724
281.4977	0.1736
281.711	0.1705
281.9242	0.1762
282.1374	0.1771
282.3506	0.1777
282.5638	0.1793
282.7769	0.1768
282.9901	0.1768
283.2033	0.1766
283.4164	0.1788
283.6295	0.1784
283.8426	0.1773
284.0557	0.182
284.2688	0.18
284.4819	0.1785
284.695	0.187
284.908	0.1804
285.1211	0.187
285.3341	0.1793
285.5471	0.1876
285.7601	0.1879
285.9731	0.1835
286.1861	0.1835
286.3991	0.189
286.612	0.1827
286.825	0.1922
287.0379	0.184
287.2508	0.1865
287.4637	0.1906
287.6766	0.1862
287.8895	0.1843
288.1024	0.1939
288.3152	0.1924
288.5281	0.1865
288.7409	0.1907
288.9538	0.1862
289.1666	0.192
289.3794	0.1865
289.5922	0.1849
289.8049	0.1907
290.0177	0.1914
290.2304	0.1905
290.4432	0.1961
290.6559	0.1974
290.8686	0.1931
291.0813	0.1913
291.294	0.1927
291.5067	0.1867
291.7194	0.1944
291.932	0.1907
292.1447	0.1944
292.3573	0.1925
292.5699	0.1968
292.7825	0.1944
292.9951	0.1896
293.2077	0.1922
293.4203	0.1933
293.6328	0.1886
293.8454	0.1949
294.0579	0.1882
294.2704	0.195
294.4829	0.1897
294.6954	0.1942
294.9079	0.1934
295.1204	0.1945
295.3328	0.1932
295.5453	0.1948
295.7577	0.1908
295.9701	0.1876
296.1825	0.1975
296.3949	0.1943
296.6073	0.1901
296.8197	0.1919
297.0321	0.1926
297.2444	0.1896
297.4567	0.1951
297.6691	0.1948
297.8814	0.1947
298.0937	0.1963
298.306	0.1959
298.5182	0.1949
298.7305	0.1994
298.9428	0.1882
299.155	0.184
299.3672	0.1874
299.5794	0.1867
299.7916	0.1902
300.0038	0.1888
300.216	0.1919
300.4282	0.1905
300.6403	0.2018
300.8525	0.1902
301.0646	0.188
301.2767	0.1925
301.4888	0.1956
301.7009	0.1963
301.913	0.1896
302.125	0.192
302.3371	0.1915
302.5491	0.1956
302.7612	0.195
302.9732	0.1942
303.1852	0.1966
303.3972	0.1929
303.6092	0.1909
303.8211	0.1881
304.0331	0.1882
304.245	0.1901
304.457	0.1897
304.6689	0.1942
304.8808	0.1911
305.0927	0.1918
305.3046	0.1861
305.5164	0.183
305.7283	0.1854
305.9401	0.1812
306.152	0.1781
306.3638	0.1825
306.5756	0.1826
306.7874	0.1745
306.9992	0.1703
307.2109	0.1791
307.4227	0.1708
307.6344	0.1762
307.8462	0.1668
308.0579	0.167
308.2696	0.1673
308.4813	0.1682
308.693	0.1609
308.9046	0.1634
309.1163	0.1594
309.328	0.1548
309.5396	0.1555
309.7512	0.1569
309.9628	0.1555
310.1744	0.1447
310.386	0.1496
310.5976	0.1468
310.8091	0.1495
311.0207	0.1446
311.2322	0.1403
311.4437	0.1412
311.6552	0.1375
311.8667	0.1418
312.0782	0.1362
312.2897	0.1423
312.5012	0.1377
312.7126	0.1338
312.924	0.1348
313.1355	0.1344
313.3469	0.1353
313.5583	0.1305
313.7696	0.1274
313.981	0.1316
314.1924	0.1268
314.4037	0.1303
314.6151	0.1233
314.8264	0.1316
315.0377	0.1256
315.249	0.1296
315.4603	0.1215
315.6716	0.1273
315.8828	0.122
316.0941	0.1229
316.3053	0.1203
316.5165	0.1259
316.7277	0.1182
316.9389	0.1244
317.1501	0.1224
317.3613	0.1246
317.5724	0.1263
317.7836	0.1153
317.9947	0.1197
318.2058	0.1152
318.417	0.1234
318.6281	0.1152
318.8391	0.1203
319.0502	0.119
319.2613	0.1205
319.4723	0.1177
319.6834	0.1195
319.8944	0.1165
320.1054	0.1204
320.3164	0.1165
320.5274	0.1184
320.7383	0.1261
320.9493	0.1148
321.1602	0.1211
321.3712	0.1182
321.5821	0.1159
321.793	0.1259
322.0039	0.1224
322.2148	0.1179
322.4257	0.1138
322.6365	0.1114
322.8474	0.1161
323.0582	0.1226
323.269	0.1224
323.4798	0.1189
323.6906	0.1228
323.9014	0.1181
324.1122	0.1196
324.3229	0.1214
324.5337	0.1214
324.7444	0.1207
324.9551	0.1231
325.1658	0.1204
325.3765	0.1248
325.5872	0.1257
325.7979	0.1219
326.0085	0.1198
326.2192	0.116
326.4298	0.1313
326.6404	0.1277
326.851	0.12
327.0616	0.1204
327.2722	0.1297
327.4828	0.1193
327.6933	0.1281
327.9039	0.1213
328.1144	0.1303
328.3249	0.1193
328.5354	0.1281
328.7459	0.1229
328.9564	0.1256
329.1669	0.1261
329.3773	0.1238
329.5878	0.1216
329.7982	0.1284
330.0086	0.124
330.219	0.1214
330.4294	0.1239
330.6398	0.1267
330.8502	0.1267
331.0605	0.1292
331.2708	0.1199
331.4812	0.1207
331.6915	0.128
331.9018	0.126
332.1121	0.135
332.3224	0.1301
332.5326	0.1263
332.7429	0.1235
332.9531	0.1304
333.1633	0.1243
333.3735	0.1242
333.5837	0.1307
333.7939	0.1336
334.0041	0.1358
334.2143	0.1277
334.4244	0.1372
334.6346	0.1307
334.8447	0.1257
335.0548	0.1365
335.2649	0.1403
335.475	0.1332
335.685	0.1387
335.8951	0.1348
336.1051	0.1326
336.3152	0.1374
336.5252	0.1346
336.7352	0.1349
336.9452	0.1378
337.1552	0.1369
337.3652	0.1325
337.5751	0.1354
337.7851	0.1368
337.995	0.1372
338.2049	0.1359
338.4148	0.1369
338.6247	0.1359
338.8346	0.1347
339.0445	0.1325
339.2543	0.1373
339.4642	0.127
339.674	0.1348
339.8838	0.1377
340.0936	0.1398
340.3034	0.1378
340.5132	0.1388
340.7229	0.1356
340.9327	0.1437
341.1424	0.1377
341.3522	0.1318
341.5619	0.1426
341.7716	0.1412
341.9813	0.148
342.1909	0.1479
342.4006	0.1458
342.6102	0.1496
342.8199	0.1412
343.0295	0.1433
343.2391	0.1508
343.4487	0.1484
343.6583	0.1563
343.8679	0.1424
344.0774	0.1401
344.287	0.1389
344.4965	0.146
344.706	0.1541
344.9155	0.1457
345.125	0.1523
345.3345	0.1521
345.544	0.1503
345.7534	0.1505
345.9629	0.1548
346.1723	0.1535
346.3817	0.1539
346.5911	0.1522
346.8005	0.1628
347.0099	0.1536
347.2193	0.1591
347.4286	0.1631
347.638	0.1594
347.8473	0.1645
348.0566	0.1617
348.2659	0.1594
348.4752	0.1584
348.6845	0.1608
348.8937	0.1612
349.103	0.1661
349.3122	0.1634
349.5214	0.1672
349.7306	0.1645
349.9398	0.1685
350.149	0.1611
350.3582	0.1668
350.5674	0.1658
350.7765	0.1735
350.9856	0.1677
351.1948	0.1738
351.4039	0.1726
351.613	0.1779
351.822	0.176
352.0311	0.1793
352.2402	0.1747
352.4492	0.1752
352.6582	0.1764
352.8672	0.1752
353.0762	0.175
353.2852	0.1796
353.4942	0.1758
353.7032	0.1793
353.9121	0.1833
354.1211	0.1835
354.33	0.1859
354.5389	0.1807
354.7478	0.1778
354.9567	0.1846
355.1655	0.1807
355.3744	0.1783
355.5833	0.1891
355.7921	0.1887
356.0009	0.1771
356.2097	0.1819
356.4185	0.179
356.6273	0.19
356.8361	0.1856
357.0448	0.1899
357.2536	0.1958
357.4623	0.1863
357.671	0.1944
357.8797	0.1925
358.0884	0.1894
358.2971	0.1977
358.5057	0.1973
358.7144	0.1926
358.923	0.1958
359.1316	0.2024
359.3402	0.1974
359.5488	0.2022
359.7574	0.2045
359.966	0.202
360.1746	0.1999
360.3831	0.2038
360.5916	0.2034
360.8002	0.2102
361.0087	0.2051
361.2172	0.2039
361.4256	0.2101
361.6341	0.2077
361.8426	0.2113
362.051	0.2175
362.2594	0.212
362.4678	0.2139
362.6762	0.2178
362.8846	0.2091
363.093	0.2117
363.3014	0.2224
363.5097	0.217
363.718	0.2197
363.9264	0.2265
364.1347	0.2237
364.343	0.2219
364.5513	0.2293
364.7595	0.2331
364.9678	0.2243
365.176	0.2297
365.3842	0.2315
365.5925	0.2197
365.8007	0.2347
366.0089	0.235
366.217	0.237
366.4252	0.2356
366.6333	0.2406
366.8415	0.2307
367.0496	0.2355
367.2577	0.2339
367.4658	0.2381
367.6739	0.2366
367.882	0.2471
368.09	0.2361
368.2981	0.2483
368.5061	0.2448
368.7141	0.2375
368.9221	0.2558
369.1301	0.2502
369.3381	0.2621
369.5461	0.245
369.754	0.2516
369.962	0.252
370.1699	0.2544
370.3778	0.2636
370.5857	0.248
370.7936	0.2563
371.0015	0.2597
371.2093	0.2575
371.4172	0.2584
371.625	0.2596
371.8328	0.2575
372.0406	0.2614
372.2484	0.2587
372.4562	0.2625
372.664	0.2636
372.8717	0.2631
373.0795	0.2655
373.2872	0.2648
373.4949	0.2604
373.7026	0.2673
373.9103	0.2613
374.118	0.2767
374.3256	0.277
374.5333	0.2733
374.7409	0.271
374.9485	0.2707
375.1561	0.2726
375.3637	0.274
375.5713	0.2863
375.7789	0.2742
375.9864	0.2694
376.194	0.2846
376.4015	0.2757
376.609	0.2777
376.8165	0.2868
377.024	0.2727
377.2315	0.2882
377.4389	0.2748
377.6464	0.2867
377.8538	0.2767
378.0612	0.2801
378.2686	0.2818
378.476	0.2892
378.6834	0.2812
378.8908	0.2833
379.0981	0.2924
379.3055	0.2868
379.5128	0.286
379.7201	0.2884
379.9274	0.2871
380.1347	0.2974
380.342	0.3141
380.5492	0.2986
380.7565	0.2978
380.9637	0.2875
381.1709	0.2928
381.3781	0.307
381.5853	0.3021
381.7925	0.2958
381.9997	0.3065
382.2068	0.2934
382.4139	0.301
382.6211	0.3022
382.8282	0.3067
383.0353	0.3014
383.2424	0.3008
383.4494	0.3093
383.6565	0.3004
383.8635	0.3008
384.0706	0.3094
384.2776	0.3065
384.4846	0.3119
384.6916	0.3081
384.8986	0.3089
385.1055	0.3168
385.3125	0.3126
385.5194	0.312
385.7263	0.3087
385.9333	0.3154
386.1402	0.3059
386.347	0.3075
386.5539	0.3071
386.7608	0.3095
386.9676	0.3035
387.1744	0.3103
387.3813	0.3131
387.5881	0.3031
387.7948	0.3046
388.0016	0.3246
388.2084	0.3024
388.4151	0.3091
388.6219	0.3029
388.8286	0.311
389.0353	0.3035
389.242	0.3145
389.4487	0.2988
389.6553	0.2926
389.862	0.3055
390.0686	0.3094
390.2753	0.3028
390.4819	0.2989
390.6885	0.302
390.8951	0.2971
391.1016	0.2929
391.3082	0.3028
391.5147	0.2883
391.7213	0.2999
391.9278	0.2894
392.1343	0.2841
392.3408	0.2906
392.5473	0.2885
392.7537	0.2896
392.9602	0.2867
393.1666	0.2919
393.373	0.2835
393.5794	0.2927
393.7858	0.2959
393.9922	0.283
394.1986	0.2746
394.4049	0.2814
394.6113	0.2793
394.8176	0.2778
395.0239	0.2751
395.2302	0.2849
395.4365	0.2772
395.6428	0.2721
395.8491	0.2742
396.0553	0.2604
396.2615	0.2737
396.4678	0.2864
396.674	0.2658
396.8802	0.2656
397.0863	0.27
397.2925	0.2684
397.4987	0.2687
397.7048	0.2657
397.9109	0.2552
398.117	0.2679
398.3231	0.2694
398.5292	0.2594
398.7353	0.2571
398.9413	0.2638
399.1474	0.2604
399.3534	0.2569
399.5594	0.2652
399.7654	0.2633
399.9714	0.2713
400.1774	0.2554
400.3833	0.2665
400.5893	0.2596
400.7952	0.2635
401.0011	0.266
401.207	0.27
401.4129	0.2593
401.6188	0.2653
401.8247	0.2702
402.0305	0.2684
402.2364	0.2587
402.4422	0.267
402.648	0.2548
402.8538	0.253
403.0596	0.2592
403.2654	0.2722
403.4711	0.2573
403.6768	0.2605
403.8826	0.2657
404.0883	0.2592
404.294	0.2653
404.4997	0.2574
404.7054	0.2636
404.911	0.2621
405.1167	0.2524
405.3223	0.2597
405.5279	0.2608
405.7335	0.2534
405.9391	0.2619
406.1447	0.271
406.3502	0.2515
406.5558	0.2581
406.7613	0.2638
406.9668	0.2602
407.1724	0.2548
407.3778	0.2598
407.5833	0.2538
407.7888	0.2618
407.9942	0.2532
408.1997	0.2625
408.4051	0.263
408.6105	0.2698
408.8159	0.2565
409.0213	0.2698
409.2267	0.2759
409.432	0.2626
409.6374	0.2601
409.8427	0.2657
410.048	0.2711
410.2533	0.2621
410.4586	0.2598
410.6639	0.2624
410.8691	0.2518
411.0744	0.2627
411.2796	0.2647
411.4848	0.2619
411.69	0.2505
411.8952	0.2585
412.1004	0.2647
412.3056	0.2559
412.5107	0.2542
412.7158	0.2781
412.921	0.2573
413.1261	0.253
413.3312	0.2606
413.5362	0.2743
413.7413	0.2627
413.9464	0.2451
414.1514	0.2594
414.3564	0.2515
414.5614	0.2636
414.7664	0.253
414.9714	0.2467
415.1764	0.2591
415.3813	0.2527
415.5863	0.2638
415.7912	0.2503
415.9961	0.2509
416.201	0.2625
416.4059	0.256
416.6108	0.2519
416.8156	0.2535
417.0205	0.2473
417.2253	0.2628
417.4301	0.2499
417.6349	0.2514
417.8397	0.246
418.0445	0.2539
418.2492	0.2543
418.454	0.2443
418.6587	0.2443
418.8634	0.2589
419.0681	0.2472
419.2728	0.247
419.4775	0.2551
419.6822	0.2442
419.8868	0.247
420.0915	0.2418
420.2961	0.236
420.5007	0.2392
420.7053	0.2375
420.9099	0.2461
421.1144	0.242
421.319	0.2405
421.5235	0.236
421.728	0.2423
421.9325	0.2336
422.137	0.2459
422.3415	0.2333
422.546	0.2277
422.7504	0.2403
422.9549	0.2383
423.1593	0.2327
423.3637	0.2267
423.5681	0.2346
423.7725	0.2337
423.9769	0.2366
424.1812	0.2259
424.3856	0.2365
424.5899	0.2288
424.7942	0.2314
424.9985	0.2234
425.2028	0.2258
425.4071	0.2312
425.6113	0.2183
425.8156	0.2132
426.0198	0.2213
426.224	0.2228
426.4282	0.2056
426.6324	0.2113
