Data from D4ACN5uM460nmA_Absorbance_13-05-41-361.txt Node
Date: Fri Feb 21 13:05:41 GMT 2025
User: LASERRRRR
Spectrometer: FLMT03099
Trigger mode: 0
Integration Time (sec): 1.500000E-2
Scans to average: 1
Electric dark correction enabled: true
Nonlinearity correction enabled: false
Boxcar width: 0
XAxis mode: Wavelengths
Number of Pixels in Spectrum: 3648
>>>>>Begin Spectral Data<<<<<
179.3399	-0.1932
179.5586	-0.1932
179.7771	-0.1932
179.9957	-0.0808
180.2143	-0
180.4329	0.8182
180.6514	-0
180.8699	0.1825
181.0885	-0
181.307	-0.0799
181.5255	0.2753
181.744	-0
181.9625	-0
182.181	-0
182.3994	-0
182.6179	-0
182.8363	-0
183.0547	0.3349
183.2732	-0.0763
183.4916	0.1724
183.71	0.0849
183.9284	0.0548
184.1467	0.3621
184.3651	0.1818
184.5835	0.1051
184.8018	-0.0471
185.0201	0.1203
185.2385	0.0828
185.4568	0.2023
185.6751	0.1432
185.8934	0.1136
186.1117	-0.1076
186.3299	0.2097
186.5482	0.3759
186.7664	0.0383
186.9847	-0.0281
187.2029	0.0434
187.4211	-0.1205
187.6393	0.2278
187.8575	0.1811
188.0757	0.8515
188.2939	-0.0048
188.512	0.1473
188.7302	-0.0401
188.9483	0.4518
189.1665	0.4658
189.3846	0.0536
189.6027	0.1018
189.8208	0.1548
190.0389	0.1501
190.257	0.1201
190.475	-0.001
190.6931	-0.1128
190.9111	0.1651
191.1292	0.042
191.3472	0.0964
191.5652	0.2685
191.7832	0.2008
192.0012	0.2898
192.2192	0.0859
192.4371	0.2452
192.6551	0.032
192.873	0.0461
193.091	0.1222
193.3089	0.1801
193.5268	0.2453
193.7447	0.1206
193.9626	0.1665
194.1805	0.183
194.3984	0.184
194.6162	0.2074
194.8341	0.1942
195.0519	0.2022
195.2697	0.1803
195.4875	0.276
195.7054	0.3389
195.9231	0.2294
196.1409	0.2736
196.3587	0.3058
196.5765	0.3124
196.7942	0.3388
197.012	0.2747
197.2297	0.2847
197.4474	0.4364
197.6651	0.3154
197.8828	0.2788
198.1005	0.4033
198.3182	0.3389
198.5358	0.41
198.7535	0.3736
198.9711	0.4172
199.1888	0.3256
199.4064	0.3973
199.624	0.4453
199.8416	0.3905
200.0592	0.3996
200.2767	0.3888
200.4943	0.4276
200.7119	0.3804
200.9294	0.3845
201.1469	0.3948
201.3645	0.4519
201.582	0.3727
201.7995	0.3994
202.017	0.4059
202.2344	0.4202
202.4519	0.3519
202.6694	0.3766
202.8868	0.3899
203.1042	0.4111
203.3217	0.3856
203.5391	0.4008
203.7565	0.3617
203.9739	0.374
204.1913	0.3577
204.4086	0.3746
204.626	0.3867
204.8433	0.3478
205.0607	0.3652
205.278	0.376
205.4953	0.3106
205.7126	0.3572
205.9299	0.3211
206.1472	0.3467
206.3644	0.3334
206.5817	0.3512
206.7989	0.3261
207.0162	0.3398
207.2334	0.3335
207.4506	0.3071
207.6678	0.3078
207.885	0.3025
208.1022	0.3125
208.3194	0.2826
208.5365	0.3112
208.7537	0.29
208.9708	0.3083
209.1879	0.2989
209.405	0.2974
209.6222	0.2773
209.8392	0.275
210.0563	0.3023
210.2734	0.267
210.4905	0.2913
210.7075	0.276
210.9245	0.2544
211.1416	0.2785
211.3586	0.2726
211.5756	0.2434
211.7926	0.2726
212.0096	0.2649
212.2265	0.2528
212.4435	0.2646
212.6604	0.2652
212.8774	0.2479
213.0943	0.2585
213.3112	0.2436
213.5281	0.2663
213.745	0.2477
213.9619	0.2495
214.1788	0.251
214.3956	0.2575
214.6125	0.2542
214.8293	0.2585
215.0461	0.2385
215.2629	0.2477
215.4798	0.2526
215.6965	0.2509
215.9133	0.2416
216.1301	0.2621
216.3469	0.2515
216.5636	0.2378
216.7803	0.2652
216.9971	0.2508
217.2138	0.2663
217.4305	0.2517
217.6472	0.2605
217.8639	0.2413
218.0805	0.2347
218.2972	0.2573
218.5138	0.2639
218.7305	0.2408
218.9471	0.26
219.1637	0.2639
219.3803	0.26
219.5969	0.2598
219.8135	0.2741
220.0301	0.2469
220.2466	0.2607
220.4632	0.2606
220.6797	0.262
220.8962	0.2733
221.1127	0.2743
221.3292	0.2668
221.5457	0.2904
221.7622	0.2666
221.9787	0.2908
222.1951	0.2725
222.4116	0.2825
222.628	0.2956
222.8444	0.2871
223.0608	0.2818
223.2772	0.2854
223.4936	0.283
223.71	0.2962
223.9264	0.2934
224.1427	0.2933
224.3591	0.2938
224.5754	0.3015
224.7917	0.2933
225.008	0.3025
225.2243	0.3065
225.4406	0.2751
225.6569	0.3029
225.8732	0.3084
226.0894	0.3082
226.3057	0.3014
226.5219	0.3012
226.7381	0.3227
226.9543	0.3096
227.1705	0.3301
227.3867	0.3211
227.6029	0.3273
227.8191	0.3377
228.0352	0.3321
228.2513	0.3597
228.4675	0.3499
228.6836	0.3435
228.8997	0.348
229.1158	0.3509
229.3319	0.3572
229.548	0.3593
229.764	0.3723
229.9801	0.3665
230.1961	0.372
230.4121	0.3663
230.6282	0.3861
230.8442	0.3857
231.0602	0.3902
231.2761	0.3877
231.4921	0.3886
231.7081	0.3862
231.924	0.3969
232.14	0.4067
232.3559	0.3907
232.5718	0.4112
232.7877	0.4159
233.0036	0.4012
233.2195	0.4086
233.4353	0.4317
233.6512	0.4179
233.867	0.4131
234.0829	0.4219
234.2987	0.4148
234.5145	0.4368
234.7303	0.4363
234.9461	0.441
235.1619	0.4278
235.3776	0.4332
235.5934	0.4269
235.8091	0.4413
236.0249	0.4427
236.2406	0.4389
236.4563	0.4507
236.672	0.4477
236.8877	0.4419
237.1034	0.454
237.319	0.4482
237.5347	0.4566
237.7503	0.4512
237.966	0.4556
238.1816	0.4481
238.3972	0.4638
238.6128	0.4619
238.8284	0.4569
239.0439	0.4617
239.2595	0.4586
239.475	0.4649
239.6906	0.4573
239.9061	0.4556
240.1216	0.4743
240.3371	0.4599
240.5526	0.4652
240.7681	0.4639
240.9836	0.4421
241.199	0.4471
241.4145	0.4484
241.6299	0.4379
241.8453	0.4356
242.0607	0.4313
242.2761	0.4353
242.4915	0.4271
242.7069	0.4112
242.9223	0.4104
243.1376	0.4001
243.353	0.3962
243.5683	0.3933
243.7836	0.3892
243.9989	0.3734
244.2142	0.3704
244.4295	0.3594
244.6448	0.3606
244.86	0.346
245.0753	0.3379
245.2905	0.3332
245.5057	0.3319
245.721	0.3305
245.9362	0.3262
246.1514	0.3171
246.3665	0.3092
246.5817	0.2983
246.7969	0.2985
247.012	0.2901
247.2271	0.2883
247.4423	0.2896
247.6574	0.2864
247.8725	0.2706
248.0876	0.2662
248.3026	0.2697
248.5177	0.2529
248.7328	0.2545
248.9478	0.2524
249.1628	0.2529
249.3779	0.2308
249.5929	0.237
249.8079	0.2325
250.0228	0.2316
250.2378	0.229
250.4528	0.2214
250.6677	0.2176
250.8827	0.2131
251.0976	0.2153
251.3125	0.2156
251.5274	0.2099
251.7423	0.2006
251.9572	0.2037
252.172	0.2059
252.3869	0.208
252.6017	0.2022
252.8166	0.1965
253.0314	0.195
253.2462	0.1948
253.461	0.1927
253.6758	0.1963
253.8906	0.191
254.1053	0.2011
254.3201	0.1916
254.5348	0.178
254.7496	0.1866
254.9643	0.1891
255.179	0.1859
255.3937	0.186
255.6083	0.1869
255.823	0.1906
256.0377	0.1853
256.2523	0.1827
256.467	0.1804
256.6816	0.1802
256.8962	0.1839
257.1108	0.1792
257.3254	0.1798
257.54	0.1827
257.7545	0.1863
257.9691	0.1818
258.1836	0.1733
258.3981	0.1829
258.6127	0.1737
258.8272	0.1805
259.0417	0.1736
259.2561	0.1753
259.4706	0.1716
259.6851	0.1736
259.8995	0.1715
260.114	0.1737
260.3284	0.1711
260.5428	0.1745
260.7572	0.1713
260.9716	0.1837
261.186	0.1734
261.4003	0.1689
261.6147	0.171
261.829	0.1717
262.0433	0.1716
262.2577	0.1747
262.472	0.1753
262.6863	0.1757
262.9005	0.1762
263.1148	0.1669
263.3291	0.1729
263.5433	0.1806
263.7576	0.1777
263.9718	0.1695
264.186	0.1815
264.4002	0.1744
264.6144	0.1813
264.8286	0.1764
265.0427	0.1745
265.2569	0.1714
265.471	0.1744
265.6851	0.1787
265.8993	0.1739
266.1134	0.1781
266.3275	0.1758
266.5415	0.1757
266.7556	0.176
266.9697	0.1761
267.1837	0.1725
267.3978	0.1775
267.6118	0.1669
267.8258	0.1772
268.0398	0.177
268.2538	0.1764
268.4677	0.174
268.6817	0.1721
268.8957	0.1704
269.1096	0.1665
269.3235	0.168
269.5374	0.1753
269.7514	0.1732
269.9652	0.1697
270.1791	0.1659
270.393	0.1706
270.6068	0.165
270.8207	0.1644
271.0345	0.1648
271.2483	0.1598
271.4622	0.1715
271.676	0.1692
271.8897	0.1688
272.1035	0.1697
272.3173	0.1686
272.531	0.1656
272.7448	0.1669
272.9585	0.1578
273.1722	0.1645
273.3859	0.1672
273.5996	0.17
273.8133	0.1603
274.0269	0.1582
274.2406	0.1636
274.4542	0.1641
274.6679	0.1657
274.8815	0.1735
275.0951	0.1712
275.3087	0.1682
275.5223	0.1691
275.7358	0.1703
275.9494	0.1677
276.1629	0.1707
276.3765	0.1662
276.59	0.1638
276.8035	0.1666
277.017	0.172
277.2305	0.1724
277.444	0.1749
277.6574	0.1676
277.8709	0.1761
278.0843	0.1678
278.2978	0.1742
278.5112	0.1722
278.7246	0.1697
278.938	0.1713
279.1513	0.1776
279.3647	0.1681
279.5781	0.1714
279.7914	0.1737
280.0047	0.1752
280.2181	0.1753
280.4314	0.1712
280.6447	0.179
280.8579	0.1757
281.0712	0.1734
281.2845	0.1737
281.4977	0.1776
281.711	0.1724
281.9242	0.1772
282.1374	0.1761
282.3506	0.1767
282.5638	0.1766
282.7769	0.1746
282.9901	0.1781
283.2033	0.179
283.4164	0.1794
283.6295	0.1786
283.8426	0.176
284.0557	0.1782
284.2688	0.1778
284.4819	0.1793
284.695	0.1876
284.908	0.1779
285.1211	0.1831
285.3341	0.1754
285.5471	0.1788
285.7601	0.1846
285.9731	0.1823
286.1861	0.1809
286.3991	0.1852
286.612	0.1883
286.825	0.1896
287.0379	0.183
287.2508	0.1881
287.4637	0.1854
287.6766	0.1836
287.8895	0.1871
288.1024	0.1876
288.3152	0.1958
288.5281	0.1916
288.7409	0.1922
288.9538	0.1886
289.1666	0.1848
289.3794	0.1915
289.5922	0.1836
289.8049	0.1884
290.0177	0.1909
290.2304	0.1953
290.4432	0.1951
290.6559	0.1915
290.8686	0.195
291.0813	0.1902
291.294	0.196
291.5067	0.1872
291.7194	0.1922
291.932	0.1922
292.1447	0.1927
292.3573	0.1906
292.5699	0.1944
292.7825	0.1964
292.9951	0.1919
293.2077	0.1928
293.4203	0.1924
293.6328	0.1923
293.8454	0.1968
294.0579	0.1901
294.2704	0.2028
294.4829	0.1954
294.6954	0.1927
294.9079	0.1933
295.1204	0.1918
295.3328	0.1926
295.5453	0.1924
295.7577	0.1928
295.9701	0.1946
296.1825	0.1875
296.3949	0.1917
296.6073	0.189
296.8197	0.1979
297.0321	0.1911
297.2444	0.1892
297.4567	0.2014
297.6691	0.1955
297.8814	0.1933
298.0937	0.1997
298.306	0.1948
298.5182	0.1999
298.7305	0.1951
298.9428	0.1953
299.155	0.1855
299.3672	0.1959
299.5794	0.1944
299.7916	0.1892
300.0038	0.1951
300.216	0.193
300.4282	0.1949
300.6403	0.1955
300.8525	0.1964
301.0646	0.1984
301.2767	0.1907
301.4888	0.1941
301.7009	0.1948
301.913	0.1915
302.125	0.1912
302.3371	0.1939
302.5491	0.194
302.7612	0.2008
302.9732	0.1989
303.1852	0.1926
303.3972	0.1986
303.6092	0.1985
303.8211	0.1938
304.0331	0.1903
304.245	0.1867
304.457	0.1886
304.6689	0.1881
304.8808	0.1882
305.0927	0.1925
305.3046	0.1862
305.5164	0.1837
305.7283	0.1795
305.9401	0.1751
306.152	0.1806
306.3638	0.1831
306.5756	0.1866
306.7874	0.1779
306.9992	0.1797
307.2109	0.1733
307.4227	0.1716
307.6344	0.1783
307.8462	0.1672
308.0579	0.1685
308.2696	0.1721
308.4813	0.1655
308.693	0.1626
308.9046	0.1626
309.1163	0.1603
309.328	0.1588
309.5396	0.1532
309.7512	0.1539
309.9628	0.1586
310.1744	0.1461
310.386	0.145
310.5976	0.1477
310.8091	0.1493
311.0207	0.1441
311.2322	0.1404
311.4437	0.1434
311.6552	0.139
311.8667	0.1417
312.0782	0.1398
312.2897	0.1359
312.5012	0.1362
312.7126	0.1329
312.924	0.1357
313.1355	0.1321
313.3469	0.1346
313.5583	0.133
313.7696	0.126
313.981	0.1355
314.1924	0.1219
314.4037	0.1265
314.6151	0.1237
314.8264	0.1324
315.0377	0.1277
315.249	0.1288
315.4603	0.1283
315.6716	0.1255
315.8828	0.125
316.0941	0.1252
316.3053	0.1229
316.5165	0.1241
316.7277	0.1183
316.9389	0.1206
317.1501	0.1225
317.3613	0.1145
317.5724	0.1191
317.7836	0.1136
317.9947	0.1206
318.2058	0.12
318.417	0.1188
318.6281	0.1139
318.8391	0.1208
319.0502	0.1227
319.2613	0.1156
319.4723	0.1209
319.6834	0.1197
319.8944	0.1198
320.1054	0.1193
320.3164	0.1193
320.5274	0.1152
320.7383	0.1171
320.9493	0.1162
321.1602	0.119
321.3712	0.1193
321.5821	0.1114
321.793	0.1242
322.0039	0.1222
322.2148	0.1235
322.4257	0.114
322.6365	0.1131
322.8474	0.1215
323.0582	0.1189
323.269	0.1253
323.4798	0.12
323.6906	0.1228
323.9014	0.116
324.1122	0.1163
324.3229	0.1188
324.5337	0.1217
324.7444	0.1197
324.9551	0.1239
325.1658	0.122
325.3765	0.123
325.5872	0.1229
325.7979	0.1193
326.0085	0.119
326.2192	0.114
326.4298	0.1252
326.6404	0.1261
326.851	0.1219
327.0616	0.1234
327.2722	0.1264
327.4828	0.1241
327.6933	0.1319
327.9039	0.1265
328.1144	0.1248
328.3249	0.1271
328.5354	0.1217
328.7459	0.1263
328.9564	0.1281
329.1669	0.1267
329.3773	0.1304
329.5878	0.1202
329.7982	0.1238
330.0086	0.1244
330.219	0.1192
330.4294	0.1233
330.6398	0.1271
330.8502	0.1308
331.0605	0.1269
331.2708	0.1268
331.4812	0.1291
331.6915	0.1298
331.9018	0.1307
332.1121	0.1349
332.3224	0.1276
332.5326	0.1212
332.7429	0.1292
332.9531	0.1324
333.1633	0.1243
333.3735	0.1194
333.5837	0.1344
333.7939	0.1275
334.0041	0.1384
334.2143	0.1323
334.4244	0.1363
334.6346	0.1323
334.8447	0.1288
335.0548	0.132
335.2649	0.1342
335.475	0.1373
335.685	0.1347
335.8951	0.1328
336.1051	0.1353
336.3152	0.1372
336.5252	0.1356
336.7352	0.1367
336.9452	0.1298
337.1552	0.1375
337.3652	0.1308
337.5751	0.1291
337.7851	0.1392
337.995	0.1373
338.2049	0.134
338.4148	0.1313
338.6247	0.1359
338.8346	0.1302
339.0445	0.1353
339.2543	0.1413
339.4642	0.1384
339.674	0.134
339.8838	0.1402
340.0936	0.1394
340.3034	0.1315
340.5132	0.1329
340.7229	0.1365
340.9327	0.1395
341.1424	0.1377
341.3522	0.1377
341.5619	0.1441
341.7716	0.1529
341.9813	0.1439
342.1909	0.1491
342.4006	0.1496
342.6102	0.1441
342.8199	0.1433
343.0295	0.1435
343.2391	0.1476
343.4487	0.1497
343.6583	0.1525
343.8679	0.1463
344.0774	0.1488
344.287	0.1505
344.4965	0.1529
344.706	0.1572
344.9155	0.1429
345.125	0.1522
345.3345	0.1592
345.544	0.1541
345.7534	0.1473
345.9629	0.1558
346.1723	0.1508
346.3817	0.1512
346.5911	0.1588
346.8005	0.1585
347.0099	0.1576
347.2193	0.1606
347.4286	0.1653
347.638	0.1612
347.8473	0.1631
348.0566	0.1642
348.2659	0.1606
348.4752	0.1623
348.6845	0.1602
348.8937	0.164
349.103	0.1642
349.3122	0.1639
349.5214	0.1655
349.7306	0.1732
349.9398	0.1666
350.149	0.1623
350.3582	0.1738
350.5674	0.1785
350.7765	0.1732
350.9856	0.163
351.1948	0.1704
351.4039	0.1722
351.613	0.173
351.822	0.1737
352.0311	0.1761
352.2402	0.1713
352.4492	0.1764
352.6582	0.1768
352.8672	0.1808
353.0762	0.177
353.2852	0.1777
353.4942	0.1861
353.7032	0.1788
353.9121	0.1821
354.1211	0.1822
354.33	0.1798
354.5389	0.1762
354.7478	0.1794
354.9567	0.1869
355.1655	0.182
355.3744	0.1837
355.5833	0.186
355.7921	0.1934
356.0009	0.191
356.2097	0.1844
356.4185	0.191
356.6273	0.1854
356.8361	0.1925
357.0448	0.1849
357.2536	0.1904
357.4623	0.1846
357.671	0.1949
357.8797	0.1958
358.0884	0.188
358.2971	0.1893
358.5057	0.1996
358.7144	0.1906
358.923	0.1988
359.1316	0.1977
359.3402	0.2028
359.5488	0.1975
359.7574	0.2122
359.966	0.1999
360.1746	0.2065
360.3831	0.208
360.5916	0.2007
360.8002	0.2101
361.0087	0.2075
361.2172	0.2086
361.4256	0.2107
361.6341	0.2127
361.8426	0.2142
362.051	0.2098
362.2594	0.216
362.4678	0.2119
362.6762	0.2233
362.8846	0.2162
363.093	0.2199
363.3014	0.2199
363.5097	0.2114
363.718	0.2263
363.9264	0.2263
364.1347	0.2243
364.343	0.2304
364.5513	0.2289
364.7595	0.232
364.9678	0.2263
365.176	0.229
365.3842	0.2324
365.5925	0.2318
365.8007	0.2276
366.0089	0.2368
366.217	0.2389
366.4252	0.2382
366.6333	0.2332
366.8415	0.2375
367.0496	0.2403
367.2577	0.2386
367.4658	0.2411
367.6739	0.2323
367.882	0.2472
368.09	0.242
368.2981	0.2509
368.5061	0.2456
368.7141	0.2393
368.9221	0.2533
369.1301	0.2507
369.3381	0.2612
369.5461	0.2495
369.754	0.25
369.962	0.2513
370.1699	0.2537
370.3778	0.2555
370.5857	0.257
370.7936	0.2594
371.0015	0.2561
371.2093	0.2617
371.4172	0.258
371.625	0.266
371.8328	0.2573
372.0406	0.2665
372.2484	0.261
372.4562	0.2624
372.664	0.2635
372.8717	0.2673
373.0795	0.2725
373.2872	0.2679
373.4949	0.2755
373.7026	0.2607
373.9103	0.2704
374.118	0.268
374.3256	0.2751
374.5333	0.2676
374.7409	0.2775
374.9485	0.2723
375.1561	0.2753
375.3637	0.2716
375.5713	0.284
375.7789	0.2813
375.9864	0.2758
376.194	0.289
376.4015	0.272
376.609	0.2815
376.8165	0.2774
377.024	0.2749
377.2315	0.284
377.4389	0.283
377.6464	0.2902
377.8538	0.2949
378.0612	0.2867
378.2686	0.2903
378.476	0.2931
378.6834	0.288
378.8908	0.298
379.0981	0.2972
379.3055	0.2937
379.5128	0.2865
379.7201	0.2997
379.9274	0.2965
380.1347	0.2998
380.342	0.3056
380.5492	0.2931
380.7565	0.2972
380.9637	0.2986
381.1709	0.2973
381.3781	0.3062
381.5853	0.3007
381.7925	0.3016
381.9997	0.3084
382.2068	0.3051
382.4139	0.3012
382.6211	0.306
382.8282	0.3065
383.0353	0.3063
383.2424	0.3094
383.4494	0.3024
383.6565	0.3052
383.8635	0.302
384.0706	0.3136
384.2776	0.3104
384.4846	0.3099
384.6916	0.314
384.8986	0.3144
385.1055	0.3217
385.3125	0.3066
385.5194	0.3176
385.7263	0.307
385.9333	0.3097
386.1402	0.3173
386.347	0.3127
386.5539	0.3178
386.7608	0.3086
386.9676	0.3126
387.1744	0.319
387.3813	0.3064
387.5881	0.3072
387.7948	0.3174
388.0016	0.3214
388.2084	0.3143
388.4151	0.3064
388.6219	0.3046
388.8286	0.3139
389.0353	0.3114
389.242	0.3071
389.4487	0.3051
389.6553	0.2994
389.862	0.3008
390.0686	0.312
390.2753	0.3096
390.4819	0.2995
390.6885	0.3043
390.8951	0.2971
391.1016	0.2983
391.3082	0.3052
391.5147	0.2884
391.7213	0.292
391.9278	0.2974
392.1343	0.2963
392.3408	0.2858
392.5473	0.2902
392.7537	0.3001
392.9602	0.2865
393.1666	0.2972
393.373	0.2763
393.5794	0.2939
393.7858	0.2868
393.9922	0.2773
394.1986	0.2802
394.4049	0.2852
394.6113	0.2872
394.8176	0.285
395.0239	0.272
395.2302	0.2748
395.4365	0.2732
395.6428	0.2683
395.8491	0.2689
396.0553	0.2705
396.2615	0.2741
396.4678	0.2862
396.674	0.2676
396.8802	0.2677
397.0863	0.2596
397.2925	0.2704
397.4987	0.2663
397.7048	0.2764
397.9109	0.2612
398.117	0.2656
398.3231	0.268
398.5292	0.2577
398.7353	0.265
398.9413	0.2645
399.1474	0.2649
399.3534	0.2597
399.5594	0.2718
399.7654	0.2702
399.9714	0.2662
400.1774	0.2571
400.3833	0.2748
400.5893	0.2694
400.7952	0.2747
401.0011	0.2569
401.207	0.2659
401.4129	0.2656
401.6188	0.2611
401.8247	0.2673
402.0305	0.266
402.2364	0.2671
402.4422	0.2713
402.648	0.27
402.8538	0.2588
403.0596	0.2571
403.2654	0.2659
403.4711	0.2573
403.6768	0.2625
403.8826	0.2669
404.0883	0.2687
404.294	0.2628
404.4997	0.2562
404.7054	0.2732
404.911	0.2578
405.1167	0.2677
405.3223	0.2557
405.5279	0.2672
405.7335	0.2652
405.9391	0.2555
406.1447	0.2644
406.3502	0.2589
406.5558	0.2604
406.7613	0.2622
406.9668	0.2586
407.1724	0.2554
407.3778	0.255
407.5833	0.2528
407.7888	0.2671
407.9942	0.2682
408.1997	0.2679
408.4051	0.2684
408.6105	0.2657
408.8159	0.2678
409.0213	0.2635
409.2267	0.2576
409.432	0.2607
409.6374	0.2678
409.8427	0.2747
410.048	0.2738
410.2533	0.266
410.4586	0.2518
410.6639	0.2614
410.8691	0.2592
411.0744	0.2608
411.2796	0.2592
411.4848	0.2672
411.69	0.2569
411.8952	0.2589
412.1004	0.2676
412.3056	0.2629
412.5107	0.2612
412.7158	0.2727
412.921	0.2727
413.1261	0.2615
413.3312	0.2587
413.5362	0.2693
413.7413	0.2595
413.9464	0.255
414.1514	0.2488
414.3564	0.2542
414.5614	0.2632
414.7664	0.2534
414.9714	0.2588
415.1764	0.2623
415.3813	0.2538
415.5863	0.2599
415.7912	0.2488
415.9961	0.2667
416.201	0.2642
416.4059	0.2581
416.6108	0.2625
416.8156	0.2549
417.0205	0.2522
417.2253	0.2524
417.4301	0.2667
417.6349	0.2548
417.8397	0.2607
418.0445	0.2491
418.2492	0.2513
418.454	0.2495
418.6587	0.2614
418.8634	0.2534
419.0681	0.2608
419.2728	0.2539
419.4775	0.2532
419.6822	0.2504
419.8868	0.2454
420.0915	0.2391
420.2961	0.2405
420.5007	0.2457
420.7053	0.2512
420.9099	0.2491
421.1144	0.2458
421.319	0.2339
421.5235	0.2369
421.728	0.2454
421.9325	0.2463
422.137	0.2418
422.3415	0.244
422.546	0.2299
422.7504	0.2336
422.9549	0.2446
423.1593	0.2302
423.3637	0.2345
423.5681	0.2354
423.7725	0.2318
423.9769	0.2307
424.1812	0.2227
424.3856	0.2271
424.5899	0.2316
424.7942	0.2302
424.9985	0.2239
425.2028	0.2314
425.4071	0.2283
425.6113	0.2236
425.8156	0.2249
426.0198	0.2235
426.224	0.22
426.4282	0.2151
426.6324	0.2178
426.8366	0.213
