Data from D4ACN5uM460nmA_Absorbance_13-05-41-885.txt Node
Date: Fri Feb 21 13:05:41 GMT 2025
User: LASERRRRR
Spectrometer: FLMT03099
Trigger mode: 0
Integration Time (sec): 1.500000E-2
Scans to average: 1
Electric dark correction enabled: true
Nonlinearity correction enabled: false
Boxcar width: 0
XAxis mode: Wavelengths
Number of Pixels in Spectrum: 3648
>>>>>Begin Spectral Data<<<<<
179.3399	-0.1932
179.5586	-0.1932
179.7771	-0.1932
179.9957	0.0904
180.2143	-0
180.4329	0.526
180.6514	-0
180.8699	0.7702
181.0885	0.9294
181.307	0.3727
181.5255	0.2441
181.744	-0
181.9625	0.21
182.181	-0.0411
182.3994	0.0785
182.6179	0.3541
182.8363	-0
183.0547	0.1818
183.2732	0.2968
183.4916	0.1724
183.71	0.4156
183.9284	0.2927
184.1467	0.2172
184.3651	0.0582
184.5835	0.2065
184.8018	0.0636
185.0201	0.7688
185.2385	0.2465
185.4568	0.4646
185.6751	0.3373
185.8934	0.1957
186.1117	-0.1076
186.3299	0.1224
186.5482	0.1388
186.7664	0.1903
186.9847	0.1943
187.2029	0.3136
187.4211	0.1921
187.6393	0.0986
187.8575	0.5246
188.0757	0.1701
188.2939	0.4405
188.512	0.5941
188.7302	0.1687
188.9483	0.2097
189.1665	0.4409
189.3846	0.3008
189.6027	0.3343
189.8208	0.1975
190.0389	0.3036
190.257	0.0875
190.475	0.1603
190.6931	0.122
190.9111	0.1024
191.1292	0.2469
191.3472	0.082
191.5652	0.227
191.7832	0.0595
192.0012	0.1691
192.2192	0.3192
192.4371	0.1855
192.6551	0.1828
192.873	0.1576
193.091	0.1677
193.3089	0.2378
193.5268	0.2023
193.7447	0.163
193.9626	0.2116
194.1805	0.251
194.3984	0.2805
194.6162	0.2357
194.8341	0.2379
195.0519	0.3119
195.2697	0.2224
195.4875	0.2999
195.7054	0.3427
195.9231	0.3264
196.1409	0.3284
196.3587	0.2731
196.5765	0.3153
196.7942	0.3497
197.012	0.3092
197.2297	0.3151
197.4474	0.3809
197.6651	0.4187
197.8828	0.3884
198.1005	0.4178
198.3182	0.4265
198.5358	0.4087
198.7535	0.4413
198.9711	0.4211
199.1888	0.3842
199.4064	0.4191
199.624	0.3542
199.8416	0.3601
200.0592	0.3924
200.2767	0.4
200.4943	0.4437
200.7119	0.3703
200.9294	0.481
201.1469	0.4329
201.3645	0.4329
201.582	0.3672
201.7995	0.4104
202.017	0.4172
202.2344	0.439
202.4519	0.4178
202.6694	0.3816
202.8868	0.3822
203.1042	0.4029
203.3217	0.4
203.5391	0.3812
203.7565	0.3663
203.9739	0.3549
204.1913	0.3655
204.4086	0.3558
204.626	0.3467
204.8433	0.386
205.0607	0.3488
205.278	0.3485
205.4953	0.3495
205.7126	0.347
205.9299	0.3221
206.1472	0.3419
206.3644	0.3578
206.5817	0.3082
206.7989	0.3318
207.0162	0.3408
207.2334	0.3482
207.4506	0.3273
207.6678	0.3222
207.885	0.3092
208.1022	0.3008
208.3194	0.288
208.5365	0.3116
208.7537	0.3115
208.9708	0.2954
209.1879	0.3124
209.405	0.2867
209.6222	0.2831
209.8392	0.3192
210.0563	0.272
210.2734	0.2793
210.4905	0.2902
210.7075	0.2739
210.9245	0.2706
211.1416	0.2982
211.3586	0.2937
211.5756	0.2321
211.7926	0.2654
212.0096	0.2664
212.2265	0.2563
212.4435	0.2514
212.6604	0.2635
212.8774	0.2409
213.0943	0.2635
213.3112	0.2565
213.5281	0.2603
213.745	0.237
213.9619	0.2375
214.1788	0.264
214.3956	0.2507
214.6125	0.253
214.8293	0.2573
215.0461	0.2448
215.2629	0.2433
215.4798	0.2251
215.6965	0.2466
215.9133	0.2533
216.1301	0.2358
216.3469	0.2683
216.5636	0.255
216.7803	0.249
216.9971	0.2607
217.2138	0.2502
217.4305	0.2533
217.6472	0.2528
217.8639	0.256
218.0805	0.2572
218.2972	0.245
218.5138	0.2591
218.7305	0.2811
218.9471	0.2442
219.1637	0.2833
219.3803	0.2536
219.5969	0.256
219.8135	0.2738
220.0301	0.2643
220.2466	0.2548
220.4632	0.2516
220.6797	0.2628
220.8962	0.2589
221.1127	0.2682
221.3292	0.2691
221.5457	0.2803
221.7622	0.2787
221.9787	0.2996
222.1951	0.2758
222.4116	0.2807
222.628	0.2932
222.8444	0.2868
223.0608	0.273
223.2772	0.2813
223.4936	0.2824
223.71	0.2888
223.9264	0.286
224.1427	0.2919
224.3591	0.2873
224.5754	0.2997
224.7917	0.2954
225.008	0.2999
225.2243	0.3168
225.4406	0.296
225.6569	0.3185
225.8732	0.3095
226.0894	0.2955
226.3057	0.3151
226.5219	0.3156
226.7381	0.3198
226.9543	0.3172
227.1705	0.3172
227.3867	0.3262
227.6029	0.3295
227.8191	0.3332
228.0352	0.329
228.2513	0.3576
228.4675	0.3461
228.6836	0.3446
228.8997	0.3467
229.1158	0.3616
229.3319	0.3614
229.548	0.3563
229.764	0.3593
229.9801	0.3747
230.1961	0.3781
230.4121	0.3654
230.6282	0.3867
230.8442	0.385
231.0602	0.3743
231.2761	0.3782
231.4921	0.3907
231.7081	0.3914
231.924	0.3984
232.14	0.3928
232.3559	0.4025
232.5718	0.4124
232.7877	0.4155
233.0036	0.4042
233.2195	0.4005
233.4353	0.4083
233.6512	0.4216
233.867	0.4225
234.0829	0.4263
234.2987	0.43
234.5145	0.442
234.7303	0.4445
234.9461	0.4253
235.1619	0.4425
235.3776	0.4392
235.5934	0.4293
235.8091	0.4442
236.0249	0.4411
236.2406	0.439
236.4563	0.4469
236.672	0.4482
236.8877	0.4412
237.1034	0.4419
237.319	0.4505
237.5347	0.4498
237.7503	0.4547
237.966	0.4664
238.1816	0.4475
238.3972	0.4618
238.6128	0.457
238.8284	0.4613
239.0439	0.4556
239.2595	0.465
239.475	0.4589
239.6906	0.4627
239.9061	0.4622
240.1216	0.4573
240.3371	0.462
240.5526	0.4627
240.7681	0.46
240.9836	0.4529
241.199	0.4604
241.4145	0.4504
241.6299	0.4517
241.8453	0.4426
242.0607	0.4397
242.2761	0.4393
242.4915	0.4204
242.7069	0.4111
242.9223	0.413
243.1376	0.3998
243.353	0.4052
243.5683	0.3948
243.7836	0.3901
243.9989	0.3831
244.2142	0.3782
244.4295	0.3708
244.6448	0.3593
244.86	0.3458
245.0753	0.3347
245.2905	0.3357
245.5057	0.3362
245.721	0.3242
245.9362	0.3206
246.1514	0.3139
246.3665	0.3083
246.5817	0.3008
246.7969	0.2991
247.012	0.2865
247.2271	0.2921
247.4423	0.2815
247.6574	0.2725
247.8725	0.2684
248.0876	0.2667
248.3026	0.2687
248.5177	0.2628
248.7328	0.2484
248.9478	0.2446
249.1628	0.2515
249.3779	0.2386
249.5929	0.2397
249.8079	0.2381
250.0228	0.227
250.2378	0.228
250.4528	0.2284
250.6677	0.22
250.8827	0.2173
251.0976	0.2207
251.3125	0.2091
251.5274	0.2053
251.7423	0.205
251.9572	0.2076
252.172	0.2067
252.3869	0.2052
252.6017	0.197
252.8166	0.2004
253.0314	0.1954
253.2462	0.194
253.461	0.1951
253.6758	0.1961
253.8906	0.1956
254.1053	0.1943
254.3201	0.192
254.5348	0.1856
254.7496	0.1814
254.9643	0.1868
255.179	0.1879
255.3937	0.1915
255.6083	0.1897
255.823	0.1855
256.0377	0.1788
256.2523	0.1864
256.467	0.1824
256.6816	0.1813
256.8962	0.1746
257.1108	0.1837
257.3254	0.1792
257.54	0.175
257.7545	0.1803
257.9691	0.1786
258.1836	0.1763
258.3981	0.1821
258.6127	0.17
258.8272	0.1821
259.0417	0.174
259.2561	0.1742
259.4706	0.1729
259.6851	0.1738
259.8995	0.1784
260.114	0.1741
260.3284	0.1721
260.5428	0.1749
260.7572	0.1795
260.9716	0.1766
261.186	0.1777
261.4003	0.1744
261.6147	0.1739
261.829	0.169
262.0433	0.1749
262.2577	0.1743
262.472	0.1759
262.6863	0.181
262.9005	0.1707
263.1148	0.1731
263.3291	0.1729
263.5433	0.1746
263.7576	0.1771
263.9718	0.1716
264.186	0.1782
264.4002	0.1718
264.6144	0.1843
264.8286	0.18
265.0427	0.1833
265.2569	0.1821
265.471	0.1757
265.6851	0.1796
265.8993	0.174
266.1134	0.179
266.3275	0.175
266.5415	0.1778
266.7556	0.1806
266.9697	0.1776
267.1837	0.1773
267.3978	0.1745
267.6118	0.1726
267.8258	0.1768
268.0398	0.1789
268.2538	0.1793
268.4677	0.1766
268.6817	0.1734
268.8957	0.173
269.1096	0.1648
269.3235	0.1703
269.5374	0.1748
269.7514	0.1731
269.9652	0.1726
270.1791	0.1691
270.393	0.1707
270.6068	0.169
270.8207	0.173
271.0345	0.167
271.2483	0.1643
271.4622	0.1652
271.676	0.166
271.8897	0.1669
272.1035	0.1714
272.3173	0.1745
272.531	0.1628
272.7448	0.1645
272.9585	0.1605
273.1722	0.1644
273.3859	0.1669
273.5996	0.1671
273.8133	0.1746
274.0269	0.1623
274.2406	0.1666
274.4542	0.162
274.6679	0.1664
274.8815	0.1678
275.0951	0.1709
275.3087	0.1709
275.5223	0.1716
275.7358	0.1683
275.9494	0.1683
276.1629	0.1687
276.3765	0.17
276.59	0.167
276.8035	0.1658
277.017	0.17
277.2305	0.1743
277.444	0.1729
277.6574	0.1718
277.8709	0.1743
278.0843	0.1754
278.2978	0.1725
278.5112	0.1712
278.7246	0.1722
278.938	0.1754
279.1513	0.1715
279.3647	0.1737
279.5781	0.1729
279.7914	0.176
280.0047	0.1749
280.2181	0.1758
280.4314	0.1736
280.6447	0.1825
280.8579	0.1759
281.0712	0.1742
281.2845	0.1788
281.4977	0.1766
281.711	0.1716
281.9242	0.1795
282.1374	0.1748
282.3506	0.1697
282.5638	0.1789
282.7769	0.1715
282.9901	0.1852
283.2033	0.1817
283.4164	0.1739
283.6295	0.1838
283.8426	0.1772
284.0557	0.1889
284.2688	0.1849
284.4819	0.175
284.695	0.1834
284.908	0.183
285.1211	0.1818
285.3341	0.1797
285.5471	0.1856
285.7601	0.1828
285.9731	0.1853
286.1861	0.1847
286.3991	0.1868
286.612	0.1882
286.825	0.1851
287.0379	0.1889
287.2508	0.1874
287.4637	0.189
287.6766	0.1911
287.8895	0.1832
288.1024	0.1938
288.3152	0.1858
288.5281	0.1875
288.7409	0.1918
288.9538	0.1867
289.1666	0.1935
289.3794	0.187
289.5922	0.1851
289.8049	0.1875
290.0177	0.1939
290.2304	0.1904
290.4432	0.1938
290.6559	0.1968
290.8686	0.1948
291.0813	0.1897
291.294	0.1944
291.5067	0.1887
291.7194	0.1887
291.932	0.1899
292.1447	0.1897
292.3573	0.1929
292.5699	0.1905
292.7825	0.1866
292.9951	0.1916
293.2077	0.1949
293.4203	0.1895
293.6328	0.1929
293.8454	0.1967
294.0579	0.1949
294.2704	0.1934
294.4829	0.1944
294.6954	0.1896
294.9079	0.1929
295.1204	0.1895
295.3328	0.1913
295.5453	0.1947
295.7577	0.1956
295.9701	0.1905
296.1825	0.1956
296.3949	0.1902
296.6073	0.191
296.8197	0.1913
297.0321	0.201
297.2444	0.1936
297.4567	0.1957
297.6691	0.1896
297.8814	0.192
298.0937	0.1919
298.306	0.1908
298.5182	0.1971
298.7305	0.1898
298.9428	0.1886
299.155	0.1858
299.3672	0.1874
299.5794	0.1909
299.7916	0.1897
300.0038	0.1899
300.216	0.1903
300.4282	0.194
300.6403	0.1981
300.8525	0.1915
301.0646	0.1936
301.2767	0.1936
301.4888	0.1907
301.7009	0.1951
301.913	0.2009
302.125	0.1909
302.3371	0.1908
302.5491	0.1883
302.7612	0.1954
302.9732	0.1924
303.1852	0.1918
303.3972	0.1987
303.6092	0.1891
303.8211	0.1895
304.0331	0.1878
304.245	0.1921
304.457	0.1913
304.6689	0.1813
304.8808	0.184
305.0927	0.1898
305.3046	0.1856
305.5164	0.1842
305.7283	0.1854
305.9401	0.1746
306.152	0.1818
306.3638	0.1789
306.5756	0.1813
306.7874	0.177
306.9992	0.177
307.2109	0.1719
307.4227	0.174
307.6344	0.1738
307.8462	0.1681
308.0579	0.1708
308.2696	0.1666
308.4813	0.1644
308.693	0.1622
308.9046	0.17
309.1163	0.1596
309.328	0.1572
309.5396	0.1496
309.7512	0.1542
309.9628	0.1517
310.1744	0.1479
310.386	0.1422
310.5976	0.1427
310.8091	0.1438
311.0207	0.1467
311.2322	0.1429
311.4437	0.1436
311.6552	0.1461
311.8667	0.1444
312.0782	0.1412
312.2897	0.1395
312.5012	0.1366
312.7126	0.131
312.924	0.1434
313.1355	0.133
313.3469	0.1333
313.5583	0.1338
313.7696	0.1293
313.981	0.1337
314.1924	0.1282
314.4037	0.1314
314.6151	0.1298
314.8264	0.1297
315.0377	0.1191
315.249	0.1304
315.4603	0.1222
315.6716	0.1275
315.8828	0.123
316.0941	0.1249
316.3053	0.1175
316.5165	0.122
316.7277	0.1196
316.9389	0.123
317.1501	0.1188
317.3613	0.1216
317.5724	0.121
317.7836	0.1135
317.9947	0.1188
318.2058	0.121
318.417	0.1159
318.6281	0.1198
318.8391	0.1156
319.0502	0.1166
319.2613	0.1177
319.4723	0.1118
319.6834	0.1243
319.8944	0.1167
320.1054	0.1182
320.3164	0.1161
320.5274	0.1224
320.7383	0.1256
320.9493	0.1166
321.1602	0.1197
321.3712	0.1149
321.5821	0.1112
321.793	0.1306
322.0039	0.1183
322.2148	0.1176
322.4257	0.1177
322.6365	0.1149
322.8474	0.1219
323.0582	0.1211
323.269	0.1195
323.4798	0.1229
323.6906	0.1131
323.9014	0.1186
324.1122	0.1142
324.3229	0.1235
324.5337	0.1281
324.7444	0.1251
324.9551	0.1217
325.1658	0.1205
325.3765	0.1208
325.5872	0.1224
325.7979	0.1232
326.0085	0.1174
326.2192	0.1225
326.4298	0.1254
326.6404	0.1243
326.851	0.1222
327.0616	0.1252
327.2722	0.1225
327.4828	0.1218
327.6933	0.1304
327.9039	0.1247
328.1144	0.1284
328.3249	0.1244
328.5354	0.1282
328.7459	0.1308
328.9564	0.1316
329.1669	0.1309
329.3773	0.1239
329.5878	0.1224
329.7982	0.1252
330.0086	0.1305
330.219	0.1244
330.4294	0.121
330.6398	0.1304
330.8502	0.1336
331.0605	0.1268
331.2708	0.12
331.4812	0.1253
331.6915	0.128
331.9018	0.1226
332.1121	0.1321
332.3224	0.1312
332.5326	0.1237
332.7429	0.1341
332.9531	0.1336
333.1633	0.1258
333.3735	0.1257
333.5837	0.1301
333.7939	0.1292
334.0041	0.136
334.2143	0.1303
334.4244	0.1402
334.6346	0.1262
334.8447	0.1314
335.0548	0.1345
335.2649	0.1306
335.475	0.137
335.685	0.1351
335.8951	0.1357
336.1051	0.1374
336.3152	0.1397
336.5252	0.1293
336.7352	0.1292
336.9452	0.1299
337.1552	0.1354
337.3652	0.1271
337.5751	0.141
337.7851	0.1385
337.995	0.1386
338.2049	0.1336
338.4148	0.1349
338.6247	0.1353
338.8346	0.136
339.0445	0.1378
339.2543	0.1374
339.4642	0.1315
339.674	0.135
339.8838	0.1366
340.0936	0.1444
340.3034	0.1377
340.5132	0.1413
340.7229	0.138
340.9327	0.1519
341.1424	0.1435
341.3522	0.1339
341.5619	0.1433
341.7716	0.1455
341.9813	0.1484
342.1909	0.1405
342.4006	0.1463
342.6102	0.1446
342.8199	0.1486
343.0295	0.1437
343.2391	0.1442
343.4487	0.1486
343.6583	0.1489
343.8679	0.1466
344.0774	0.1366
344.287	0.1478
344.4965	0.1486
344.706	0.1503
344.9155	0.1518
345.125	0.1491
345.3345	0.1583
345.544	0.1501
345.7534	0.1505
345.9629	0.1547
346.1723	0.1571
346.3817	0.152
346.5911	0.1573
346.8005	0.1599
347.0099	0.1546
347.2193	0.1648
347.4286	0.1579
347.638	0.1625
347.8473	0.1632
348.0566	0.1589
348.2659	0.162
348.4752	0.1693
348.6845	0.1637
348.8937	0.1589
349.103	0.156
349.3122	0.1638
349.5214	0.1673
349.7306	0.1716
349.9398	0.1633
350.149	0.1646
350.3582	0.1681
350.5674	0.1653
350.7765	0.1778
350.9856	0.1636
351.1948	0.1707
351.4039	0.1756
351.613	0.1731
351.822	0.1754
352.0311	0.1723
352.2402	0.1729
352.4492	0.1751
352.6582	0.1759
352.8672	0.1743
353.0762	0.1709
353.2852	0.1698
353.4942	0.1874
353.7032	0.1773
353.9121	0.1828
354.1211	0.1801
354.33	0.176
354.5389	0.1712
354.7478	0.1776
354.9567	0.1818
355.1655	0.1792
355.3744	0.181
355.5833	0.1811
355.7921	0.1909
356.0009	0.1887
356.2097	0.1838
356.4185	0.1884
356.6273	0.1863
356.8361	0.1899
357.0448	0.1853
357.2536	0.1887
357.4623	0.1963
357.671	0.189
357.8797	0.1896
358.0884	0.1871
358.2971	0.1891
358.5057	0.1981
358.7144	0.195
358.923	0.1928
359.1316	0.2014
359.3402	0.1931
359.5488	0.1937
359.7574	0.207
359.966	0.1983
360.1746	0.1959
360.3831	0.2061
360.5916	0.1994
360.8002	0.208
361.0087	0.2065
361.2172	0.2093
361.4256	0.2094
361.6341	0.2096
361.8426	0.2101
362.051	0.2179
362.2594	0.2127
362.4678	0.2181
362.6762	0.2143
362.8846	0.2167
363.093	0.2133
363.3014	0.2226
363.5097	0.2227
363.718	0.2227
363.9264	0.2287
364.1347	0.2223
364.343	0.2287
364.5513	0.2304
364.7595	0.2249
364.9678	0.2211
365.176	0.2274
365.3842	0.2331
365.5925	0.2304
365.8007	0.2336
366.0089	0.2303
366.217	0.2396
366.4252	0.2328
366.6333	0.2376
366.8415	0.2373
367.0496	0.2425
367.2577	0.243
367.4658	0.2396
367.6739	0.2364
367.882	0.2407
368.09	0.2395
368.2981	0.2396
368.5061	0.2454
368.7141	0.2484
368.9221	0.2551
369.1301	0.2468
369.3381	0.251
369.5461	0.2487
369.754	0.2517
369.962	0.2515
370.1699	0.2665
370.3778	0.2628
370.5857	0.2466
370.7936	0.2576
371.0015	0.2614
371.2093	0.2526
371.4172	0.2515
371.625	0.2542
371.8328	0.2515
372.0406	0.2696
372.2484	0.2704
372.4562	0.2604
372.664	0.2642
372.8717	0.2609
373.0795	0.2696
373.2872	0.271
373.4949	0.2735
373.7026	0.2691
373.9103	0.269
374.118	0.2661
374.3256	0.2648
374.5333	0.2657
374.7409	0.2698
374.9485	0.2718
375.1561	0.2779
375.3637	0.266
375.5713	0.2764
375.7789	0.2709
375.9864	0.2728
376.194	0.2917
376.4015	0.2707
376.609	0.2771
376.8165	0.2878
377.024	0.277
377.2315	0.2834
377.4389	0.2768
377.6464	0.2915
377.8538	0.2858
378.0612	0.2808
378.2686	0.2806
378.476	0.2898
378.6834	0.2885
378.8908	0.2959
379.0981	0.2946
379.3055	0.2917
379.5128	0.294
379.7201	0.2801
379.9274	0.2895
380.1347	0.296
380.342	0.2973
380.5492	0.2914
380.7565	0.2834
380.9637	0.3082
381.1709	0.2954
381.3781	0.309
381.5853	0.301
381.7925	0.303
381.9997	0.306
382.2068	0.3054
382.4139	0.3003
382.6211	0.304
382.8282	0.3009
383.0353	0.3056
383.2424	0.3044
383.4494	0.3012
383.6565	0.3016
383.8635	0.2933
384.0706	0.3102
384.2776	0.3066
384.4846	0.318
384.6916	0.3052
384.8986	0.3111
385.1055	0.3148
385.3125	0.3082
385.5194	0.3136
385.7263	0.3057
385.9333	0.318
386.1402	0.3124
386.347	0.2978
386.5539	0.3098
386.7608	0.3099
386.9676	0.3165
387.1744	0.306
387.3813	0.3036
387.5881	0.2992
387.7948	0.3108
388.0016	0.3181
388.2084	0.3116
388.4151	0.3118
388.6219	0.3088
388.8286	0.3088
389.0353	0.307
389.242	0.3083
389.4487	0.3068
389.6553	0.3004
389.862	0.2993
390.0686	0.3079
390.2753	0.3029
390.4819	0.3049
390.6885	0.304
390.8951	0.2998
391.1016	0.3037
391.3082	0.3037
391.5147	0.2923
391.7213	0.2989
391.9278	0.2898
392.1343	0.2995
392.3408	0.2937
392.5473	0.2853
392.7537	0.2862
392.9602	0.2866
393.1666	0.2931
393.373	0.279
393.5794	0.2797
393.7858	0.2824
393.9922	0.2861
394.1986	0.2788
394.4049	0.2828
394.6113	0.2821
394.8176	0.2739
395.0239	0.277
395.2302	0.2799
395.4365	0.2795
395.6428	0.2711
395.8491	0.2799
396.0553	0.2701
396.2615	0.2754
396.4678	0.2786
396.674	0.2662
396.8802	0.2714
397.0863	0.27
397.2925	0.2685
397.4987	0.2657
397.7048	0.2692
397.9109	0.2608
398.117	0.2608
398.3231	0.2623
398.5292	0.2536
398.7353	0.2691
398.9413	0.2628
399.1474	0.2656
399.3534	0.2683
399.5594	0.2671
399.7654	0.2576
399.9714	0.2752
400.1774	0.2626
400.3833	0.2664
400.5893	0.2589
400.7952	0.2607
401.0011	0.2647
401.207	0.2655
401.4129	0.2671
401.6188	0.2547
401.8247	0.2695
402.0305	0.2648
402.2364	0.2558
402.4422	0.2619
402.648	0.2718
402.8538	0.2696
403.0596	0.2639
403.2654	0.2633
403.4711	0.2621
403.6768	0.2627
403.8826	0.2657
404.0883	0.26
404.294	0.2585
404.4997	0.2578
404.7054	0.2662
404.911	0.2582
405.1167	0.2677
405.3223	0.255
405.5279	0.2594
405.7335	0.2681
405.9391	0.2586
406.1447	0.2665
406.3502	0.2601
406.5558	0.2563
406.7613	0.2633
406.9668	0.2623
407.1724	0.2662
407.3778	0.2659
407.5833	0.2635
407.7888	0.2606
407.9942	0.2609
408.1997	0.2652
408.4051	0.2611
408.6105	0.2658
408.8159	0.2606
409.0213	0.2636
409.2267	0.2635
409.432	0.2627
409.6374	0.264
409.8427	0.2668
410.048	0.2641
410.2533	0.2664
410.4586	0.2569
410.6639	0.2662
410.8691	0.2509
411.0744	0.264
411.2796	0.2723
411.4848	0.2646
411.69	0.2532
411.8952	0.2553
412.1004	0.2661
412.3056	0.2545
412.5107	0.2674
412.7158	0.266
412.921	0.2608
413.1261	0.2597
413.3312	0.2585
413.5362	0.2769
413.7413	0.2653
413.9464	0.2527
414.1514	0.2673
414.3564	0.2547
414.5614	0.2589
414.7664	0.2548
414.9714	0.2617
415.1764	0.2593
415.3813	0.25
415.5863	0.2641
415.7912	0.2639
415.9961	0.2556
416.201	0.2652
416.4059	0.2545
416.6108	0.2595
416.8156	0.2526
417.0205	0.2449
417.2253	0.2653
417.4301	0.2557
417.6349	0.2626
417.8397	0.2464
418.0445	0.2558
418.2492	0.2489
418.454	0.2483
418.6587	0.2493
418.8634	0.2594
419.0681	0.2567
419.2728	0.2453
419.4775	0.2572
419.6822	0.2421
419.8868	0.2568
420.0915	0.246
420.2961	0.2489
420.5007	0.2523
420.7053	0.232
420.9099	0.2524
421.1144	0.2399
421.319	0.2333
421.5235	0.2418
421.728	0.24
421.9325	0.2407
422.137	0.242
422.3415	0.2368
422.546	0.2371
422.7504	0.2361
422.9549	0.2444
423.1593	0.2317
423.3637	0.2373
423.5681	0.2337
423.7725	0.2297
423.9769	0.2458
424.1812	0.2197
424.3856	0.2365
424.5899	0.228
424.7942	0.23
424.9985	0.2249
425.2028	0.2254
425.4071	0.2254
425.6113	0.2245
425.8156	0.2224
426.0198	0.2184
426.224	0.2267
426.4282	0.2191
426.6324	0.2269
426.8366	0.2129
427.0407	0.215
