Data from D4ACN5uM460nmA_Absorbance_13-05-41-214.txt Node
Date: Fri Feb 21 13:05:41 GMT 2025
User: LASERRRRR
Spectrometer: FLMT03099
Trigger mode: 0
Integration Time (sec): 1.500000E-2
Scans to average: 1
Electric dark correction enabled: true
Nonlinearity correction enabled: false
Boxcar width: 0
XAxis mode: Wavelengths
Number of Pixels in Spectrum: 3648
>>>>>Begin Spectral Data<<<<<
179.3399	0.5973
179.5586	0.5973
179.7771	0.5973
179.9957	0.0719
180.2143	-1.8129
180.4329	2.5172
180.6514	-0.6259
180.8699	-0
181.0885	-0.2209
181.307	0.0456
181.5255	0.1866
181.744	-0
181.9625	0.224
182.181	-0.1994
182.3994	-0.5765
182.6179	-0.5044
182.8363	-0
183.0547	1.4457
183.2732	0.0947
183.4916	0.2064
183.71	0.2539
183.9284	0.163
184.1467	-0.0076
184.3651	0.144
184.5835	0.3437
184.8018	0.2641
185.0201	0.3632
185.2385	0.121
185.4568	0.2629
185.6751	0.1062
185.8934	0.201
186.1117	0.3354
186.3299	0.2045
186.5482	0.1888
186.7664	0.2756
186.9847	-0.0816
187.2029	0.7119
187.4211	0.1003
187.6393	0.1913
187.8575	0.7065
188.0757	0.6165
188.2939	0.0306
188.512	0.3596
188.7302	0.3036
188.9483	-0
189.1665	0.5196
189.3846	0.5098
189.6027	0.2175
189.8208	0.2545
190.0389	0.2709
190.257	0.124
190.475	0.1827
190.6931	0.1856
190.9111	0.1963
191.1292	0.1838
191.3472	0.1593
191.5652	0.1887
191.7832	0.2244
192.0012	0.1822
192.2192	0.067
192.4371	0.1708
192.6551	0.2483
192.873	0.1209
193.091	0.1416
193.3089	0.1773
193.5268	0.3186
193.7447	0.1497
193.9626	0.1599
194.1805	0.2648
194.3984	0.1933
194.6162	0.2482
194.8341	0.2687
195.0519	0.2252
195.2697	0.2668
195.4875	0.2916
195.7054	0.2441
195.9231	0.2699
196.1409	0.2905
196.3587	0.3138
196.5765	0.3299
196.7942	0.3459
197.012	0.2968
197.2297	0.3082
197.4474	0.4101
197.6651	0.2996
197.8828	0.3985
198.1005	0.3624
198.3182	0.3545
198.5358	0.3968
198.7535	0.3781
198.9711	0.3996
199.1888	0.3625
199.4064	0.3938
199.624	0.3967
199.8416	0.3713
200.0592	0.3823
200.2767	0.3643
200.4943	0.3692
200.7119	0.3841
200.9294	0.3891
201.1469	0.4068
201.3645	0.4387
201.582	0.3881
201.7995	0.4312
202.017	0.3947
202.2344	0.4243
202.4519	0.4677
202.6694	0.3987
202.8868	0.3547
203.1042	0.4319
203.3217	0.3927
203.5391	0.3912
203.7565	0.3662
203.9739	0.3994
204.1913	0.4141
204.4086	0.3287
204.626	0.3647
204.8433	0.35
205.0607	0.3482
205.278	0.3356
205.4953	0.344
205.7126	0.3496
205.9299	0.3271
206.1472	0.3408
206.3644	0.3353
206.5817	0.3208
206.7989	0.3487
207.0162	0.3438
207.2334	0.3176
207.4506	0.3295
207.6678	0.3156
207.885	0.2999
208.1022	0.3109
208.3194	0.2992
208.5365	0.3189
208.7537	0.306
208.9708	0.3086
209.1879	0.2847
209.405	0.2841
209.6222	0.2893
209.8392	0.3244
210.0563	0.2792
210.2734	0.2666
210.4905	0.2858
210.7075	0.2722
210.9245	0.2801
211.1416	0.2741
211.3586	0.2679
211.5756	0.2649
211.7926	0.2897
212.0096	0.2739
212.2265	0.2729
212.4435	0.2514
212.6604	0.259
212.8774	0.2434
213.0943	0.2821
213.3112	0.2373
213.5281	0.2525
213.745	0.2383
213.9619	0.2515
214.1788	0.2751
214.3956	0.2469
214.6125	0.2534
214.8293	0.2664
215.0461	0.2395
215.2629	0.2633
215.4798	0.2519
215.6965	0.2488
215.9133	0.2503
216.1301	0.2529
216.3469	0.2555
216.5636	0.2616
216.7803	0.2506
216.9971	0.2569
217.2138	0.2702
217.4305	0.2586
217.6472	0.2447
217.8639	0.2661
218.0805	0.2564
218.2972	0.2403
218.5138	0.2585
218.7305	0.2542
218.9471	0.2428
219.1637	0.2765
219.3803	0.2638
219.5969	0.2656
219.8135	0.2659
220.0301	0.2701
220.2466	0.2588
220.4632	0.2635
220.6797	0.2582
220.8962	0.2607
221.1127	0.2772
221.3292	0.2825
221.5457	0.2781
221.7622	0.2658
221.9787	0.2837
222.1951	0.2894
222.4116	0.2754
222.628	0.291
222.8444	0.288
223.0608	0.2815
223.2772	0.2822
223.4936	0.2895
223.71	0.2833
223.9264	0.2891
224.1427	0.2889
224.3591	0.2854
224.5754	0.2974
224.7917	0.2934
225.008	0.2956
225.2243	0.3086
225.4406	0.3039
225.6569	0.3104
225.8732	0.3123
226.0894	0.3153
226.3057	0.3179
226.5219	0.3195
226.7381	0.3288
226.9543	0.3163
227.1705	0.3264
227.3867	0.337
227.6029	0.327
227.8191	0.3397
228.0352	0.3429
228.2513	0.35
228.4675	0.3384
228.6836	0.3505
228.8997	0.3439
229.1158	0.3589
229.3319	0.3623
229.548	0.353
229.764	0.3611
229.9801	0.3758
230.1961	0.3763
230.4121	0.3632
230.6282	0.3854
230.8442	0.4012
231.0602	0.3817
231.2761	0.3931
231.4921	0.3917
231.7081	0.4057
231.924	0.4063
232.14	0.3945
232.3559	0.4093
232.5718	0.4113
232.7877	0.401
233.0036	0.4171
233.2195	0.4118
233.4353	0.4147
233.6512	0.4075
233.867	0.4321
234.0829	0.4182
234.2987	0.4321
234.5145	0.4375
234.7303	0.4261
234.9461	0.4442
235.1619	0.4389
235.3776	0.4356
235.5934	0.4414
235.8091	0.4353
236.0249	0.4432
236.2406	0.4384
236.4563	0.4462
236.672	0.4377
236.8877	0.4511
237.1034	0.459
237.319	0.443
237.5347	0.4449
237.7503	0.4442
237.966	0.4634
238.1816	0.4544
238.3972	0.4613
238.6128	0.4777
238.8284	0.4605
239.0439	0.4622
239.2595	0.462
239.475	0.4607
239.6906	0.4575
239.9061	0.4611
240.1216	0.46
240.3371	0.4584
240.5526	0.4491
240.7681	0.4621
240.9836	0.459
241.199	0.4541
241.4145	0.4512
241.6299	0.4414
241.8453	0.4362
242.0607	0.435
242.2761	0.4302
242.4915	0.4244
242.7069	0.4264
242.9223	0.4251
243.1376	0.4023
243.353	0.3994
243.5683	0.3827
243.7836	0.385
243.9989	0.3714
244.2142	0.3677
244.4295	0.3646
244.6448	0.3668
244.86	0.3476
245.0753	0.3455
245.2905	0.3324
245.5057	0.3312
245.721	0.3342
245.9362	0.3206
246.1514	0.3145
246.3665	0.299
246.5817	0.2965
246.7969	0.2996
247.012	0.2953
247.2271	0.292
247.4423	0.2786
247.6574	0.278
247.8725	0.2662
248.0876	0.2608
248.3026	0.2687
248.5177	0.2554
248.7328	0.244
248.9478	0.2473
249.1628	0.2488
249.3779	0.244
249.5929	0.2332
249.8079	0.2371
250.0228	0.232
250.2378	0.2312
250.4528	0.2295
250.6677	0.2241
250.8827	0.2167
251.0976	0.22
251.3125	0.2132
251.5274	0.2089
251.7423	0.2016
251.9572	0.2085
252.172	0.2031
252.3869	0.2068
252.6017	0.2045
252.8166	0.1965
253.0314	0.1967
253.2462	0.1928
253.461	0.1945
253.6758	0.1969
253.8906	0.1978
254.1053	0.1934
254.3201	0.1906
254.5348	0.1836
254.7496	0.1839
254.9643	0.1871
255.179	0.1832
255.3937	0.1916
255.6083	0.1899
255.823	0.1875
256.0377	0.1827
256.2523	0.1807
256.467	0.1833
256.6816	0.182
256.8962	0.1839
257.1108	0.1791
257.3254	0.1765
257.54	0.176
257.7545	0.1819
257.9691	0.1807
258.1836	0.1668
258.3981	0.1777
258.6127	0.173
258.8272	0.1829
259.0417	0.1788
259.2561	0.1764
259.4706	0.1765
259.6851	0.1742
259.8995	0.1697
260.114	0.1703
260.3284	0.1728
260.5428	0.174
260.7572	0.1741
260.9716	0.1865
261.186	0.177
261.4003	0.1709
261.6147	0.1758
261.829	0.1757
262.0433	0.17
262.2577	0.1776
262.472	0.175
262.6863	0.1769
262.9005	0.1758
263.1148	0.1722
263.3291	0.1783
263.5433	0.1791
263.7576	0.1806
263.9718	0.1747
264.186	0.1794
264.4002	0.1769
264.6144	0.185
264.8286	0.1816
265.0427	0.1774
265.2569	0.1755
265.471	0.18
265.6851	0.1808
265.8993	0.1728
266.1134	0.1748
266.3275	0.1804
266.5415	0.1743
266.7556	0.1808
266.9697	0.1794
267.1837	0.1749
267.3978	0.1799
267.6118	0.1767
267.8258	0.1782
268.0398	0.1735
268.2538	0.1775
268.4677	0.1718
268.6817	0.1707
268.8957	0.1737
269.1096	0.1669
269.3235	0.1723
269.5374	0.1702
269.7514	0.1713
269.9652	0.1689
270.1791	0.1687
270.393	0.1664
270.6068	0.1688
270.8207	0.1685
271.0345	0.1668
271.2483	0.1626
271.4622	0.1666
271.676	0.1632
271.8897	0.1666
272.1035	0.1675
272.3173	0.165
272.531	0.1662
272.7448	0.1585
272.9585	0.1653
273.1722	0.1659
273.3859	0.1625
273.5996	0.1684
273.8133	0.169
274.0269	0.1652
274.2406	0.172
274.4542	0.1659
274.6679	0.1712
274.8815	0.1707
275.0951	0.1773
275.3087	0.1685
275.5223	0.1689
275.7358	0.1693
275.9494	0.1716
276.1629	0.1723
276.3765	0.1689
276.59	0.1672
276.8035	0.1686
277.017	0.1755
277.2305	0.1693
277.444	0.1729
277.6574	0.1707
277.8709	0.1739
278.0843	0.1686
278.2978	0.1722
278.5112	0.1739
278.7246	0.1756
278.938	0.1769
279.1513	0.1761
279.3647	0.1758
279.5781	0.1689
279.7914	0.1711
280.0047	0.1761
280.2181	0.1709
280.4314	0.172
280.6447	0.1826
280.8579	0.1726
281.0712	0.1741
281.2845	0.1759
281.4977	0.1789
281.711	0.1748
281.9242	0.1828
282.1374	0.1708
282.3506	0.182
282.5638	0.1768
282.7769	0.1762
282.9901	0.175
283.2033	0.1768
283.4164	0.1814
283.6295	0.1777
283.8426	0.1798
284.0557	0.1843
284.2688	0.1833
284.4819	0.1753
284.695	0.1845
284.908	0.1793
285.1211	0.1886
285.3341	0.1806
285.5471	0.1869
285.7601	0.1863
285.9731	0.1829
286.1861	0.1897
286.3991	0.1913
286.612	0.1795
286.825	0.1895
287.0379	0.1878
287.2508	0.1805
287.4637	0.1927
287.6766	0.19
287.8895	0.1851
288.1024	0.1876
288.3152	0.1906
288.5281	0.1815
288.7409	0.1938
288.9538	0.1882
289.1666	0.1882
289.3794	0.1905
289.5922	0.1902
289.8049	0.1886
290.0177	0.1895
290.2304	0.1889
290.4432	0.1943
290.6559	0.1919
290.8686	0.1917
291.0813	0.1903
291.294	0.1904
291.5067	0.1929
291.7194	0.1934
291.932	0.1915
292.1447	0.1977
292.3573	0.1958
292.5699	0.1962
292.7825	0.1969
292.9951	0.1956
293.2077	0.1947
293.4203	0.1913
293.6328	0.1872
293.8454	0.1955
294.0579	0.1966
294.2704	0.2009
294.4829	0.1917
294.6954	0.1948
294.9079	0.1944
295.1204	0.1872
295.3328	0.1992
295.5453	0.2005
295.7577	0.191
295.9701	0.1931
296.1825	0.1948
296.3949	0.1905
296.6073	0.1918
296.8197	0.1957
297.0321	0.1952
297.2444	0.1846
297.4567	0.1962
297.6691	0.1899
297.8814	0.1958
298.0937	0.1931
298.306	0.1926
298.5182	0.1954
298.7305	0.1952
298.9428	0.1934
299.155	0.1841
299.3672	0.1904
299.5794	0.1941
299.7916	0.1943
300.0038	0.1925
300.216	0.191
300.4282	0.1939
300.6403	0.1945
300.8525	0.1897
301.0646	0.1966
301.2767	0.1907
301.4888	0.1922
301.7009	0.1927
301.913	0.1948
302.125	0.1913
302.3371	0.1946
302.5491	0.1988
302.7612	0.2022
302.9732	0.1988
303.1852	0.1926
303.3972	0.1931
303.6092	0.1883
303.8211	0.1942
304.0331	0.1941
304.245	0.1878
304.457	0.1921
304.6689	0.1932
304.8808	0.1867
305.0927	0.1913
305.3046	0.1868
305.5164	0.1834
305.7283	0.182
305.9401	0.182
306.152	0.1826
306.3638	0.1809
306.5756	0.1765
306.7874	0.1769
306.9992	0.1718
307.2109	0.1724
307.4227	0.1732
307.6344	0.1755
307.8462	0.1694
308.0579	0.1685
308.2696	0.1674
308.4813	0.1699
308.693	0.1608
308.9046	0.1651
309.1163	0.1557
309.328	0.1642
309.5396	0.1531
309.7512	0.153
309.9628	0.1509
310.1744	0.1492
310.386	0.1502
310.5976	0.1433
310.8091	0.1472
311.0207	0.1468
311.2322	0.14
311.4437	0.1434
311.6552	0.1386
311.8667	0.1444
312.0782	0.1427
312.2897	0.1418
312.5012	0.1356
312.7126	0.13
312.924	0.1391
313.1355	0.1336
313.3469	0.134
313.5583	0.1323
313.7696	0.1253
313.981	0.1364
314.1924	0.128
314.4037	0.1254
314.6151	0.131
314.8264	0.1327
315.0377	0.1256
315.249	0.1248
315.4603	0.124
315.6716	0.1221
315.8828	0.1281
316.0941	0.1259
316.3053	0.1224
316.5165	0.1256
316.7277	0.1213
316.9389	0.1236
317.1501	0.1195
317.3613	0.1179
317.5724	0.1224
317.7836	0.1176
317.9947	0.1172
318.2058	0.1145
318.417	0.1174
318.6281	0.1185
318.8391	0.1236
319.0502	0.1196
319.2613	0.1228
319.4723	0.1155
319.6834	0.1203
319.8944	0.1166
320.1054	0.1173
320.3164	0.1144
320.5274	0.1156
320.7383	0.1217
320.9493	0.1147
321.1602	0.1144
321.3712	0.1168
321.5821	0.1171
321.793	0.1242
322.0039	0.1178
322.2148	0.121
322.4257	0.1193
322.6365	0.1178
322.8474	0.1216
323.0582	0.1203
323.269	0.1255
323.4798	0.1216
323.6906	0.1181
323.9014	0.1203
324.1122	0.1233
324.3229	0.1246
324.5337	0.1243
324.7444	0.1248
324.9551	0.1182
325.1658	0.1192
325.3765	0.128
325.5872	0.1222
325.7979	0.1224
326.0085	0.1179
326.2192	0.1207
326.4298	0.1307
326.6404	0.1303
326.851	0.1178
327.0616	0.1174
327.2722	0.1277
327.4828	0.1218
327.6933	0.1244
327.9039	0.1224
328.1144	0.1297
328.3249	0.1333
328.5354	0.1216
328.7459	0.1246
328.9564	0.1222
329.1669	0.123
329.3773	0.1226
329.5878	0.1247
329.7982	0.1263
330.0086	0.1236
330.219	0.1215
330.4294	0.1275
330.6398	0.1345
330.8502	0.1252
331.0605	0.1275
331.2708	0.1289
331.4812	0.1275
331.6915	0.1256
331.9018	0.1257
332.1121	0.1332
332.3224	0.1263
332.5326	0.1252
332.7429	0.126
332.9531	0.1307
333.1633	0.1287
333.3735	0.1278
333.5837	0.1281
333.7939	0.1377
334.0041	0.1332
334.2143	0.1252
334.4244	0.1359
334.6346	0.1308
334.8447	0.1283
335.0548	0.1324
335.2649	0.1367
335.475	0.1284
335.685	0.13
335.8951	0.1369
336.1051	0.1335
336.3152	0.1319
336.5252	0.1325
336.7352	0.1327
336.9452	0.1349
337.1552	0.1342
337.3652	0.1347
337.5751	0.1291
337.7851	0.1354
337.995	0.1351
338.2049	0.1344
338.4148	0.1345
338.6247	0.1376
338.8346	0.1387
339.0445	0.1392
339.2543	0.1358
339.4642	0.1352
339.674	0.1293
339.8838	0.1345
340.0936	0.1348
340.3034	0.134
340.5132	0.1356
340.7229	0.1414
340.9327	0.1471
341.1424	0.1367
341.3522	0.1354
341.5619	0.1409
341.7716	0.1377
341.9813	0.1431
342.1909	0.1511
342.4006	0.1472
342.6102	0.1429
342.8199	0.1479
343.0295	0.137
343.2391	0.1431
343.4487	0.1484
343.6583	0.1531
343.8679	0.1461
344.0774	0.147
344.287	0.1513
344.4965	0.149
344.706	0.1575
344.9155	0.1465
345.125	0.1514
345.3345	0.1624
345.544	0.1534
345.7534	0.1555
345.9629	0.1602
346.1723	0.1556
346.3817	0.1507
346.5911	0.1564
346.8005	0.1596
347.0099	0.1615
347.2193	0.163
347.4286	0.164
347.638	0.1575
347.8473	0.1548
348.0566	0.1621
348.2659	0.1606
348.4752	0.1605
348.6845	0.1676
348.8937	0.164
349.103	0.1605
349.3122	0.1659
349.5214	0.1643
349.7306	0.1666
349.9398	0.1729
350.149	0.1644
350.3582	0.1681
350.5674	0.1671
350.7765	0.1749
350.9856	0.1732
351.1948	0.1693
351.4039	0.1695
351.613	0.1708
351.822	0.1768
352.0311	0.1703
352.2402	0.1777
352.4492	0.1679
352.6582	0.1856
352.8672	0.1751
353.0762	0.1789
353.2852	0.1793
353.4942	0.1846
353.7032	0.1761
353.9121	0.179
354.1211	0.1881
354.33	0.1828
354.5389	0.1811
354.7478	0.1789
354.9567	0.1769
355.1655	0.1814
355.3744	0.1822
355.5833	0.1828
355.7921	0.1923
356.0009	0.1835
356.2097	0.1758
356.4185	0.1848
356.6273	0.1848
356.8361	0.1946
357.0448	0.1927
357.2536	0.1906
357.4623	0.1941
357.671	0.1878
357.8797	0.1951
358.0884	0.188
358.2971	0.1953
358.5057	0.1896
358.7144	0.1978
358.923	0.1982
359.1316	0.1979
359.3402	0.1998
359.5488	0.1974
359.7574	0.2012
359.966	0.2032
360.1746	0.2021
360.3831	0.203
360.5916	0.2033
360.8002	0.2101
361.0087	0.2047
361.2172	0.2132
361.4256	0.2092
361.6341	0.2132
361.8426	0.2181
362.051	0.207
362.2594	0.2185
362.4678	0.215
362.6762	0.2193
362.8846	0.2174
363.093	0.2222
363.3014	0.2264
363.5097	0.2185
363.718	0.2192
363.9264	0.2213
364.1347	0.2219
364.343	0.2236
364.5513	0.2297
364.7595	0.2327
364.9678	0.2273
365.176	0.2334
365.3842	0.2451
365.5925	0.2363
365.8007	0.2336
366.0089	0.2385
366.217	0.2334
366.4252	0.2296
366.6333	0.2425
366.8415	0.2433
367.0496	0.2361
367.2577	0.249
367.4658	0.2411
367.6739	0.2478
367.882	0.2512
368.09	0.2461
368.2981	0.2447
368.5061	0.2502
368.7141	0.2426
368.9221	0.2568
369.1301	0.2527
369.3381	0.2531
369.5461	0.2594
369.754	0.249
369.962	0.2508
370.1699	0.2515
370.3778	0.2636
370.5857	0.2557
370.7936	0.2568
371.0015	0.2529
371.2093	0.2593
371.4172	0.2585
371.625	0.2624
371.8328	0.2578
372.0406	0.2742
372.2484	0.2581
372.4562	0.2591
372.664	0.2747
372.8717	0.2713
373.0795	0.2715
373.2872	0.2757
373.4949	0.2745
373.7026	0.2624
373.9103	0.274
374.118	0.2754
374.3256	0.2798
374.5333	0.2653
374.7409	0.2808
374.9485	0.2745
375.1561	0.2759
375.3637	0.2815
375.5713	0.2793
375.7789	0.2773
375.9864	0.28
376.194	0.2871
376.4015	0.284
376.609	0.2869
376.8165	0.2788
377.024	0.2734
377.2315	0.2826
377.4389	0.2827
377.6464	0.2963
377.8538	0.2882
378.0612	0.2933
378.2686	0.289
378.476	0.2986
378.6834	0.2894
378.8908	0.2993
379.0981	0.29
379.3055	0.2946
379.5128	0.2851
379.7201	0.2975
379.9274	0.2944
380.1347	0.2999
380.342	0.3092
380.5492	0.3
380.7565	0.3047
380.9637	0.2997
381.1709	0.2992
381.3781	0.3082
381.5853	0.2932
381.7925	0.2947
381.9997	0.3055
382.2068	0.2946
382.4139	0.3011
382.6211	0.3114
382.8282	0.3094
383.0353	0.3111
383.2424	0.3043
383.4494	0.2976
383.6565	0.3196
383.8635	0.3058
384.0706	0.3187
384.2776	0.3192
384.4846	0.3122
384.6916	0.3104
384.8986	0.3206
385.1055	0.3169
385.3125	0.3125
385.5194	0.3198
385.7263	0.3146
385.9333	0.3114
386.1402	0.3112
386.347	0.3106
386.5539	0.3137
386.7608	0.3182
386.9676	0.3174
387.1744	0.3052
387.3813	0.3178
387.5881	0.2993
387.7948	0.3128
388.0016	0.3149
388.2084	0.3044
388.4151	0.3116
388.6219	0.306
388.8286	0.3078
389.0353	0.3153
389.242	0.3138
389.4487	0.3022
389.6553	0.306
389.862	0.2987
390.0686	0.3111
390.2753	0.3088
390.4819	0.3109
390.6885	0.3024
390.8951	0.3073
391.1016	0.3008
391.3082	0.3012
391.5147	0.2928
391.7213	0.2986
391.9278	0.291
392.1343	0.2961
392.3408	0.2979
392.5473	0.2924
392.7537	0.2895
392.9602	0.2872
393.1666	0.2921
393.373	0.2836
393.5794	0.291
393.7858	0.2913
393.9922	0.2859
394.1986	0.2895
394.4049	0.2914
394.6113	0.2867
394.8176	0.2844
395.0239	0.2833
395.2302	0.271
395.4365	0.2878
395.6428	0.2737
395.8491	0.2807
396.0553	0.2725
396.2615	0.281
396.4678	0.2761
396.674	0.2695
396.8802	0.273
397.0863	0.2655
397.2925	0.2643
397.4987	0.2741
397.7048	0.276
397.9109	0.2671
398.117	0.2747
398.3231	0.2694
398.5292	0.2562
398.7353	0.2684
398.9413	0.2688
399.1474	0.2615
399.3534	0.2745
399.5594	0.2678
399.7654	0.2681
399.9714	0.2655
400.1774	0.2704
400.3833	0.2589
400.5893	0.263
400.7952	0.2733
401.0011	0.2675
401.207	0.26
401.4129	0.2677
401.6188	0.2659
401.8247	0.2784
402.0305	0.2489
402.2364	0.2665
402.4422	0.2669
402.648	0.2648
402.8538	0.263
403.0596	0.2599
403.2654	0.2658
403.4711	0.2615
403.6768	0.2609
403.8826	0.2678
404.0883	0.2662
404.294	0.258
404.4997	0.2649
404.7054	0.2694
404.911	0.2625
405.1167	0.2559
405.3223	0.264
405.5279	0.2675
405.7335	0.2604
405.9391	0.265
406.1447	0.2709
406.3502	0.2568
406.5558	0.2672
406.7613	0.2589
406.9668	0.2637
407.1724	0.2621
407.3778	0.2662
407.5833	0.2533
407.7888	0.2627
407.9942	0.2657
408.1997	0.2619
408.4051	0.2593
408.6105	0.2739
408.8159	0.2535
409.0213	0.2757
409.2267	0.2714
409.432	0.2618
409.6374	0.2653
409.8427	0.2767
410.048	0.262
410.2533	0.2639
410.4586	0.2551
410.6639	0.2647
410.8691	0.2581
411.0744	0.2716
411.2796	0.268
411.4848	0.2671
411.69	0.2569
411.8952	0.2623
412.1004	0.2631
412.3056	0.2547
412.5107	0.262
412.7158	0.2763
412.921	0.274
413.1261	0.2568
413.3312	0.2674
413.5362	0.2784
413.7413	0.2579
413.9464	0.267
414.1514	0.2518
414.3564	0.2528
414.5614	0.2635
414.7664	0.2616
414.9714	0.2575
415.1764	0.2544
415.3813	0.2584
415.5863	0.26
415.7912	0.2475
415.9961	0.2635
416.201	0.2652
416.4059	0.2605
416.6108	0.2574
416.8156	0.2488
417.0205	0.2538
417.2253	0.2543
417.4301	0.2576
417.6349	0.2607
417.8397	0.2508
418.0445	0.2619
418.2492	0.253
418.454	0.2553
418.6587	0.255
418.8634	0.2585
419.0681	0.2541
419.2728	0.249
419.4775	0.263
419.6822	0.2474
419.8868	0.2522
420.0915	0.2448
420.2961	0.2353
420.5007	0.2503
420.7053	0.243
420.9099	0.246
421.1144	0.2412
421.319	0.2491
421.5235	0.2391
421.728	0.2479
421.9325	0.2451
422.137	0.2474
422.3415	0.2363
422.546	0.2293
422.7504	0.2299
422.9549	0.2445
423.1593	0.2361
423.3637	0.2336
423.5681	0.2462
423.7725	0.2256
423.9769	0.2292
424.1812	0.2343
424.3856	0.2247
424.5899	0.2316
424.7942	0.2317
424.9985	0.2287
425.2028	0.2365
425.4071	0.2279
425.6113	0.2256
425.8156	0.2297
426.0198	0.2181
426.224	0.2205
426.4282	0.2272
426.6324	0.2147
426.8366	0.2198
