Data from D4ACN5uM460nmA_Absorbance_13-05-42-875.txt Node
Date: Fri Feb 21 13:05:42 GMT 2025
User: LASERRRRR
Spectrometer: FLMT03099
Trigger mode: 0
Integration Time (sec): 1.500000E-2
Scans to average: 1
Electric dark correction enabled: true
Nonlinearity correction enabled: false
Boxcar width: 0
XAxis mode: Wavelengths
Number of Pixels in Spectrum: 3648
>>>>>Begin Spectral Data<<<<<
179.3399	-0.5825
179.5586	-0.5825
179.7771	-0.5825
179.9957	0.0231
180.2143	-1.5128
180.4329	0.0763
180.6514	-0
180.8699	-0
181.0885	-0
181.307	-0.0201
181.5255	-0.0284
181.744	-0
181.9625	0.2122
182.181	-0.4187
182.3994	-0.2976
182.6179	-0.4575
182.8363	1.0331
183.0547	0.5629
183.2732	0.3113
183.4916	0.1226
183.71	0.2001
183.9284	-0.0438
184.1467	0.1709
184.3651	-0.0385
184.5835	0.314
184.8018	0.2116
185.0201	0.1686
185.2385	0.1288
185.4568	0.1301
185.6751	0.052
185.8934	0.0282
186.1117	-0.2115
186.3299	0.2137
186.5482	0.2225
186.7664	0.2159
186.9847	0.0317
187.2029	0.3983
187.4211	0.0648
187.6393	0.0599
187.8575	0.0844
188.0757	0.3534
188.2939	0.2661
188.512	0.2275
188.7302	0.3315
188.9483	0.3504
189.1665	0.5699
189.3846	0.2689
189.6027	0.0561
189.8208	0.0901
190.0389	0.1694
190.257	0.0458
190.475	0.2254
190.6931	0.1122
190.9111	0.0808
191.1292	0.2379
191.3472	0.198
191.5652	0.1987
191.7832	0.0139
192.0012	0.1653
192.2192	0.1663
192.4371	0.0719
192.6551	0.1254
192.873	0.0247
193.091	0.2211
193.3089	0.274
193.5268	0.3117
193.7447	0.1325
193.9626	0.2918
194.1805	0.2304
194.3984	0.1932
194.6162	0.211
194.8341	0.224
195.0519	0.2214
195.2697	0.1817
195.4875	0.2699
195.7054	0.2722
195.9231	0.1934
196.1409	0.3583
196.3587	0.2944
196.5765	0.3577
196.7942	0.2877
197.012	0.3215
197.2297	0.2962
197.4474	0.3636
197.6651	0.3021
197.8828	0.3588
198.1005	0.4031
198.3182	0.3719
198.5358	0.3827
198.7535	0.3619
198.9711	0.3606
199.1888	0.3116
199.4064	0.396
199.624	0.4109
199.8416	0.343
200.0592	0.3763
200.2767	0.3876
200.4943	0.4139
200.7119	0.3701
200.9294	0.3881
201.1469	0.3993
201.3645	0.4436
201.582	0.3981
201.7995	0.4763
202.017	0.4212
202.2344	0.4234
202.4519	0.4007
202.6694	0.442
202.8868	0.4138
203.1042	0.4148
203.3217	0.3523
203.5391	0.3898
203.7565	0.4041
203.9739	0.4087
204.1913	0.3984
204.4086	0.3186
204.626	0.3478
204.8433	0.3489
205.0607	0.3493
205.278	0.3309
205.4953	0.3205
205.7126	0.3598
205.9299	0.3311
206.1472	0.3171
206.3644	0.3482
206.5817	0.3401
206.7989	0.3418
207.0162	0.3284
207.2334	0.3278
207.4506	0.2921
207.6678	0.3095
207.885	0.3057
208.1022	0.2972
208.3194	0.298
208.5365	0.2939
208.7537	0.3076
208.9708	0.303
209.1879	0.2862
209.405	0.2815
209.6222	0.2812
209.8392	0.312
210.0563	0.2813
210.2734	0.2514
210.4905	0.2814
210.7075	0.2756
210.9245	0.2719
211.1416	0.2747
211.3586	0.2655
211.5756	0.2567
211.7926	0.2612
212.0096	0.2751
212.2265	0.2656
212.4435	0.2672
212.6604	0.2486
212.8774	0.2478
213.0943	0.2427
213.3112	0.2616
213.5281	0.2348
213.745	0.2278
213.9619	0.2375
214.1788	0.263
214.3956	0.2524
214.6125	0.2286
214.8293	0.2617
215.0461	0.2387
215.2629	0.2517
215.4798	0.2675
215.6965	0.2376
215.9133	0.2378
216.1301	0.2342
216.3469	0.249
216.5636	0.2455
216.7803	0.2483
216.9971	0.2444
217.2138	0.241
217.4305	0.2565
217.6472	0.257
217.8639	0.2628
218.0805	0.2705
218.2972	0.2497
218.5138	0.2685
218.7305	0.2572
218.9471	0.2511
219.1637	0.2622
219.3803	0.2543
219.5969	0.2648
219.8135	0.275
220.0301	0.2531
220.2466	0.2516
220.4632	0.2543
220.6797	0.2812
220.8962	0.2627
221.1127	0.2746
221.3292	0.281
221.5457	0.267
221.7622	0.2729
221.9787	0.2838
222.1951	0.2734
222.4116	0.2766
222.628	0.2902
222.8444	0.2729
223.0608	0.2806
223.2772	0.281
223.4936	0.2756
223.71	0.2929
223.9264	0.2933
224.1427	0.2869
224.3591	0.2803
224.5754	0.29
224.7917	0.2958
225.008	0.2822
225.2243	0.3077
225.4406	0.2981
225.6569	0.3049
225.8732	0.3199
226.0894	0.3057
226.3057	0.305
226.5219	0.3115
226.7381	0.3286
226.9543	0.3127
227.1705	0.3164
227.3867	0.3158
227.6029	0.3239
227.8191	0.3358
228.0352	0.3337
228.2513	0.3529
228.4675	0.3423
228.6836	0.3607
228.8997	0.351
229.1158	0.3445
229.3319	0.3617
229.548	0.3531
229.764	0.3661
229.9801	0.372
230.1961	0.378
230.4121	0.3719
230.6282	0.3809
230.8442	0.3937
231.0602	0.3871
231.2761	0.3836
231.4921	0.3885
231.7081	0.3852
231.924	0.404
232.14	0.402
232.3559	0.4017
232.5718	0.4087
232.7877	0.4194
233.0036	0.4062
233.2195	0.4028
233.4353	0.4158
233.6512	0.4179
233.867	0.4219
234.0829	0.4184
234.2987	0.4246
234.5145	0.4281
234.7303	0.4381
234.9461	0.4317
235.1619	0.447
235.3776	0.4433
235.5934	0.433
235.8091	0.4437
236.0249	0.4492
236.2406	0.4419
236.4563	0.4517
236.672	0.4425
236.8877	0.4555
237.1034	0.4418
237.319	0.4504
237.5347	0.4486
237.7503	0.4476
237.966	0.4707
238.1816	0.4527
238.3972	0.4609
238.6128	0.4705
238.8284	0.4747
239.0439	0.4563
239.2595	0.4668
239.475	0.4682
239.6906	0.4607
239.9061	0.4688
240.1216	0.4555
240.3371	0.4584
240.5526	0.4664
240.7681	0.463
240.9836	0.4604
241.199	0.4564
241.4145	0.4529
241.6299	0.4508
241.8453	0.4421
242.0607	0.4277
242.2761	0.4232
242.4915	0.4122
242.7069	0.4123
242.9223	0.415
243.1376	0.4001
243.353	0.4031
243.5683	0.3912
243.7836	0.3812
243.9989	0.3779
244.2142	0.3676
244.4295	0.3662
244.6448	0.3612
244.86	0.3424
245.0753	0.3448
245.2905	0.339
245.5057	0.3342
245.721	0.3336
245.9362	0.3206
246.1514	0.3191
246.3665	0.3047
246.5817	0.2978
246.7969	0.2978
247.012	0.2958
247.2271	0.2863
247.4423	0.2835
247.6574	0.279
247.8725	0.2641
248.0876	0.2657
248.3026	0.2607
248.5177	0.2553
248.7328	0.2493
248.9478	0.2455
249.1628	0.2503
249.3779	0.2421
249.5929	0.2364
249.8079	0.2386
250.0228	0.2307
250.2378	0.2273
250.4528	0.232
250.6677	0.2227
250.8827	0.2122
251.0976	0.214
251.3125	0.2182
251.5274	0.2049
251.7423	0.209
251.9572	0.2047
252.172	0.2098
252.3869	0.2073
252.6017	0.2013
252.8166	0.1923
253.0314	0.1923
253.2462	0.1902
253.461	0.1919
253.6758	0.1966
253.8906	0.1993
254.1053	0.1936
254.3201	0.1923
254.5348	0.1852
254.7496	0.1833
254.9643	0.1861
255.179	0.1866
255.3937	0.1873
255.6083	0.1951
255.823	0.1854
256.0377	0.1811
256.2523	0.1794
256.467	0.1798
256.6816	0.1815
256.8962	0.1801
257.1108	0.184
257.3254	0.1857
257.54	0.1812
257.7545	0.1823
257.9691	0.1823
258.1836	0.1752
258.3981	0.1796
258.6127	0.1773
258.8272	0.1803
259.0417	0.1774
259.2561	0.1735
259.4706	0.1746
259.6851	0.1737
259.8995	0.1796
260.114	0.1765
260.3284	0.1706
260.5428	0.172
260.7572	0.1731
260.9716	0.1815
261.186	0.1724
261.4003	0.1721
261.6147	0.1736
261.829	0.1719
262.0433	0.1769
262.2577	0.1754
262.472	0.1718
262.6863	0.1811
262.9005	0.1727
263.1148	0.1756
263.3291	0.1746
263.5433	0.1799
263.7576	0.1716
263.9718	0.1761
264.186	0.1758
264.4002	0.1782
264.6144	0.1845
264.8286	0.1782
265.0427	0.1797
265.2569	0.1783
265.471	0.179
265.6851	0.186
265.8993	0.1781
266.1134	0.1824
266.3275	0.1718
266.5415	0.1782
266.7556	0.1827
266.9697	0.1779
267.1837	0.1749
267.3978	0.1763
267.6118	0.1748
267.8258	0.1774
268.0398	0.1821
268.2538	0.1787
268.4677	0.1721
268.6817	0.1684
268.8957	0.1678
269.1096	0.173
269.3235	0.1716
269.5374	0.1784
269.7514	0.1742
269.9652	0.1724
270.1791	0.1681
270.393	0.1738
270.6068	0.1698
270.8207	0.1684
271.0345	0.1701
271.2483	0.1657
271.4622	0.1642
271.676	0.1658
271.8897	0.1691
272.1035	0.1725
272.3173	0.1715
272.531	0.1654
272.7448	0.168
272.9585	0.1677
273.1722	0.166
273.3859	0.1742
273.5996	0.1689
273.8133	0.1729
274.0269	0.164
274.2406	0.1649
274.4542	0.1703
274.6679	0.1677
274.8815	0.172
275.0951	0.1746
275.3087	0.1733
275.5223	0.1671
275.7358	0.1717
275.9494	0.1703
276.1629	0.1789
276.3765	0.1698
276.59	0.1685
276.8035	0.1655
277.017	0.1745
277.2305	0.1725
277.444	0.1804
277.6574	0.1726
277.8709	0.1798
278.0843	0.1737
278.2978	0.1777
278.5112	0.1729
278.7246	0.1773
278.938	0.1749
279.1513	0.1762
279.3647	0.1761
279.5781	0.1765
279.7914	0.1787
280.0047	0.1794
280.2181	0.1803
280.4314	0.1811
280.6447	0.1804
280.8579	0.1772
281.0712	0.1776
281.2845	0.1772
281.4977	0.1738
281.711	0.176
281.9242	0.1807
282.1374	0.1767
282.3506	0.1762
282.5638	0.1732
282.7769	0.1792
282.9901	0.1819
283.2033	0.1804
283.4164	0.1775
283.6295	0.1766
283.8426	0.1792
284.0557	0.1788
284.2688	0.185
284.4819	0.172
284.695	0.1854
284.908	0.1737
285.1211	0.1851
285.3341	0.1807
285.5471	0.1866
285.7601	0.1852
285.9731	0.181
286.1861	0.1855
286.3991	0.1875
286.612	0.1802
286.825	0.1911
287.0379	0.1875
287.2508	0.1886
287.4637	0.1858
287.6766	0.1875
287.8895	0.1866
288.1024	0.1927
288.3152	0.1861
288.5281	0.1839
288.7409	0.1943
288.9538	0.1879
289.1666	0.1873
289.3794	0.1883
289.5922	0.1851
289.8049	0.1865
290.0177	0.1915
290.2304	0.1904
290.4432	0.1908
290.6559	0.1884
290.8686	0.1931
291.0813	0.1982
291.294	0.1902
291.5067	0.191
291.7194	0.1901
291.932	0.1863
292.1447	0.1923
292.3573	0.1976
292.5699	0.1854
292.7825	0.1901
292.9951	0.189
293.2077	0.1887
293.4203	0.1954
293.6328	0.193
293.8454	0.1937
294.0579	0.1907
294.2704	0.192
294.4829	0.1928
294.6954	0.1927
294.9079	0.1915
295.1204	0.1904
295.3328	0.1946
295.5453	0.1917
295.7577	0.1864
295.9701	0.1946
296.1825	0.1928
296.3949	0.1894
296.6073	0.1868
296.8197	0.1942
297.0321	0.1923
297.2444	0.1912
297.4567	0.1933
297.6691	0.1915
297.8814	0.197
298.0937	0.1904
298.306	0.1911
298.5182	0.1968
298.7305	0.1955
298.9428	0.1929
299.155	0.1891
299.3672	0.1926
299.5794	0.1984
299.7916	0.1958
300.0038	0.1916
300.216	0.1871
300.4282	0.1911
300.6403	0.1944
300.8525	0.1912
301.0646	0.1939
301.2767	0.1932
301.4888	0.1907
301.7009	0.1899
301.913	0.1908
302.125	0.1879
302.3371	0.1914
302.5491	0.1977
302.7612	0.1991
302.9732	0.1949
303.1852	0.1872
303.3972	0.1943
303.6092	0.1903
303.8211	0.1881
304.0331	0.1878
304.245	0.1847
304.457	0.1836
304.6689	0.1891
304.8808	0.1831
305.0927	0.1852
305.3046	0.1878
305.5164	0.1806
305.7283	0.1807
305.9401	0.1755
306.152	0.1746
306.3638	0.1826
306.5756	0.1814
306.7874	0.1745
306.9992	0.1701
307.2109	0.1711
307.4227	0.1717
307.6344	0.1743
307.8462	0.1672
308.0579	0.173
308.2696	0.1641
308.4813	0.1633
308.693	0.1624
308.9046	0.1613
309.1163	0.158
309.328	0.1585
309.5396	0.1576
309.7512	0.1464
309.9628	0.1549
310.1744	0.1479
310.386	0.147
310.5976	0.1439
310.8091	0.1488
311.0207	0.1445
311.2322	0.1468
311.4437	0.1428
311.6552	0.1438
311.8667	0.1458
312.0782	0.1399
312.2897	0.1416
312.5012	0.1362
312.7126	0.1342
312.924	0.1408
313.1355	0.1356
313.3469	0.1343
313.5583	0.1302
313.7696	0.1278
313.981	0.1351
314.1924	0.1332
314.4037	0.1314
314.6151	0.1285
314.8264	0.1325
315.0377	0.127
315.249	0.1263
315.4603	0.1266
315.6716	0.1263
315.8828	0.1239
316.0941	0.1295
316.3053	0.1219
316.5165	0.1248
316.7277	0.119
316.9389	0.1263
317.1501	0.1242
317.3613	0.1215
317.5724	0.1267
317.7836	0.115
317.9947	0.1206
318.2058	0.1178
318.417	0.1221
318.6281	0.1173
318.8391	0.1223
319.0502	0.1217
319.2613	0.1197
319.4723	0.122
319.6834	0.1211
319.8944	0.1185
320.1054	0.1185
320.3164	0.1188
320.5274	0.1143
320.7383	0.1197
320.9493	0.121
321.1602	0.1222
321.3712	0.119
321.5821	0.1168
321.793	0.1279
322.0039	0.1173
322.2148	0.1183
322.4257	0.1139
322.6365	0.1209
322.8474	0.1241
323.0582	0.1265
323.269	0.1202
323.4798	0.1201
323.6906	0.121
323.9014	0.1171
324.1122	0.117
324.3229	0.1228
324.5337	0.1237
324.7444	0.1191
324.9551	0.124
325.1658	0.1252
325.3765	0.1247
325.5872	0.1207
325.7979	0.1217
326.0085	0.1207
326.2192	0.1167
326.4298	0.1232
326.6404	0.1282
326.851	0.1212
327.0616	0.1219
327.2722	0.1199
327.4828	0.1277
327.6933	0.1309
327.9039	0.1213
328.1144	0.1253
328.3249	0.1244
328.5354	0.1282
328.7459	0.1273
328.9564	0.1251
329.1669	0.1356
329.3773	0.1288
329.5878	0.1267
329.7982	0.1279
330.0086	0.1243
330.219	0.1254
330.4294	0.1265
330.6398	0.1348
330.8502	0.133
331.0605	0.1282
331.2708	0.126
331.4812	0.1351
331.6915	0.1301
331.9018	0.1245
332.1121	0.1364
332.3224	0.1289
332.5326	0.1261
332.7429	0.1281
332.9531	0.1328
333.1633	0.1259
333.3735	0.1247
333.5837	0.1293
333.7939	0.1329
334.0041	0.1351
334.2143	0.1299
334.4244	0.1446
334.6346	0.1351
334.8447	0.1355
335.0548	0.1358
335.2649	0.1352
335.475	0.1411
335.685	0.1349
335.8951	0.1347
336.1051	0.1355
336.3152	0.14
336.5252	0.131
336.7352	0.1331
336.9452	0.1348
337.1552	0.1352
337.3652	0.1326
337.5751	0.1366
337.7851	0.137
337.995	0.1355
338.2049	0.1389
338.4148	0.1384
338.6247	0.1338
338.8346	0.1324
339.0445	0.1381
339.2543	0.1433
339.4642	0.1314
339.674	0.1403
339.8838	0.1413
340.0936	0.1391
340.3034	0.1356
340.5132	0.1306
340.7229	0.1475
340.9327	0.1499
341.1424	0.1413
341.3522	0.1344
341.5619	0.1433
341.7716	0.1422
341.9813	0.1474
342.1909	0.1463
342.4006	0.1504
342.6102	0.1448
342.8199	0.1462
343.0295	0.1418
343.2391	0.143
343.4487	0.1469
343.6583	0.152
343.8679	0.1427
344.0774	0.1488
344.287	0.1479
344.4965	0.146
344.706	0.1526
344.9155	0.1534
345.125	0.1464
345.3345	0.1601
345.544	0.1531
345.7534	0.155
345.9629	0.1618
346.1723	0.1568
346.3817	0.1522
346.5911	0.1603
346.8005	0.1591
347.0099	0.1633
347.2193	0.1624
347.4286	0.1701
347.638	0.1625
347.8473	0.1631
348.0566	0.1576
348.2659	0.1651
348.4752	0.1643
348.6845	0.1654
348.8937	0.1678
349.103	0.1689
349.3122	0.1689
349.5214	0.1699
349.7306	0.1716
349.9398	0.1627
350.149	0.1639
350.3582	0.1682
350.5674	0.1685
350.7765	0.1775
350.9856	0.1695
351.1948	0.1709
351.4039	0.1762
351.613	0.168
351.822	0.1779
352.0311	0.1745
352.2402	0.1718
352.4492	0.1768
352.6582	0.1762
352.8672	0.1724
353.0762	0.1745
353.2852	0.1754
353.4942	0.181
353.7032	0.1804
353.9121	0.1816
354.1211	0.1835
354.33	0.1773
354.5389	0.1769
354.7478	0.1745
354.9567	0.1852
355.1655	0.1871
355.3744	0.1837
355.5833	0.1723
355.7921	0.1895
356.0009	0.1836
356.2097	0.1823
356.4185	0.1835
356.6273	0.1799
356.8361	0.1882
357.0448	0.1865
357.2536	0.1908
357.4623	0.1884
357.671	0.188
357.8797	0.1912
358.0884	0.1885
358.2971	0.1879
358.5057	0.1929
358.7144	0.1959
358.923	0.2047
359.1316	0.1992
359.3402	0.1968
359.5488	0.189
359.7574	0.203
359.966	0.2009
360.1746	0.1981
360.3831	0.2053
360.5916	0.1989
360.8002	0.2004
361.0087	0.2056
361.2172	0.211
361.4256	0.2044
361.6341	0.2093
361.8426	0.2157
362.051	0.2097
362.2594	0.2045
362.4678	0.2212
362.6762	0.2173
362.8846	0.2139
363.093	0.2124
363.3014	0.2195
363.5097	0.2143
363.718	0.2206
363.9264	0.2222
364.1347	0.2228
364.343	0.2263
364.5513	0.2202
364.7595	0.2266
364.9678	0.2225
365.176	0.2271
365.3842	0.2284
365.5925	0.2311
365.8007	0.2275
366.0089	0.2348
366.217	0.2348
366.4252	0.2299
366.6333	0.2342
366.8415	0.2394
367.0496	0.2359
367.2577	0.2441
367.4658	0.2366
367.6739	0.2295
367.882	0.2398
368.09	0.2367
368.2981	0.2424
368.5061	0.2382
368.7141	0.2349
368.9221	0.2533
369.1301	0.2488
369.3381	0.2507
369.5461	0.2409
369.754	0.2512
369.962	0.2462
370.1699	0.2552
370.3778	0.2636
370.5857	0.2537
370.7936	0.2608
371.0015	0.2559
371.2093	0.2541
371.4172	0.2524
371.625	0.2564
371.8328	0.2489
372.0406	0.2584
372.2484	0.2522
372.4562	0.2568
372.664	0.2519
372.8717	0.2574
373.0795	0.2668
373.2872	0.2655
373.4949	0.2742
373.7026	0.2566
373.9103	0.2616
374.118	0.2728
374.3256	0.2738
374.5333	0.2603
374.7409	0.2762
374.9485	0.2675
375.1561	0.2635
375.3637	0.2719
375.5713	0.2734
375.7789	0.2744
375.9864	0.2667
376.194	0.2887
376.4015	0.2713
376.609	0.27
376.8165	0.2788
377.024	0.2747
377.2315	0.2803
377.4389	0.2693
377.6464	0.283
377.8538	0.2839
378.0612	0.2825
378.2686	0.2787
378.476	0.2845
378.6834	0.2883
378.8908	0.2916
379.0981	0.2914
379.3055	0.2981
379.5128	0.2916
379.7201	0.2888
379.9274	0.2866
380.1347	0.2954
380.342	0.2932
380.5492	0.2953
380.7565	0.2934
380.9637	0.2905
381.1709	0.2959
381.3781	0.3034
381.5853	0.2929
381.7925	0.2888
381.9997	0.3013
382.2068	0.302
382.4139	0.2913
382.6211	0.3002
382.8282	0.2998
383.0353	0.3033
383.2424	0.2978
383.4494	0.3072
383.6565	0.3001
383.8635	0.3032
384.0706	0.3067
384.2776	0.3057
384.4846	0.3039
384.6916	0.303
384.8986	0.3157
385.1055	0.305
385.3125	0.2981
385.5194	0.3129
385.7263	0.3041
385.9333	0.3103
386.1402	0.2971
386.347	0.2911
386.5539	0.3106
386.7608	0.3006
386.9676	0.308
387.1744	0.3074
387.3813	0.3074
387.5881	0.306
387.7948	0.3062
388.0016	0.323
388.2084	0.3062
388.4151	0.303
388.6219	0.2984
388.8286	0.3032
389.0353	0.2999
389.242	0.302
389.4487	0.297
389.6553	0.2956
389.862	0.303
390.0686	0.299
390.2753	0.2963
390.4819	0.2929
390.6885	0.3029
390.8951	0.2952
391.1016	0.2971
391.3082	0.3073
391.5147	0.2882
391.7213	0.2864
391.9278	0.2931
392.1343	0.2924
392.3408	0.2924
392.5473	0.2853
392.7537	0.2878
392.9602	0.2824
393.1666	0.2874
393.373	0.2788
393.5794	0.2879
393.7858	0.288
393.9922	0.2785
394.1986	0.2759
394.4049	0.2806
394.6113	0.2844
394.8176	0.2783
395.0239	0.2746
395.2302	0.2627
395.4365	0.2783
395.6428	0.2759
395.8491	0.2716
396.0553	0.274
396.2615	0.2655
396.4678	0.2754
396.674	0.2656
396.8802	0.2672
397.0863	0.2587
397.2925	0.2639
397.4987	0.2523
397.7048	0.2587
397.9109	0.2643
398.117	0.2615
398.3231	0.2511
398.5292	0.2594
398.7353	0.2567
398.9413	0.2569
399.1474	0.2554
399.3534	0.2599
399.5594	0.2667
399.7654	0.2594
399.9714	0.2557
400.1774	0.2585
400.3833	0.2547
400.5893	0.2494
400.7952	0.2594
401.0011	0.2583
401.207	0.2614
401.4129	0.2572
401.6188	0.257
401.8247	0.2621
402.0305	0.256
402.2364	0.2701
402.4422	0.2698
402.648	0.258
402.8538	0.2565
403.0596	0.2562
403.2654	0.2657
403.4711	0.2581
403.6768	0.2486
403.8826	0.2666
404.0883	0.2527
404.294	0.2617
404.4997	0.2499
404.7054	0.2593
404.911	0.2616
405.1167	0.267
405.3223	0.2533
405.5279	0.2587
405.7335	0.2655
405.9391	0.2496
406.1447	0.2605
406.3502	0.2533
406.5558	0.2644
406.7613	0.2594
406.9668	0.2562
407.1724	0.2616
407.3778	0.253
407.5833	0.2571
407.7888	0.2588
407.9942	0.2539
408.1997	0.2557
408.4051	0.2515
408.6105	0.2571
408.8159	0.2514
409.0213	0.2626
409.2267	0.2654
409.432	0.2543
409.6374	0.2615
409.8427	0.2665
410.048	0.25
410.2533	0.2589
410.4586	0.2471
410.6639	0.2575
410.8691	0.2539
411.0744	0.2631
411.2796	0.2594
411.4848	0.2596
411.69	0.2517
411.8952	0.2498
412.1004	0.2581
412.3056	0.2492
412.5107	0.2521
412.7158	0.2765
412.921	0.2582
413.1261	0.2592
413.3312	0.2602
413.5362	0.2702
413.7413	0.2582
413.9464	0.2549
414.1514	0.2521
414.3564	0.2521
414.5614	0.2575
414.7664	0.2457
414.9714	0.2426
415.1764	0.2527
415.3813	0.2497
415.5863	0.2575
415.7912	0.2507
415.9961	0.2467
416.201	0.2613
416.4059	0.246
416.6108	0.2531
416.8156	0.2428
417.0205	0.2536
417.2253	0.2411
417.4301	0.2563
417.6349	0.2604
417.8397	0.2497
418.0445	0.2441
418.2492	0.2402
418.454	0.2415
418.6587	0.2471
418.8634	0.2475
419.0681	0.2531
419.2728	0.2463
419.4775	0.2509
419.6822	0.2481
419.8868	0.2352
420.0915	0.2415
420.2961	0.2374
420.5007	0.2477
420.7053	0.2394
420.9099	0.2419
421.1144	0.2322
421.319	0.2357
421.5235	0.2365
421.728	0.2458
421.9325	0.2325
422.137	0.233
422.3415	0.2326
422.546	0.2251
422.7504	0.2324
422.9549	0.2351
423.1593	0.2251
423.3637	0.2254
423.5681	0.2337
423.7725	0.2315
423.9769	0.2349
424.1812	0.2157
424.3856	0.22
424.5899	0.2192
424.7942	0.219
424.9985	0.2217
425.2028	0.2247
425.4071	0.2254
425.6113	0.2323
425.8156	0.2188
426.0198	0.2148
426.224	0.2125
426.4282	0.2185
