Data from D4ACN5uM460nmA_Absorbance_13-05-41-961.txt Node
Date: Fri Feb 21 13:05:41 GMT 2025
User: LASERRRRR
Spectrometer: FLMT03099
Trigger mode: 0
Integration Time (sec): 1.500000E-2
Scans to average: 1
Electric dark correction enabled: true
Nonlinearity correction enabled: false
Boxcar width: 0
XAxis mode: Wavelengths
Number of Pixels in Spectrum: 3648
>>>>>Begin Spectral Data<<<<<
179.3399	-0.5004
179.5586	-0.5004
179.7771	-0.5004
179.9957	-0.2047
180.2143	-1.1883
180.4329	0.3966
180.6514	12.7647
180.8699	0.6548
181.0885	0.0166
181.307	0.41
181.5255	0.3423
181.744	0.7167
181.9625	0.2523
182.181	-0
182.3994	-0.3904
182.6179	-0.4733
182.8363	-0.0083
183.0547	-0.2048
183.2732	0.1352
183.4916	0.1354
183.71	0.2187
183.9284	-0.0888
184.1467	0.245
184.3651	0.1318
184.5835	0.1672
184.8018	0.1087
185.0201	0.0799
185.2385	0.262
185.4568	0.1172
185.6751	0.1426
185.8934	0.23
186.1117	-0.0137
186.3299	0.1503
186.5482	0.0494
186.7664	0.164
186.9847	0.3691
187.2029	0.0068
187.4211	-0.0158
187.6393	0.2378
187.8575	0.1858
188.0757	0.6005
188.2939	0.0221
188.512	0.1591
188.7302	0.0305
188.9483	0.2948
189.1665	0.3086
189.3846	0.2401
189.6027	0.0153
189.8208	0.1501
190.0389	0.1455
190.257	0.0423
190.475	-0.1008
190.6931	0.1351
190.9111	0.1402
191.1292	0.1553
191.3472	0.1728
191.5652	0.1681
191.7832	0.2408
192.0012	0.0587
192.2192	0.0668
192.4371	0.1197
192.6551	0.105
192.873	0.1137
193.091	0.2181
193.3089	0.0458
193.5268	0.2096
193.7447	0.1604
193.9626	0.2112
194.1805	0.1987
194.3984	0.1652
194.6162	0.2437
194.8341	0.1897
195.0519	0.2437
195.2697	0.314
195.4875	0.3184
195.7054	0.2642
195.9231	0.1739
196.1409	0.308
196.3587	0.2699
196.5765	0.3467
196.7942	0.2958
197.012	0.323
197.2297	0.3445
197.4474	0.3743
197.6651	0.2625
197.8828	0.2919
198.1005	0.3471
198.3182	0.3532
198.5358	0.4488
198.7535	0.3399
198.9711	0.3463
199.1888	0.3319
199.4064	0.4073
199.624	0.3373
199.8416	0.3203
200.0592	0.3695
200.2767	0.3847
200.4943	0.4221
200.7119	0.3711
200.9294	0.4152
201.1469	0.403
201.3645	0.4497
201.582	0.4199
201.7995	0.3938
202.017	0.3809
202.2344	0.4276
202.4519	0.4169
202.6694	0.3806
202.8868	0.4188
203.1042	0.4318
203.3217	0.3905
203.5391	0.4098
203.7565	0.3934
203.9739	0.3951
204.1913	0.3401
204.4086	0.3475
204.626	0.3796
204.8433	0.3732
205.0607	0.346
205.278	0.3501
205.4953	0.3762
205.7126	0.3576
205.9299	0.3126
206.1472	0.3314
206.3644	0.3389
206.5817	0.3105
206.7989	0.3322
207.0162	0.3259
207.2334	0.3231
207.4506	0.2913
207.6678	0.3077
207.885	0.3206
208.1022	0.2944
208.3194	0.3043
208.5365	0.3291
208.7537	0.3034
208.9708	0.2753
209.1879	0.3057
209.405	0.2881
209.6222	0.2841
209.8392	0.3006
210.0563	0.2927
210.2734	0.2643
210.4905	0.2824
210.7075	0.2827
210.9245	0.2818
211.1416	0.2807
211.3586	0.2695
211.5756	0.2639
211.7926	0.2642
212.0096	0.2663
212.2265	0.2659
212.4435	0.2625
212.6604	0.2605
212.8774	0.2462
213.0943	0.2665
213.3112	0.2717
213.5281	0.2467
213.745	0.2339
213.9619	0.2504
214.1788	0.2597
214.3956	0.2534
214.6125	0.2735
214.8293	0.2734
215.0461	0.2462
215.2629	0.2472
215.4798	0.2468
215.6965	0.2365
215.9133	0.2512
216.1301	0.2366
216.3469	0.2685
216.5636	0.2612
216.7803	0.2521
216.9971	0.2639
217.2138	0.255
217.4305	0.2376
217.6472	0.2538
217.8639	0.2524
218.0805	0.249
218.2972	0.2378
218.5138	0.255
218.7305	0.2723
218.9471	0.2492
219.1637	0.2557
219.3803	0.2749
219.5969	0.252
219.8135	0.2629
220.0301	0.2555
220.2466	0.2639
220.4632	0.2562
220.6797	0.2691
220.8962	0.2727
221.1127	0.283
221.3292	0.2672
221.5457	0.275
221.7622	0.2616
221.9787	0.2854
222.1951	0.2782
222.4116	0.2843
222.628	0.2956
222.8444	0.2741
223.0608	0.2854
223.2772	0.2823
223.4936	0.2974
223.71	0.2879
223.9264	0.2933
224.1427	0.3062
224.3591	0.2972
224.5754	0.298
224.7917	0.2981
225.008	0.2901
225.2243	0.3031
225.4406	0.299
225.6569	0.2937
225.8732	0.3029
226.0894	0.3073
226.3057	0.3081
226.5219	0.3082
226.7381	0.3183
226.9543	0.3058
227.1705	0.3115
227.3867	0.3266
227.6029	0.3256
227.8191	0.3386
228.0352	0.3344
228.2513	0.3505
228.4675	0.3398
228.6836	0.3539
228.8997	0.348
229.1158	0.359
229.3319	0.3667
229.548	0.3553
229.764	0.3664
229.9801	0.374
230.1961	0.3785
230.4121	0.3688
230.6282	0.3801
230.8442	0.3959
231.0602	0.385
231.2761	0.3764
231.4921	0.386
231.7081	0.3944
231.924	0.3934
232.14	0.3983
232.3559	0.422
232.5718	0.4124
232.7877	0.4128
233.0036	0.4007
233.2195	0.4096
233.4353	0.4166
233.6512	0.4123
233.867	0.4215
234.0829	0.4275
234.2987	0.4233
234.5145	0.4312
234.7303	0.4214
234.9461	0.4338
235.1619	0.4441
235.3776	0.4316
235.5934	0.4337
235.8091	0.4349
236.0249	0.4494
236.2406	0.4411
236.4563	0.4493
236.672	0.4441
236.8877	0.4487
237.1034	0.4493
237.319	0.4461
237.5347	0.4446
237.7503	0.4442
237.966	0.4543
238.1816	0.4515
238.3972	0.4646
238.6128	0.4646
238.8284	0.4577
239.0439	0.4609
239.2595	0.462
239.475	0.4561
239.6906	0.4605
239.9061	0.4626
240.1216	0.4612
240.3371	0.458
240.5526	0.4623
240.7681	0.459
240.9836	0.4512
241.199	0.4559
241.4145	0.4509
241.6299	0.4425
241.8453	0.4376
242.0607	0.4323
242.2761	0.4225
242.4915	0.4233
242.7069	0.4106
242.9223	0.4188
243.1376	0.4115
243.353	0.3875
243.5683	0.3936
243.7836	0.3894
243.9989	0.3728
244.2142	0.3749
244.4295	0.3665
244.6448	0.3545
244.86	0.3467
245.0753	0.3376
245.2905	0.3347
245.5057	0.3294
245.721	0.3342
245.9362	0.3183
246.1514	0.318
246.3665	0.3013
246.5817	0.2895
246.7969	0.2956
247.012	0.2917
247.2271	0.2915
247.4423	0.2773
247.6574	0.2746
247.8725	0.2662
248.0876	0.2657
248.3026	0.2654
248.5177	0.2569
248.7328	0.2533
248.9478	0.2475
249.1628	0.2463
249.3779	0.2362
249.5929	0.2354
249.8079	0.2349
250.0228	0.2247
250.2378	0.2291
250.4528	0.2286
250.6677	0.2208
250.8827	0.215
251.0976	0.2183
251.3125	0.2138
251.5274	0.2042
251.7423	0.2051
251.9572	0.2028
252.172	0.2068
252.3869	0.2041
252.6017	0.2012
252.8166	0.1969
253.0314	0.1945
253.2462	0.1972
253.461	0.1913
253.6758	0.1882
253.8906	0.1931
254.1053	0.1927
254.3201	0.1935
254.5348	0.1797
254.7496	0.1825
254.9643	0.191
255.179	0.1832
255.3937	0.1907
255.6083	0.1889
255.823	0.1848
256.0377	0.1818
256.2523	0.1812
256.467	0.1857
256.6816	0.1818
256.8962	0.1787
257.1108	0.1803
257.3254	0.1792
257.54	0.1834
257.7545	0.1791
257.9691	0.1817
258.1836	0.1726
258.3981	0.1763
258.6127	0.1705
258.8272	0.1827
259.0417	0.173
259.2561	0.1741
259.4706	0.1725
259.6851	0.1734
259.8995	0.1739
260.114	0.1737
260.3284	0.1717
260.5428	0.1767
260.7572	0.1752
260.9716	0.1785
261.186	0.1755
261.4003	0.1763
261.6147	0.1728
261.829	0.1775
262.0433	0.1753
262.2577	0.1772
262.472	0.1725
262.6863	0.1723
262.9005	0.1734
263.1148	0.1707
263.3291	0.1719
263.5433	0.178
263.7576	0.1776
263.9718	0.1796
264.186	0.1773
264.4002	0.1823
264.6144	0.1815
264.8286	0.1797
265.0427	0.1802
265.2569	0.1799
265.471	0.1785
265.6851	0.1861
265.8993	0.1737
266.1134	0.1772
266.3275	0.1806
266.5415	0.1757
266.7556	0.1774
266.9697	0.1793
267.1837	0.1763
267.3978	0.176
267.6118	0.1707
267.8258	0.179
268.0398	0.1741
268.2538	0.1771
268.4677	0.1754
268.6817	0.172
268.8957	0.1728
269.1096	0.1684
269.3235	0.1728
269.5374	0.1763
269.7514	0.1739
269.9652	0.1694
270.1791	0.1712
270.393	0.169
270.6068	0.1708
270.8207	0.1655
271.0345	0.1638
271.2483	0.1646
271.4622	0.1683
271.676	0.1653
271.8897	0.1649
272.1035	0.1762
272.3173	0.1685
272.531	0.1704
272.7448	0.1614
272.9585	0.1573
273.1722	0.1621
273.3859	0.1649
273.5996	0.1637
273.8133	0.1709
274.0269	0.1625
274.2406	0.1636
274.4542	0.1664
274.6679	0.171
274.8815	0.1662
275.0951	0.1787
275.3087	0.1687
275.5223	0.1658
275.7358	0.17
275.9494	0.1699
276.1629	0.1727
276.3765	0.1704
276.59	0.1632
276.8035	0.1672
277.017	0.1687
277.2305	0.1749
277.444	0.1691
277.6574	0.1724
277.8709	0.1766
278.0843	0.1707
278.2978	0.1741
278.5112	0.1774
278.7246	0.1772
278.938	0.1711
279.1513	0.1745
279.3647	0.1735
279.5781	0.17
279.7914	0.1744
280.0047	0.1765
280.2181	0.174
280.4314	0.1693
280.6447	0.1854
280.8579	0.174
281.0712	0.174
281.2845	0.1745
281.4977	0.1762
281.711	0.1733
281.9242	0.1777
282.1374	0.1783
282.3506	0.1802
282.5638	0.1737
282.7769	0.1751
282.9901	0.1764
283.2033	0.1833
283.4164	0.1791
283.6295	0.1764
283.8426	0.174
284.0557	0.1784
284.2688	0.1827
284.4819	0.1788
284.695	0.1814
284.908	0.1809
285.1211	0.1868
285.3341	0.1803
285.5471	0.1881
285.7601	0.1881
285.9731	0.1828
286.1861	0.1859
286.3991	0.1904
286.612	0.1854
286.825	0.1855
287.0379	0.1813
287.2508	0.1864
287.4637	0.1865
287.6766	0.1856
287.8895	0.1841
288.1024	0.1873
288.3152	0.1859
288.5281	0.1813
288.7409	0.1876
288.9538	0.1933
289.1666	0.1926
289.3794	0.1931
289.5922	0.1891
289.8049	0.1875
290.0177	0.1892
290.2304	0.1907
290.4432	0.1924
290.6559	0.1877
290.8686	0.1904
291.0813	0.193
291.294	0.1883
291.5067	0.1921
291.7194	0.1933
291.932	0.1901
292.1447	0.1933
292.3573	0.1969
292.5699	0.1971
292.7825	0.1899
292.9951	0.1927
293.2077	0.1896
293.4203	0.1901
293.6328	0.1935
293.8454	0.1946
294.0579	0.1932
294.2704	0.1974
294.4829	0.1915
294.6954	0.19
294.9079	0.1907
295.1204	0.1902
295.3328	0.1967
295.5453	0.1957
295.7577	0.1949
295.9701	0.1967
296.1825	0.1929
296.3949	0.1886
296.6073	0.1919
296.8197	0.192
297.0321	0.1958
297.2444	0.1903
297.4567	0.1959
297.6691	0.1948
297.8814	0.1908
298.0937	0.1907
298.306	0.1899
298.5182	0.1948
298.7305	0.1946
298.9428	0.1932
299.155	0.1913
299.3672	0.1948
299.5794	0.1874
299.7916	0.1953
300.0038	0.1947
300.216	0.1885
300.4282	0.1847
300.6403	0.1944
300.8525	0.1907
301.0646	0.1925
301.2767	0.1929
301.4888	0.1896
301.7009	0.1979
301.913	0.1942
302.125	0.1939
302.3371	0.1875
302.5491	0.1969
302.7612	0.1961
302.9732	0.1972
303.1852	0.195
303.3972	0.1913
303.6092	0.193
303.8211	0.1926
304.0331	0.1902
304.245	0.1894
304.457	0.1898
304.6689	0.191
304.8808	0.1825
305.0927	0.186
305.3046	0.1851
305.5164	0.1777
305.7283	0.1888
305.9401	0.1767
306.152	0.1803
306.3638	0.1827
306.5756	0.1786
306.7874	0.1766
306.9992	0.1719
307.2109	0.1725
307.4227	0.1698
307.6344	0.1723
307.8462	0.1679
308.0579	0.1687
308.2696	0.1651
308.4813	0.1647
308.693	0.1596
308.9046	0.1659
309.1163	0.1573
309.328	0.1576
309.5396	0.1533
309.7512	0.1533
309.9628	0.1548
310.1744	0.1518
310.386	0.1503
310.5976	0.1462
310.8091	0.1532
311.0207	0.15
311.2322	0.1415
311.4437	0.1373
311.6552	0.1462
311.8667	0.1442
312.0782	0.1359
312.2897	0.1428
312.5012	0.1366
312.7126	0.1332
312.924	0.1299
313.1355	0.1325
313.3469	0.1308
313.5583	0.1292
313.7696	0.1291
313.981	0.1359
314.1924	0.1261
314.4037	0.1284
314.6151	0.1245
314.8264	0.1317
315.0377	0.1311
315.249	0.134
315.4603	0.1164
315.6716	0.1248
315.8828	0.1226
316.0941	0.1166
316.3053	0.1166
316.5165	0.1245
316.7277	0.1216
316.9389	0.1292
317.1501	0.1214
317.3613	0.119
317.5724	0.119
317.7836	0.1147
317.9947	0.1192
318.2058	0.1178
318.417	0.1205
318.6281	0.1203
318.8391	0.1245
319.0502	0.1201
319.2613	0.1169
319.4723	0.1164
319.6834	0.1271
319.8944	0.1229
320.1054	0.1201
320.3164	0.1184
320.5274	0.1186
320.7383	0.1197
320.9493	0.1218
321.1602	0.118
321.3712	0.1228
321.5821	0.1104
321.793	0.1248
322.0039	0.12
322.2148	0.1184
322.4257	0.12
322.6365	0.1176
322.8474	0.1221
323.0582	0.1179
323.269	0.1258
323.4798	0.118
323.6906	0.1199
323.9014	0.1239
324.1122	0.1127
324.3229	0.1236
324.5337	0.1178
324.7444	0.1169
324.9551	0.1277
325.1658	0.1227
325.3765	0.1253
325.5872	0.1195
325.7979	0.1222
326.0085	0.1243
326.2192	0.1178
326.4298	0.1292
326.6404	0.1286
326.851	0.1199
327.0616	0.1312
327.2722	0.1248
327.4828	0.118
327.6933	0.1311
327.9039	0.1186
328.1144	0.1255
328.3249	0.1281
328.5354	0.1251
328.7459	0.1265
328.9564	0.1297
329.1669	0.1336
329.3773	0.1243
329.5878	0.1253
329.7982	0.1314
330.0086	0.1243
330.219	0.1256
330.4294	0.1299
330.6398	0.1271
330.8502	0.1276
331.0605	0.1269
331.2708	0.1225
331.4812	0.1254
331.6915	0.1269
331.9018	0.1244
332.1121	0.1276
332.3224	0.128
332.5326	0.1251
332.7429	0.1294
332.9531	0.1327
333.1633	0.1256
333.3735	0.1322
333.5837	0.1321
333.7939	0.131
334.0041	0.1365
334.2143	0.1319
334.4244	0.1357
334.6346	0.1296
334.8447	0.1335
335.0548	0.1369
335.2649	0.1323
335.475	0.133
335.685	0.1342
335.8951	0.1279
336.1051	0.1339
336.3152	0.1363
336.5252	0.1285
336.7352	0.1325
336.9452	0.1351
337.1552	0.1313
337.3652	0.1279
337.5751	0.1337
337.7851	0.1374
337.995	0.1401
338.2049	0.1372
338.4148	0.1352
338.6247	0.139
338.8346	0.1335
339.0445	0.1352
339.2543	0.1405
339.4642	0.1371
339.674	0.133
339.8838	0.1395
340.0936	0.1336
340.3034	0.1368
340.5132	0.1366
340.7229	0.1373
340.9327	0.1487
341.1424	0.137
341.3522	0.1396
341.5619	0.1439
341.7716	0.1434
341.9813	0.1414
342.1909	0.1431
342.4006	0.1473
342.6102	0.1454
342.8199	0.1415
343.0295	0.1455
343.2391	0.1495
343.4487	0.151
343.6583	0.1515
343.8679	0.146
344.0774	0.1457
344.287	0.1508
344.4965	0.1541
344.706	0.1543
344.9155	0.1526
345.125	0.1466
345.3345	0.1612
345.544	0.1589
345.7534	0.154
345.9629	0.1558
346.1723	0.1596
346.3817	0.16
346.5911	0.1559
346.8005	0.1623
347.0099	0.1574
347.2193	0.1682
347.4286	0.1669
347.638	0.1617
347.8473	0.1634
348.0566	0.1719
348.2659	0.1621
348.4752	0.1628
348.6845	0.1651
348.8937	0.17
349.103	0.1597
349.3122	0.1551
349.5214	0.1696
349.7306	0.1738
349.9398	0.1692
350.149	0.1646
350.3582	0.171
350.5674	0.17
350.7765	0.1682
350.9856	0.1682
351.1948	0.1695
351.4039	0.1722
351.613	0.1745
351.822	0.1836
352.0311	0.1741
352.2402	0.174
352.4492	0.1733
352.6582	0.1818
352.8672	0.1753
353.0762	0.1801
353.2852	0.1788
353.4942	0.1805
353.7032	0.1712
353.9121	0.1747
354.1211	0.1775
354.33	0.1914
354.5389	0.1778
354.7478	0.1758
354.9567	0.187
355.1655	0.1823
355.3744	0.1772
355.5833	0.1832
355.7921	0.1861
356.0009	0.1855
356.2097	0.1775
356.4185	0.1896
356.6273	0.1876
356.8361	0.186
357.0448	0.1956
357.2536	0.1835
357.4623	0.1895
357.671	0.1968
357.8797	0.1914
358.0884	0.19
358.2971	0.1946
358.5057	0.1978
358.7144	0.195
358.923	0.2014
359.1316	0.1967
359.3402	0.1989
359.5488	0.1948
359.7574	0.2018
359.966	0.2049
360.1746	0.1985
360.3831	0.205
360.5916	0.2071
360.8002	0.2127
361.0087	0.2021
361.2172	0.2073
361.4256	0.2079
361.6341	0.2115
361.8426	0.2076
362.051	0.2106
362.2594	0.2122
362.4678	0.2175
362.6762	0.2196
362.8846	0.2191
363.093	0.2122
363.3014	0.2174
363.5097	0.2159
363.718	0.222
363.9264	0.2181
364.1347	0.2248
364.343	0.2174
364.5513	0.2245
364.7595	0.2203
364.9678	0.2284
365.176	0.2354
365.3842	0.2309
365.5925	0.2264
365.8007	0.2354
366.0089	0.2404
366.217	0.2296
366.4252	0.2292
366.6333	0.2345
366.8415	0.2385
367.0496	0.2432
367.2577	0.2405
367.4658	0.24
367.6739	0.2271
367.882	0.2437
368.09	0.2327
368.2981	0.2514
368.5061	0.2467
368.7141	0.2392
368.9221	0.2549
369.1301	0.2571
369.3381	0.2533
369.5461	0.2485
369.754	0.253
369.962	0.2499
370.1699	0.2549
370.3778	0.2663
370.5857	0.2532
370.7936	0.2521
371.0015	0.2532
371.2093	0.248
371.4172	0.2594
371.625	0.2597
371.8328	0.2513
372.0406	0.263
372.2484	0.2659
372.4562	0.2627
372.664	0.2695
372.8717	0.266
373.0795	0.2802
373.2872	0.272
373.4949	0.2779
373.7026	0.2664
373.9103	0.2583
374.118	0.2745
374.3256	0.2727
374.5333	0.2787
374.7409	0.2672
374.9485	0.2733
375.1561	0.2749
375.3637	0.2719
375.5713	0.279
375.7789	0.2878
375.9864	0.2764
376.194	0.2876
376.4015	0.2698
376.609	0.2719
376.8165	0.282
377.024	0.2826
377.2315	0.2823
377.4389	0.2769
377.6464	0.2847
377.8538	0.2906
378.0612	0.2848
378.2686	0.2897
378.476	0.2958
378.6834	0.2844
378.8908	0.2868
379.0981	0.2938
379.3055	0.2884
379.5128	0.2893
379.7201	0.2823
379.9274	0.2998
380.1347	0.3003
380.342	0.3055
380.5492	0.2981
380.7565	0.2979
380.9637	0.3009
381.1709	0.2923
381.3781	0.3027
381.5853	0.2993
381.7925	0.2965
381.9997	0.3061
382.2068	0.3062
382.4139	0.3078
382.6211	0.2956
382.8282	0.3123
383.0353	0.31
383.2424	0.3039
383.4494	0.3098
383.6565	0.3036
383.8635	0.3039
384.0706	0.3191
384.2776	0.3011
384.4846	0.3175
384.6916	0.2968
384.8986	0.3162
385.1055	0.3109
385.3125	0.3129
385.5194	0.3073
385.7263	0.2985
385.9333	0.3091
386.1402	0.3119
386.347	0.3105
386.5539	0.3114
386.7608	0.3033
386.9676	0.3063
387.1744	0.3066
387.3813	0.3048
387.5881	0.2998
387.7948	0.3154
388.0016	0.3261
388.2084	0.3076
388.4151	0.3075
388.6219	0.3012
388.8286	0.3185
389.0353	0.3109
389.242	0.3114
389.4487	0.3055
389.6553	0.3012
389.862	0.3033
390.0686	0.3048
390.2753	0.3029
390.4819	0.3077
390.6885	0.3093
390.8951	0.2967
391.1016	0.2944
391.3082	0.2999
391.5147	0.2916
391.7213	0.2867
391.9278	0.2929
392.1343	0.2905
392.3408	0.2855
392.5473	0.2835
392.7537	0.2875
392.9602	0.29
393.1666	0.2915
393.373	0.2836
393.5794	0.2829
393.7858	0.2799
393.9922	0.2758
394.1986	0.2821
394.4049	0.2842
394.6113	0.2824
394.8176	0.2766
395.0239	0.275
395.2302	0.2767
395.4365	0.2833
395.6428	0.2753
395.8491	0.2738
396.0553	0.2646
396.2615	0.2769
396.4678	0.2709
396.674	0.2688
396.8802	0.2686
397.0863	0.2724
397.2925	0.2658
397.4987	0.2672
397.7048	0.2711
397.9109	0.2553
398.117	0.2606
398.3231	0.2686
398.5292	0.255
398.7353	0.2656
398.9413	0.2591
399.1474	0.2676
399.3534	0.2569
399.5594	0.265
399.7654	0.2665
399.9714	0.2646
400.1774	0.2582
400.3833	0.2615
400.5893	0.2693
400.7952	0.2695
401.0011	0.2514
401.207	0.2601
401.4129	0.2602
401.6188	0.2507
401.8247	0.2689
402.0305	0.2568
402.2364	0.2613
402.4422	0.2635
402.648	0.2742
402.8538	0.2624
403.0596	0.259
403.2654	0.2596
403.4711	0.2548
403.6768	0.2601
403.8826	0.2648
404.0883	0.2576
404.294	0.2637
404.4997	0.252
404.7054	0.2616
404.911	0.2685
405.1167	0.2672
405.3223	0.2594
405.5279	0.2749
405.7335	0.2666
405.9391	0.2631
406.1447	0.2698
406.3502	0.2655
406.5558	0.2587
406.7613	0.2626
406.9668	0.2666
407.1724	0.2572
407.3778	0.2632
407.5833	0.2639
407.7888	0.2651
407.9942	0.2678
408.1997	0.2627
408.4051	0.2645
408.6105	0.2547
408.8159	0.2511
409.0213	0.2683
409.2267	0.2608
409.432	0.2594
409.6374	0.2603
409.8427	0.2562
410.048	0.271
410.2533	0.2612
410.4586	0.2537
410.6639	0.2664
410.8691	0.2531
411.0744	0.264
411.2796	0.2601
411.4848	0.2669
411.69	0.2534
411.8952	0.2628
412.1004	0.2681
412.3056	0.2515
412.5107	0.2468
412.7158	0.2552
412.921	0.2598
413.1261	0.2602
413.3312	0.2665
413.5362	0.2612
413.7413	0.2598
413.9464	0.2552
414.1514	0.2542
414.3564	0.251
414.5614	0.2563
414.7664	0.2518
414.9714	0.2528
415.1764	0.2615
415.3813	0.2579
415.5863	0.2599
415.7912	0.2551
415.9961	0.2582
416.201	0.2599
416.4059	0.2671
416.6108	0.2601
416.8156	0.2527
417.0205	0.2519
417.2253	0.266
417.4301	0.2656
417.6349	0.2519
417.8397	0.2557
418.0445	0.251
418.2492	0.2501
418.454	0.2506
418.6587	0.2432
418.8634	0.2542
419.0681	0.2509
419.2728	0.2538
419.4775	0.2574
419.6822	0.2458
419.8868	0.2401
420.0915	0.2518
420.2961	0.2405
420.5007	0.2494
420.7053	0.2438
420.9099	0.2435
421.1144	0.2457
421.319	0.2409
421.5235	0.2374
421.728	0.2573
421.9325	0.2443
422.137	0.2297
422.3415	0.2343
422.546	0.2318
422.7504	0.2395
422.9549	0.2467
423.1593	0.22
423.3637	0.2339
423.5681	0.237
423.7725	0.229
423.9769	0.2414
424.1812	0.2204
424.3856	0.2224
424.5899	0.2212
424.7942	0.2216
424.9985	0.2207
425.2028	0.2283
425.4071	0.2256
425.6113	0.2309
425.8156	0.2195
426.0198	0.2232
426.224	0.2294
426.4282	0.216
