Data from D4ACN5uM460nmA_Absorbance_13-05-42-320.txt Node
Date: Fri Feb 21 13:05:42 GMT 2025
User: LASERRRRR
Spectrometer: FLMT03099
Trigger mode: 0
Integration Time (sec): 1.500000E-2
Scans to average: 1
Electric dark correction enabled: true
Nonlinearity correction enabled: false
Boxcar width: 0
XAxis mode: Wavelengths
Number of Pixels in Spectrum: 3648
>>>>>Begin Spectral Data<<<<<
179.3399	-0.1482
179.5586	-0.1482
179.7771	-0.1482
179.9957	-0.4266
180.2143	-0
180.4329	-0
180.6514	-0.6158
180.8699	-0
181.0885	-0
181.307	0.2607
181.5255	0.3682
181.744	-0
181.9625	0.1601
182.181	-0
182.3994	-0.5952
182.6179	0.0531
182.8363	-0
183.0547	-0.0926
183.2732	0.116
183.4916	0.1546
183.71	0.2932
183.9284	0.0555
184.1467	0.0417
184.3651	0.0591
184.5835	0.1358
184.8018	-0.0329
185.0201	0.6696
185.2385	0.1061
185.4568	0.2191
185.6751	0.2498
185.8934	0.1967
186.1117	-0.0174
186.3299	0.2154
186.5482	0.1215
186.7664	0.2544
186.9847	-0.1349
187.2029	0.5105
187.4211	-0.0146
187.6393	0.178
187.8575	0.1441
188.0757	0.3093
188.2939	0.1037
188.512	0.105
188.7302	0.2471
188.9483	0.1699
189.1665	0.4423
189.3846	0.2202
189.6027	0.0633
189.8208	0.4006
190.0389	0.1204
190.257	0.0843
190.475	0.0529
190.6931	0.096
190.9111	0.0437
191.1292	0.2649
191.3472	0.1992
191.5652	0.0238
191.7832	0.0772
192.0012	0.1503
192.2192	0.1418
192.4371	0.1334
192.6551	0.1379
192.873	0.1843
193.091	0.0663
193.3089	0.2848
193.5268	0.4845
193.7447	0.2387
193.9626	0.3508
194.1805	0.2445
194.3984	0.2762
194.6162	0.1866
194.8341	0.3135
195.0519	0.1397
195.2697	0.2714
195.4875	0.2499
195.7054	0.3065
195.9231	0.1868
196.1409	0.3069
196.3587	0.2996
196.5765	0.3318
196.7942	0.2589
197.012	0.3292
197.2297	0.2687
197.4474	0.4588
197.6651	0.2835
197.8828	0.3454
198.1005	0.4122
198.3182	0.3598
198.5358	0.3869
198.7535	0.3578
198.9711	0.3644
199.1888	0.3893
199.4064	0.3724
199.624	0.3608
199.8416	0.3747
200.0592	0.4039
200.2767	0.4311
200.4943	0.4183
200.7119	0.4196
200.9294	0.463
201.1469	0.4005
201.3645	0.4541
201.582	0.3572
201.7995	0.4494
202.017	0.4157
202.2344	0.4262
202.4519	0.409
202.6694	0.4169
202.8868	0.3885
203.1042	0.4282
203.3217	0.4082
203.5391	0.3873
203.7565	0.347
203.9739	0.3842
204.1913	0.3509
204.4086	0.3373
204.626	0.3606
204.8433	0.3716
205.0607	0.3659
205.278	0.3724
205.4953	0.3394
205.7126	0.3892
205.9299	0.3328
206.1472	0.3011
206.3644	0.335
206.5817	0.3295
206.7989	0.3309
207.0162	0.302
207.2334	0.3358
207.4506	0.3046
207.6678	0.3024
207.885	0.3063
208.1022	0.3289
208.3194	0.2819
208.5365	0.3195
208.7537	0.3184
208.9708	0.317
209.1879	0.2834
209.405	0.2618
209.6222	0.2681
209.8392	0.2917
210.0563	0.298
210.2734	0.276
210.4905	0.2738
210.7075	0.2984
210.9245	0.2782
211.1416	0.2888
211.3586	0.2619
211.5756	0.2422
211.7926	0.2817
212.0096	0.267
212.2265	0.2782
212.4435	0.2843
212.6604	0.2553
212.8774	0.2713
213.0943	0.2484
213.3112	0.256
213.5281	0.2628
213.745	0.248
213.9619	0.2629
214.1788	0.2663
214.3956	0.2517
214.6125	0.2726
214.8293	0.2481
215.0461	0.2519
215.2629	0.268
215.4798	0.2671
215.6965	0.2576
215.9133	0.2426
216.1301	0.2557
216.3469	0.2511
216.5636	0.2468
216.7803	0.2584
216.9971	0.2601
217.2138	0.2594
217.4305	0.2481
217.6472	0.2475
217.8639	0.258
218.0805	0.2623
218.2972	0.25
218.5138	0.2552
218.7305	0.2613
218.9471	0.2421
219.1637	0.2769
219.3803	0.262
219.5969	0.2643
219.8135	0.2695
220.0301	0.2645
220.2466	0.2538
220.4632	0.2599
220.6797	0.268
220.8962	0.2654
221.1127	0.2721
221.3292	0.2815
221.5457	0.274
221.7622	0.2682
221.9787	0.2733
222.1951	0.2642
222.4116	0.2699
222.628	0.2964
222.8444	0.2793
223.0608	0.2808
223.2772	0.2748
223.4936	0.2793
223.71	0.2847
223.9264	0.2916
224.1427	0.2939
224.3591	0.2909
224.5754	0.3012
224.7917	0.2926
225.008	0.3047
225.2243	0.3031
225.4406	0.2986
225.6569	0.3036
225.8732	0.3137
226.0894	0.3139
226.3057	0.3091
226.5219	0.3134
226.7381	0.3258
226.9543	0.3201
227.1705	0.32
227.3867	0.3109
227.6029	0.325
227.8191	0.3414
228.0352	0.345
228.2513	0.3528
228.4675	0.3448
228.6836	0.355
228.8997	0.3386
229.1158	0.3521
229.3319	0.3537
229.548	0.3618
229.764	0.3631
229.9801	0.3646
230.1961	0.3778
230.4121	0.3678
230.6282	0.3762
230.8442	0.3866
231.0602	0.3749
231.2761	0.3922
231.4921	0.3944
231.7081	0.3969
231.924	0.4057
232.14	0.4012
232.3559	0.4023
232.5718	0.4141
232.7877	0.4091
233.0036	0.404
233.2195	0.418
233.4353	0.4179
233.6512	0.4085
233.867	0.4303
234.0829	0.4139
234.2987	0.4277
234.5145	0.4336
234.7303	0.4357
234.9461	0.4408
235.1619	0.4383
235.3776	0.437
235.5934	0.4337
235.8091	0.4373
236.0249	0.4581
236.2406	0.4326
236.4563	0.4516
236.672	0.4429
236.8877	0.4499
237.1034	0.4406
237.319	0.4485
237.5347	0.4554
237.7503	0.4472
237.966	0.4566
238.1816	0.4519
238.3972	0.4534
238.6128	0.4631
238.8284	0.4694
239.0439	0.4667
239.2595	0.4646
239.475	0.468
239.6906	0.4566
239.9061	0.4525
240.1216	0.4615
240.3371	0.4666
240.5526	0.4593
240.7681	0.4604
240.9836	0.4601
241.199	0.4616
241.4145	0.4444
241.6299	0.4523
241.8453	0.4401
242.0607	0.4451
242.2761	0.4354
242.4915	0.4152
242.7069	0.4083
242.9223	0.4147
243.1376	0.4059
243.353	0.3963
243.5683	0.3927
243.7836	0.3901
243.9989	0.3775
244.2142	0.3779
244.4295	0.362
244.6448	0.359
244.86	0.3538
245.0753	0.3402
245.2905	0.3392
245.5057	0.3313
245.721	0.3362
245.9362	0.3202
246.1514	0.3222
246.3665	0.3085
246.5817	0.2984
246.7969	0.2938
247.012	0.2878
247.2271	0.2913
247.4423	0.2735
247.6574	0.2818
247.8725	0.2625
248.0876	0.2683
248.3026	0.2626
248.5177	0.2558
248.7328	0.2505
248.9478	0.2493
249.1628	0.2503
249.3779	0.2392
249.5929	0.2409
249.8079	0.2318
250.0228	0.2319
250.2378	0.2285
250.4528	0.227
250.6677	0.2211
250.8827	0.2127
251.0976	0.2142
251.3125	0.2135
251.5274	0.2086
251.7423	0.2056
251.9572	0.2045
252.172	0.2028
252.3869	0.2011
252.6017	0.2039
252.8166	0.2026
253.0314	0.1962
253.2462	0.1959
253.461	0.196
253.6758	0.1943
253.8906	0.1918
254.1053	0.1935
254.3201	0.1959
254.5348	0.1822
254.7496	0.1826
254.9643	0.1984
255.179	0.1872
255.3937	0.187
255.6083	0.1878
255.823	0.1861
256.0377	0.1794
256.2523	0.1858
256.467	0.1817
256.6816	0.1797
256.8962	0.1849
257.1108	0.1816
257.3254	0.1761
257.54	0.1762
257.7545	0.1824
257.9691	0.1831
258.1836	0.1764
258.3981	0.1794
258.6127	0.1722
258.8272	0.1786
259.0417	0.1791
259.2561	0.1758
259.4706	0.1719
259.6851	0.1768
259.8995	0.1758
260.114	0.1719
260.3284	0.1724
260.5428	0.1791
260.7572	0.1717
260.9716	0.1805
261.186	0.1731
261.4003	0.1704
261.6147	0.1733
261.829	0.168
262.0433	0.1731
262.2577	0.1705
262.472	0.1772
262.6863	0.1795
262.9005	0.1767
263.1148	0.1767
263.3291	0.1709
263.5433	0.1733
263.7576	0.1761
263.9718	0.1736
264.186	0.1763
264.4002	0.174
264.6144	0.185
264.8286	0.1806
265.0427	0.1797
265.2569	0.1799
265.471	0.1767
265.6851	0.1791
265.8993	0.1794
266.1134	0.1778
266.3275	0.1751
266.5415	0.1748
266.7556	0.1806
266.9697	0.1787
267.1837	0.1815
267.3978	0.1775
267.6118	0.1725
267.8258	0.1813
268.0398	0.1768
268.2538	0.1743
268.4677	0.172
268.6817	0.179
268.8957	0.1678
269.1096	0.1691
269.3235	0.1723
269.5374	0.1766
269.7514	0.179
269.9652	0.1774
270.1791	0.167
270.393	0.1651
270.6068	0.1704
270.8207	0.1633
271.0345	0.1727
271.2483	0.164
271.4622	0.1677
271.676	0.1648
271.8897	0.1694
272.1035	0.1716
272.3173	0.1672
272.531	0.1661
272.7448	0.1714
272.9585	0.1603
273.1722	0.1667
273.3859	0.1648
273.5996	0.1694
273.8133	0.1709
274.0269	0.1614
274.2406	0.1717
274.4542	0.1675
274.6679	0.1707
274.8815	0.1682
275.0951	0.1737
275.3087	0.1755
275.5223	0.1718
275.7358	0.1704
275.9494	0.168
276.1629	0.1696
276.3765	0.169
276.59	0.1687
276.8035	0.1657
277.017	0.1704
277.2305	0.1749
277.444	0.1754
277.6574	0.1743
277.8709	0.1764
278.0843	0.176
278.2978	0.1757
278.5112	0.1771
278.7246	0.1741
278.938	0.1759
279.1513	0.1776
279.3647	0.1794
279.5781	0.1765
279.7914	0.1754
280.0047	0.1765
280.2181	0.1724
280.4314	0.1772
280.6447	0.1861
280.8579	0.1686
281.0712	0.1743
281.2845	0.1768
281.4977	0.1789
281.711	0.1786
281.9242	0.177
282.1374	0.1775
282.3506	0.1858
282.5638	0.178
282.7769	0.1765
282.9901	0.1817
283.2033	0.1803
283.4164	0.1757
283.6295	0.1759
283.8426	0.1833
284.0557	0.1808
284.2688	0.1819
284.4819	0.182
284.695	0.1852
284.908	0.1774
285.1211	0.1857
285.3341	0.1801
285.5471	0.1861
285.7601	0.1813
285.9731	0.1898
286.1861	0.188
286.3991	0.1921
286.612	0.1859
286.825	0.1939
287.0379	0.1853
287.2508	0.1889
287.4637	0.1868
287.6766	0.1843
287.8895	0.1825
288.1024	0.1917
288.3152	0.191
288.5281	0.1828
288.7409	0.1898
288.9538	0.1817
289.1666	0.1875
289.3794	0.1923
289.5922	0.1854
289.8049	0.1977
290.0177	0.192
290.2304	0.1862
290.4432	0.1887
290.6559	0.1969
290.8686	0.1906
291.0813	0.191
291.294	0.1933
291.5067	0.1867
291.7194	0.1941
291.932	0.1952
292.1447	0.1898
292.3573	0.1894
292.5699	0.1927
292.7825	0.1884
292.9951	0.1897
293.2077	0.1897
293.4203	0.1894
293.6328	0.1859
293.8454	0.1962
294.0579	0.1936
294.2704	0.1987
294.4829	0.1883
294.6954	0.1917
294.9079	0.1894
295.1204	0.1933
295.3328	0.2025
295.5453	0.1885
295.7577	0.1925
295.9701	0.1953
296.1825	0.1961
296.3949	0.1938
296.6073	0.1932
296.8197	0.1909
297.0321	0.195
297.2444	0.1874
297.4567	0.1958
297.6691	0.1899
297.8814	0.1947
298.0937	0.1895
298.306	0.1899
298.5182	0.1995
298.7305	0.1981
298.9428	0.1913
299.155	0.1847
299.3672	0.1883
299.5794	0.1987
299.7916	0.1943
300.0038	0.1893
300.216	0.1895
300.4282	0.1916
300.6403	0.1928
300.8525	0.1862
301.0646	0.1977
301.2767	0.1933
301.4888	0.1922
301.7009	0.1951
301.913	0.1933
302.125	0.1909
302.3371	0.1954
302.5491	0.197
302.7612	0.1959
302.9732	0.1926
303.1852	0.1919
303.3972	0.1913
303.6092	0.1897
303.8211	0.1883
304.0331	0.1879
304.245	0.1849
304.457	0.1928
304.6689	0.1907
304.8808	0.1835
305.0927	0.1892
305.3046	0.1863
305.5164	0.185
305.7283	0.1789
305.9401	0.1776
306.152	0.181
306.3638	0.1797
306.5756	0.1815
306.7874	0.1726
306.9992	0.1767
307.2109	0.1729
307.4227	0.1701
307.6344	0.1698
307.8462	0.1677
308.0579	0.1728
308.2696	0.1684
308.4813	0.1651
308.693	0.1638
308.9046	0.1609
309.1163	0.1582
309.328	0.1556
309.5396	0.1495
309.7512	0.1492
309.9628	0.1534
310.1744	0.1551
310.386	0.1438
310.5976	0.1455
310.8091	0.1451
311.0207	0.1452
311.2322	0.1427
311.4437	0.1367
311.6552	0.1406
311.8667	0.1452
312.0782	0.1418
312.2897	0.1392
312.5012	0.1403
312.7126	0.1301
312.924	0.1371
313.1355	0.1331
313.3469	0.133
313.5583	0.1307
313.7696	0.1259
313.981	0.1333
314.1924	0.128
314.4037	0.1288
314.6151	0.1238
314.8264	0.133
315.0377	0.1271
315.249	0.1296
315.4603	0.1258
315.6716	0.129
315.8828	0.124
316.0941	0.1289
316.3053	0.1281
316.5165	0.1237
316.7277	0.1218
316.9389	0.1285
317.1501	0.1241
317.3613	0.1189
317.5724	0.1223
317.7836	0.1205
317.9947	0.1257
318.2058	0.1188
318.417	0.1152
318.6281	0.1135
318.8391	0.119
319.0502	0.1239
319.2613	0.1156
319.4723	0.123
319.6834	0.1218
319.8944	0.1176
320.1054	0.1195
320.3164	0.1133
320.5274	0.1197
320.7383	0.1224
320.9493	0.1231
321.1602	0.1189
321.3712	0.1189
321.5821	0.115
321.793	0.1233
322.0039	0.1219
322.2148	0.1197
322.4257	0.1184
322.6365	0.1172
322.8474	0.1214
323.0582	0.1234
323.269	0.1268
323.4798	0.1244
323.6906	0.1183
323.9014	0.1212
324.1122	0.113
324.3229	0.1253
324.5337	0.1246
324.7444	0.1232
324.9551	0.1208
325.1658	0.1209
325.3765	0.1212
325.5872	0.118
325.7979	0.1207
326.0085	0.1197
326.2192	0.1149
326.4298	0.1254
326.6404	0.1244
326.851	0.1204
327.0616	0.1285
327.2722	0.1249
327.4828	0.123
327.6933	0.1317
327.9039	0.1253
328.1144	0.131
328.3249	0.1286
328.5354	0.1319
328.7459	0.1291
328.9564	0.1262
329.1669	0.133
329.3773	0.1299
329.5878	0.1255
329.7982	0.1311
330.0086	0.1243
330.219	0.1255
330.4294	0.1277
330.6398	0.1312
330.8502	0.1296
331.0605	0.1269
331.2708	0.1281
331.4812	0.1267
331.6915	0.1321
331.9018	0.1313
332.1121	0.1372
332.3224	0.1253
332.5326	0.122
332.7429	0.1286
332.9531	0.1378
333.1633	0.1245
333.3735	0.1247
333.5837	0.1281
333.7939	0.1298
334.0041	0.1352
334.2143	0.1313
334.4244	0.1362
334.6346	0.1269
334.8447	0.1314
335.0548	0.1393
335.2649	0.1363
335.475	0.1386
335.685	0.1353
335.8951	0.1303
336.1051	0.1358
336.3152	0.1424
336.5252	0.1297
336.7352	0.129
336.9452	0.1358
337.1552	0.1334
337.3652	0.1317
337.5751	0.1257
337.7851	0.1316
337.995	0.133
338.2049	0.1372
338.4148	0.1346
338.6247	0.1396
338.8346	0.1366
339.0445	0.1412
339.2543	0.1338
339.4642	0.1329
339.674	0.1338
339.8838	0.1434
340.0936	0.1383
340.3034	0.1411
340.5132	0.1373
340.7229	0.1428
340.9327	0.139
341.1424	0.1431
341.3522	0.1328
341.5619	0.1401
341.7716	0.1455
341.9813	0.1478
342.1909	0.1469
342.4006	0.1468
342.6102	0.1499
342.8199	0.1453
343.0295	0.1424
343.2391	0.1533
343.4487	0.1467
343.6583	0.1545
343.8679	0.1439
344.0774	0.1439
344.287	0.1516
344.4965	0.1556
344.706	0.1501
344.9155	0.1465
345.125	0.1521
345.3345	0.1597
345.544	0.1529
345.7534	0.154
345.9629	0.1506
346.1723	0.1589
346.3817	0.1514
346.5911	0.1577
346.8005	0.1641
347.0099	0.1603
347.2193	0.1634
347.4286	0.166
347.638	0.156
347.8473	0.1671
348.0566	0.162
348.2659	0.1663
348.4752	0.1626
348.6845	0.1626
348.8937	0.1629
349.103	0.1633
349.3122	0.1605
349.5214	0.1689
349.7306	0.177
349.9398	0.1713
350.149	0.167
350.3582	0.1684
350.5674	0.1764
350.7765	0.1748
350.9856	0.1678
351.1948	0.1711
351.4039	0.1805
351.613	0.176
351.822	0.1779
352.0311	0.1715
352.2402	0.1733
352.4492	0.1739
352.6582	0.1728
352.8672	0.1742
353.0762	0.1768
353.2852	0.1706
353.4942	0.1787
353.7032	0.1739
353.9121	0.1739
354.1211	0.1835
354.33	0.1794
354.5389	0.1737
354.7478	0.1746
354.9567	0.1829
355.1655	0.1825
355.3744	0.1764
355.5833	0.1857
355.7921	0.1958
356.0009	0.1852
356.2097	0.1778
356.4185	0.183
356.6273	0.1919
356.8361	0.1861
357.0448	0.1853
357.2536	0.1849
357.4623	0.1962
357.671	0.1969
357.8797	0.1938
358.0884	0.1875
358.2971	0.1889
358.5057	0.1899
358.7144	0.196
358.923	0.1997
359.1316	0.1989
359.3402	0.1975
359.5488	0.1958
359.7574	0.202
359.966	0.1974
360.1746	0.1947
360.3831	0.2087
360.5916	0.2098
360.8002	0.2038
361.0087	0.2078
361.2172	0.2078
361.4256	0.2045
361.6341	0.2097
361.8426	0.2155
362.051	0.2142
362.2594	0.2067
362.4678	0.2109
362.6762	0.2167
362.8846	0.2117
363.093	0.2209
363.3014	0.2211
363.5097	0.2167
363.718	0.2182
363.9264	0.2174
364.1347	0.2216
364.343	0.2273
364.5513	0.2257
364.7595	0.225
364.9678	0.2203
365.176	0.2292
365.3842	0.2312
365.5925	0.2278
365.8007	0.2298
366.0089	0.235
366.217	0.2381
366.4252	0.2307
366.6333	0.2342
366.8415	0.2373
367.0496	0.2363
367.2577	0.241
367.4658	0.2297
367.6739	0.2389
367.882	0.2471
368.09	0.2409
368.2981	0.246
368.5061	0.2483
368.7141	0.2427
368.9221	0.2575
369.1301	0.247
369.3381	0.2529
369.5461	0.2494
369.754	0.2487
369.962	0.2515
370.1699	0.2539
370.3778	0.2556
370.5857	0.2523
370.7936	0.2545
371.0015	0.2592
371.2093	0.2499
371.4172	0.2547
371.625	0.2522
371.8328	0.2446
372.0406	0.2655
372.2484	0.2598
372.4562	0.2605
372.664	0.2644
372.8717	0.2694
373.0795	0.2712
373.2872	0.2751
373.4949	0.2699
373.7026	0.2656
373.9103	0.267
374.118	0.2604
374.3256	0.2743
374.5333	0.2724
374.7409	0.2729
374.9485	0.2682
375.1561	0.277
375.3637	0.2707
375.5713	0.2816
375.7789	0.2725
375.9864	0.2715
376.194	0.2826
376.4015	0.2773
376.609	0.2745
376.8165	0.2758
377.024	0.2722
377.2315	0.2814
377.4389	0.2761
377.6464	0.2871
377.8538	0.2826
378.0612	0.2864
378.2686	0.283
378.476	0.2859
378.6834	0.2849
378.8908	0.2865
379.0981	0.2887
379.3055	0.2902
379.5128	0.2893
379.7201	0.2845
379.9274	0.29
380.1347	0.2968
380.342	0.2941
380.5492	0.2941
380.7565	0.293
380.9637	0.2997
381.1709	0.2896
381.3781	0.2998
381.5853	0.2968
381.7925	0.2999
381.9997	0.3047
382.2068	0.3032
382.4139	0.3004
382.6211	0.3006
382.8282	0.3101
383.0353	0.3058
383.2424	0.296
383.4494	0.3103
383.6565	0.3029
383.8635	0.3035
384.0706	0.3159
384.2776	0.3078
384.4846	0.3121
384.6916	0.3171
384.8986	0.3078
385.1055	0.3129
385.3125	0.3054
385.5194	0.3115
385.7263	0.3085
385.9333	0.3132
386.1402	0.3091
386.347	0.3037
386.5539	0.3078
386.7608	0.3054
386.9676	0.2957
387.1744	0.2992
387.3813	0.3107
387.5881	0.3062
387.7948	0.3226
388.0016	0.3211
388.2084	0.3017
388.4151	0.3068
388.6219	0.3066
388.8286	0.3114
389.0353	0.3091
389.242	0.3132
389.4487	0.3025
389.6553	0.2936
389.862	0.2986
390.0686	0.305
390.2753	0.306
390.4819	0.3022
390.6885	0.2993
390.8951	0.2973
391.1016	0.2992
391.3082	0.3051
391.5147	0.2903
391.7213	0.2886
391.9278	0.2901
392.1343	0.2941
392.3408	0.2937
392.5473	0.2867
392.7537	0.2877
392.9602	0.2868
393.1666	0.2834
393.373	0.2838
393.5794	0.2829
393.7858	0.2803
393.9922	0.28
394.1986	0.2823
394.4049	0.2849
394.6113	0.2815
394.8176	0.2853
395.0239	0.2728
395.2302	0.2765
395.4365	0.2738
395.6428	0.2742
395.8491	0.2774
396.0553	0.2675
396.2615	0.2789
396.4678	0.2678
396.674	0.2655
396.8802	0.2714
397.0863	0.265
397.2925	0.2671
397.4987	0.258
397.7048	0.2665
397.9109	0.2584
398.117	0.2651
398.3231	0.2648
398.5292	0.2587
398.7353	0.2611
398.9413	0.2579
399.1474	0.2551
399.3534	0.255
399.5594	0.2606
399.7654	0.2579
399.9714	0.2679
400.1774	0.2618
400.3833	0.2587
400.5893	0.2552
400.7952	0.2668
401.0011	0.2639
401.207	0.2668
401.4129	0.2597
401.6188	0.2575
401.8247	0.2717
402.0305	0.2614
402.2364	0.2687
402.4422	0.262
402.648	0.261
402.8538	0.2521
403.0596	0.2534
403.2654	0.256
403.4711	0.254
403.6768	0.2679
403.8826	0.2736
404.0883	0.2653
404.294	0.2614
404.4997	0.2573
404.7054	0.2588
404.911	0.261
405.1167	0.261
405.3223	0.266
405.5279	0.2623
405.7335	0.2538
405.9391	0.2559
406.1447	0.2651
406.3502	0.2599
406.5558	0.2603
406.7613	0.2597
406.9668	0.252
407.1724	0.2587
407.3778	0.2725
407.5833	0.2546
407.7888	0.2596
407.9942	0.2543
408.1997	0.2634
408.4051	0.2509
408.6105	0.2641
408.8159	0.2638
409.0213	0.2689
409.2267	0.2722
409.432	0.2644
409.6374	0.2688
409.8427	0.2654
410.048	0.2666
410.2533	0.2638
410.4586	0.2465
410.6639	0.2662
410.8691	0.2605
411.0744	0.2524
411.2796	0.2599
411.4848	0.2642
411.69	0.2532
411.8952	0.2606
412.1004	0.2612
412.3056	0.2581
412.5107	0.258
412.7158	0.2699
412.921	0.2662
413.1261	0.263
413.3312	0.2529
413.5362	0.2641
413.7413	0.2591
413.9464	0.2515
414.1514	0.2589
414.3564	0.2563
414.5614	0.2504
414.7664	0.2461
414.9714	0.2524
415.1764	0.2648
415.3813	0.2511
415.5863	0.2604
415.7912	0.2613
415.9961	0.2516
416.201	0.2636
416.4059	0.2615
416.6108	0.2679
416.8156	0.2475
417.0205	0.249
417.2253	0.2513
417.4301	0.26
417.6349	0.241
417.8397	0.2466
418.0445	0.2616
418.2492	0.2549
418.454	0.2468
418.6587	0.2622
418.8634	0.2482
419.0681	0.26
419.2728	0.2446
419.4775	0.2541
419.6822	0.2502
419.8868	0.2497
420.0915	0.2352
420.2961	0.2406
420.5007	0.243
420.7053	0.2369
420.9099	0.2334
421.1144	0.2412
421.319	0.2445
421.5235	0.2253
421.728	0.2466
421.9325	0.253
422.137	0.2389
422.3415	0.2321
422.546	0.2239
422.7504	0.2211
422.9549	0.235
423.1593	0.2294
423.3637	0.2279
423.5681	0.2433
423.7725	0.2326
423.9769	0.2323
424.1812	0.2239
424.3856	0.2198
424.5899	0.2227
424.7942	0.2285
424.9985	0.2256
425.2028	0.2258
425.4071	0.2245
425.6113	0.2198
425.8156	0.216
426.0198	0.2231
426.224	0.2233
426.4282	0.2212
426.6324	0.217
426.8366	0.2153
