Data from D4ACN5uM460nmA_Absorbance_13-05-41-330.txt Node
Date: Fri Feb 21 13:05:41 GMT 2025
User: LASERRRRR
Spectrometer: FLMT03099
Trigger mode: 0
Integration Time (sec): 1.500000E-2
Scans to average: 1
Electric dark correction enabled: true
Nonlinearity correction enabled: false
Boxcar width: 0
XAxis mode: Wavelengths
Number of Pixels in Spectrum: 3648
>>>>>Begin Spectral Data<<<<<
179.3399	-0.6387
179.5586	-0.6387
179.7771	-0.6387
179.9957	-0.0943
180.2143	-0.7112
180.4329	0.6599
180.6514	-0
180.8699	1.3538
181.0885	-0
181.307	0.0054
181.5255	0.1599
181.744	-0
181.9625	1.0447
182.181	-0.1555
182.3994	-0.4525
182.6179	-0.0261
182.8363	-0
183.0547	0.1527
183.2732	0.0394
183.4916	0.2603
183.71	0.2284
183.9284	0.5546
184.1467	0.9242
184.3651	0.1376
184.5835	0.1986
184.8018	0.0898
185.0201	0.2878
185.2385	0.3152
185.4568	0.2173
185.6751	0.1903
185.8934	0.3254
186.1117	-0.0459
186.3299	0.2493
186.5482	0.0899
186.7664	0.2671
186.9847	0.0317
187.2029	0.534
187.4211	0.3218
187.6393	0.1623
187.8575	0.3854
188.0757	0.4866
188.2939	0.0386
188.512	0.1508
188.7302	0.1939
188.9483	0.1017
189.1665	0.6535
189.3846	0.3688
189.6027	0.2041
189.8208	0.1792
190.0389	0.1494
190.257	0.1637
190.475	-0.0241
190.6931	0.2794
190.9111	0.0562
191.1292	0.1068
191.3472	0.0901
191.5652	1.0334
191.7832	0.3
192.0012	0.2136
192.2192	0.1376
192.4371	0.1222
192.6551	0.1877
192.873	0.2199
193.091	0.1266
193.3089	0.1848
193.5268	0.3389
193.7447	0.268
193.9626	0.1995
194.1805	0.2646
194.3984	0.223
194.6162	0.3079
194.8341	0.3181
195.0519	0.2142
195.2697	0.3255
195.4875	0.2403
195.7054	0.3238
195.9231	0.178
196.1409	0.351
196.3587	0.3055
196.5765	0.3482
196.7942	0.2893
197.012	0.3201
197.2297	0.3121
197.4474	0.3501
197.6651	0.3033
197.8828	0.3434
198.1005	0.3676
198.3182	0.4093
198.5358	0.3619
198.7535	0.416
198.9711	0.3528
199.1888	0.3385
199.4064	0.4142
199.624	0.4097
199.8416	0.4092
200.0592	0.3812
200.2767	0.3897
200.4943	0.4502
200.7119	0.4003
200.9294	0.4192
201.1469	0.4114
201.3645	0.4327
201.582	0.3889
201.7995	0.3992
202.017	0.413
202.2344	0.4085
202.4519	0.4087
202.6694	0.4066
202.8868	0.3813
203.1042	0.4811
203.3217	0.4223
203.5391	0.3851
203.7565	0.3742
203.9739	0.3792
204.1913	0.3463
204.4086	0.3538
204.626	0.3872
204.8433	0.3632
205.0607	0.3487
205.278	0.3338
205.4953	0.3682
205.7126	0.3631
205.9299	0.3368
206.1472	0.3319
206.3644	0.3593
206.5817	0.3324
206.7989	0.3279
207.0162	0.3279
207.2334	0.3401
207.4506	0.3104
207.6678	0.3048
207.885	0.2921
208.1022	0.3322
208.3194	0.2871
208.5365	0.3211
208.7537	0.308
208.9708	0.2926
209.1879	0.31
209.405	0.3185
209.6222	0.2945
209.8392	0.3306
210.0563	0.2726
210.2734	0.2683
210.4905	0.2851
210.7075	0.2796
210.9245	0.2559
211.1416	0.2701
211.3586	0.2557
211.5756	0.2487
211.7926	0.2583
212.0096	0.276
212.2265	0.2429
212.4435	0.2778
212.6604	0.257
212.8774	0.2572
213.0943	0.2587
213.3112	0.243
213.5281	0.2622
213.745	0.2479
213.9619	0.2412
214.1788	0.2808
214.3956	0.259
214.6125	0.2823
214.8293	0.2497
215.0461	0.2494
215.2629	0.2672
215.4798	0.2434
215.6965	0.2507
215.9133	0.2473
216.1301	0.2394
216.3469	0.2598
216.5636	0.2496
216.7803	0.2486
216.9971	0.2596
217.2138	0.2506
217.4305	0.2629
217.6472	0.2403
217.8639	0.2526
218.0805	0.2688
218.2972	0.2576
218.5138	0.2544
218.7305	0.2595
218.9471	0.2443
219.1637	0.2759
219.3803	0.2495
219.5969	0.2456
219.8135	0.2661
220.0301	0.2635
220.2466	0.2568
220.4632	0.2602
220.6797	0.2554
220.8962	0.2716
221.1127	0.2702
221.3292	0.2694
221.5457	0.2897
221.7622	0.2658
221.9787	0.2875
222.1951	0.2839
222.4116	0.2789
222.628	0.2929
222.8444	0.2769
223.0608	0.2841
223.2772	0.283
223.4936	0.2761
223.71	0.2873
223.9264	0.2908
224.1427	0.2927
224.3591	0.2902
224.5754	0.3006
224.7917	0.2931
225.008	0.2942
225.2243	0.3029
225.4406	0.2963
225.6569	0.3037
225.8732	0.3274
226.0894	0.3247
226.3057	0.3102
226.5219	0.332
226.7381	0.3291
226.9543	0.3206
227.1705	0.3249
227.3867	0.3301
227.6029	0.3343
227.8191	0.3438
228.0352	0.3482
228.2513	0.3576
228.4675	0.358
228.6836	0.3495
228.8997	0.3451
229.1158	0.3592
229.3319	0.3547
229.548	0.3554
229.764	0.356
229.9801	0.3779
230.1961	0.3683
230.4121	0.377
230.6282	0.3905
230.8442	0.3985
231.0602	0.3916
231.2761	0.3882
231.4921	0.392
231.7081	0.3949
231.924	0.3927
232.14	0.4009
232.3559	0.4
232.5718	0.4126
232.7877	0.417
233.0036	0.4063
233.2195	0.4113
233.4353	0.4216
233.6512	0.414
233.867	0.4256
234.0829	0.4275
234.2987	0.4212
234.5145	0.4336
234.7303	0.4324
234.9461	0.4352
235.1619	0.4448
235.3776	0.4379
235.5934	0.43
235.8091	0.4435
236.0249	0.448
236.2406	0.4433
236.4563	0.4514
236.672	0.4437
236.8877	0.4441
237.1034	0.4458
237.319	0.4534
237.5347	0.4518
237.7503	0.4476
237.966	0.4553
238.1816	0.4613
238.3972	0.4567
238.6128	0.4676
238.8284	0.4482
239.0439	0.4604
239.2595	0.4619
239.475	0.4532
239.6906	0.4636
239.9061	0.4558
240.1216	0.4654
240.3371	0.4589
240.5526	0.4623
240.7681	0.4569
240.9836	0.4483
241.199	0.4632
241.4145	0.4454
241.6299	0.4459
241.8453	0.436
242.0607	0.4386
242.2761	0.43
242.4915	0.419
242.7069	0.4183
242.9223	0.4139
243.1376	0.4058
243.353	0.4
243.5683	0.3942
243.7836	0.38
243.9989	0.3695
244.2142	0.3745
244.4295	0.3635
244.6448	0.3669
244.86	0.3498
245.0753	0.3329
245.2905	0.3386
245.5057	0.3264
245.721	0.33
245.9362	0.3251
246.1514	0.313
246.3665	0.3069
246.5817	0.2969
246.7969	0.2942
247.012	0.2854
247.2271	0.2934
247.4423	0.284
247.6574	0.2801
247.8725	0.2728
248.0876	0.2673
248.3026	0.2691
248.5177	0.2552
248.7328	0.2544
248.9478	0.2499
249.1628	0.2488
249.3779	0.2417
249.5929	0.2349
249.8079	0.2333
250.0228	0.2278
250.2378	0.2278
250.4528	0.2279
250.6677	0.2226
250.8827	0.2096
251.0976	0.2104
251.3125	0.2151
251.5274	0.2065
251.7423	0.2
251.9572	0.2035
252.172	0.2045
252.3869	0.2104
252.6017	0.201
252.8166	0.1971
253.0314	0.2013
253.2462	0.1988
253.461	0.1973
253.6758	0.1962
253.8906	0.1884
254.1053	0.1913
254.3201	0.1933
254.5348	0.179
254.7496	0.18
254.9643	0.1855
255.179	0.1844
255.3937	0.1842
255.6083	0.1897
255.823	0.1847
256.0377	0.1794
256.2523	0.1862
256.467	0.1849
256.6816	0.18
256.8962	0.1841
257.1108	0.1779
257.3254	0.1793
257.54	0.1792
257.7545	0.1817
257.9691	0.1809
258.1836	0.1754
258.3981	0.1786
258.6127	0.1729
258.8272	0.1778
259.0417	0.1673
259.2561	0.1797
259.4706	0.1751
259.6851	0.1739
259.8995	0.177
260.114	0.1747
260.3284	0.1701
260.5428	0.174
260.7572	0.1719
260.9716	0.1847
261.186	0.1648
261.4003	0.1761
261.6147	0.1688
261.829	0.175
262.0433	0.1786
262.2577	0.1715
262.472	0.1731
262.6863	0.1803
262.9005	0.1772
263.1148	0.1769
263.3291	0.181
263.5433	0.1804
263.7576	0.1779
263.9718	0.1736
264.186	0.1791
264.4002	0.1804
264.6144	0.1829
264.8286	0.1778
265.0427	0.1865
265.2569	0.1779
265.471	0.1735
265.6851	0.183
265.8993	0.1717
266.1134	0.1794
266.3275	0.1743
266.5415	0.1791
266.7556	0.1723
266.9697	0.1789
267.1837	0.1795
267.3978	0.173
267.6118	0.1741
267.8258	0.1796
268.0398	0.1782
268.2538	0.1791
268.4677	0.1725
268.6817	0.1747
268.8957	0.1673
269.1096	0.168
269.3235	0.1666
269.5374	0.1795
269.7514	0.1704
269.9652	0.1698
270.1791	0.1682
270.393	0.1742
270.6068	0.1685
270.8207	0.1654
271.0345	0.1653
271.2483	0.1642
271.4622	0.1701
271.676	0.165
271.8897	0.1681
272.1035	0.1778
272.3173	0.1656
272.531	0.1646
272.7448	0.1617
272.9585	0.1592
273.1722	0.1647
273.3859	0.1657
273.5996	0.1631
273.8133	0.1688
274.0269	0.1589
274.2406	0.1627
274.4542	0.1638
274.6679	0.1685
274.8815	0.1701
275.0951	0.1719
275.3087	0.1708
275.5223	0.1627
275.7358	0.1696
275.9494	0.1699
276.1629	0.175
276.3765	0.1661
276.59	0.1638
276.8035	0.1644
277.017	0.1717
277.2305	0.1703
277.444	0.1717
277.6574	0.1699
277.8709	0.178
278.0843	0.1746
278.2978	0.1757
278.5112	0.1764
278.7246	0.1721
278.938	0.1777
279.1513	0.1719
279.3647	0.1689
279.5781	0.172
279.7914	0.1717
280.0047	0.1715
280.2181	0.1739
280.4314	0.1705
280.6447	0.1762
280.8579	0.1706
281.0712	0.1745
281.2845	0.1768
281.4977	0.1791
281.711	0.1744
281.9242	0.1778
282.1374	0.1762
282.3506	0.1757
282.5638	0.1794
282.7769	0.175
282.9901	0.175
283.2033	0.1823
283.4164	0.1787
283.6295	0.1807
283.8426	0.1776
284.0557	0.1783
284.2688	0.1783
284.4819	0.1784
284.695	0.1863
284.908	0.1789
285.1211	0.1811
285.3341	0.1795
285.5471	0.1872
285.7601	0.1829
285.9731	0.186
286.1861	0.1896
286.3991	0.1894
286.612	0.1838
286.825	0.1884
287.0379	0.1876
287.2508	0.1875
287.4637	0.1903
287.6766	0.1902
287.8895	0.1878
288.1024	0.1865
288.3152	0.185
288.5281	0.1861
288.7409	0.1947
288.9538	0.1908
289.1666	0.1844
289.3794	0.1907
289.5922	0.1911
289.8049	0.1945
290.0177	0.1906
290.2304	0.1984
290.4432	0.1956
290.6559	0.1992
290.8686	0.1936
291.0813	0.1961
291.294	0.1922
291.5067	0.1928
291.7194	0.192
291.932	0.1941
292.1447	0.1942
292.3573	0.1961
292.5699	0.1947
292.7825	0.1916
292.9951	0.1904
293.2077	0.1913
293.4203	0.1907
293.6328	0.1883
293.8454	0.1957
294.0579	0.1876
294.2704	0.2
294.4829	0.1927
294.6954	0.1967
294.9079	0.1965
295.1204	0.1935
295.3328	0.1988
295.5453	0.1942
295.7577	0.1927
295.9701	0.1942
296.1825	0.1979
296.3949	0.1909
296.6073	0.1907
296.8197	0.1947
297.0321	0.1937
297.2444	0.189
297.4567	0.1985
297.6691	0.1938
297.8814	0.1948
298.0937	0.1912
298.306	0.1893
298.5182	0.1965
298.7305	0.1937
298.9428	0.1928
299.155	0.1886
299.3672	0.1898
299.5794	0.1962
299.7916	0.1891
300.0038	0.1914
300.216	0.1923
300.4282	0.1898
300.6403	0.1995
300.8525	0.1964
301.0646	0.1938
301.2767	0.1952
301.4888	0.1942
301.7009	0.1965
301.913	0.1944
302.125	0.193
302.3371	0.1904
302.5491	0.1949
302.7612	0.204
302.9732	0.1981
303.1852	0.1987
303.3972	0.1964
303.6092	0.1963
303.8211	0.1918
304.0331	0.1888
304.245	0.188
304.457	0.1895
304.6689	0.19
304.8808	0.1869
305.0927	0.1931
305.3046	0.1884
305.5164	0.1822
305.7283	0.1814
305.9401	0.1754
306.152	0.1819
306.3638	0.1806
306.5756	0.1848
306.7874	0.1729
306.9992	0.1806
307.2109	0.1743
307.4227	0.1701
307.6344	0.1724
307.8462	0.1673
308.0579	0.1734
308.2696	0.1657
308.4813	0.1667
308.693	0.1639
308.9046	0.163
309.1163	0.1611
309.328	0.1549
309.5396	0.1517
309.7512	0.1527
309.9628	0.1539
310.1744	0.1459
310.386	0.1454
310.5976	0.1422
310.8091	0.1496
311.0207	0.1488
311.2322	0.1409
311.4437	0.1416
311.6552	0.1457
311.8667	0.1477
312.0782	0.1406
312.2897	0.1422
312.5012	0.1371
312.7126	0.137
312.924	0.1394
313.1355	0.1284
313.3469	0.1321
313.5583	0.1309
313.7696	0.1282
313.981	0.1355
314.1924	0.1298
314.4037	0.1263
314.6151	0.1241
314.8264	0.1316
315.0377	0.1269
315.249	0.1265
315.4603	0.1173
315.6716	0.1232
315.8828	0.1265
316.0941	0.1299
316.3053	0.1192
316.5165	0.1246
316.7277	0.1238
316.9389	0.1177
317.1501	0.1264
317.3613	0.1227
317.5724	0.1245
317.7836	0.112
317.9947	0.1227
318.2058	0.1191
318.417	0.1153
318.6281	0.1159
318.8391	0.1194
319.0502	0.1232
319.2613	0.1193
319.4723	0.1185
319.6834	0.1223
319.8944	0.1188
320.1054	0.1171
320.3164	0.1166
320.5274	0.1187
320.7383	0.1209
320.9493	0.1224
321.1602	0.1171
321.3712	0.1232
321.5821	0.1154
321.793	0.124
322.0039	0.1163
322.2148	0.1199
322.4257	0.114
322.6365	0.1164
322.8474	0.1188
323.0582	0.1234
323.269	0.1191
323.4798	0.121
323.6906	0.1189
323.9014	0.1178
324.1122	0.1202
324.3229	0.1178
324.5337	0.1216
324.7444	0.1213
324.9551	0.1189
325.1658	0.1246
325.3765	0.1224
325.5872	0.126
325.7979	0.1265
326.0085	0.1234
326.2192	0.1238
326.4298	0.1262
326.6404	0.1318
326.851	0.1196
327.0616	0.126
327.2722	0.1252
327.4828	0.1267
327.6933	0.13
327.9039	0.1295
328.1144	0.1271
328.3249	0.1256
328.5354	0.1263
328.7459	0.1278
328.9564	0.1264
329.1669	0.1266
329.3773	0.1228
329.5878	0.1235
329.7982	0.1247
330.0086	0.1256
330.219	0.1263
330.4294	0.13
330.6398	0.1235
330.8502	0.1352
331.0605	0.126
331.2708	0.1238
331.4812	0.1257
331.6915	0.1259
331.9018	0.1277
332.1121	0.1321
332.3224	0.1288
332.5326	0.1245
332.7429	0.1263
332.9531	0.1303
333.1633	0.1274
333.3735	0.1235
333.5837	0.1314
333.7939	0.1332
334.0041	0.134
334.2143	0.1295
334.4244	0.1397
334.6346	0.1262
334.8447	0.1296
335.0548	0.1382
335.2649	0.1314
335.475	0.1328
335.685	0.1352
335.8951	0.1239
336.1051	0.1383
336.3152	0.1365
336.5252	0.1369
336.7352	0.1294
336.9452	0.1323
337.1552	0.1414
337.3652	0.1273
337.5751	0.1318
337.7851	0.1397
337.995	0.1385
338.2049	0.1356
338.4148	0.1368
338.6247	0.1366
338.8346	0.1379
339.0445	0.1429
339.2543	0.1337
339.4642	0.1347
339.674	0.1361
339.8838	0.1388
340.0936	0.1415
340.3034	0.1304
340.5132	0.1376
340.7229	0.1397
340.9327	0.1495
341.1424	0.1366
341.3522	0.1343
341.5619	0.1475
341.7716	0.1472
341.9813	0.1458
342.1909	0.1432
342.4006	0.1421
342.6102	0.1462
342.8199	0.1494
343.0295	0.1423
343.2391	0.1463
343.4487	0.1494
343.6583	0.156
343.8679	0.1448
344.0774	0.1418
344.287	0.1454
344.4965	0.1453
344.706	0.1469
344.9155	0.1499
345.125	0.1478
345.3345	0.1645
345.544	0.1508
345.7534	0.1524
345.9629	0.1575
346.1723	0.1584
346.3817	0.1526
346.5911	0.1519
346.8005	0.1592
347.0099	0.1553
347.2193	0.1643
347.4286	0.1694
347.638	0.1583
347.8473	0.1615
348.0566	0.1614
348.2659	0.1607
348.4752	0.1644
348.6845	0.1667
348.8937	0.1656
349.103	0.1673
349.3122	0.1669
349.5214	0.1716
349.7306	0.1685
349.9398	0.1669
350.149	0.1615
350.3582	0.1717
350.5674	0.1693
350.7765	0.1721
350.9856	0.1693
351.1948	0.1719
351.4039	0.1708
351.613	0.1657
351.822	0.1791
352.0311	0.1736
352.2402	0.1714
352.4492	0.1752
352.6582	0.1865
352.8672	0.1719
353.0762	0.1798
353.2852	0.1744
353.4942	0.1852
353.7032	0.1783
353.9121	0.177
354.1211	0.1875
354.33	0.1845
354.5389	0.1823
354.7478	0.1827
354.9567	0.1858
355.1655	0.1854
355.3744	0.1823
355.5833	0.186
355.7921	0.1968
356.0009	0.1873
356.2097	0.1829
356.4185	0.1863
356.6273	0.1871
356.8361	0.1883
357.0448	0.1884
357.2536	0.1858
357.4623	0.1852
357.671	0.1879
357.8797	0.1925
358.0884	0.1969
358.2971	0.195
358.5057	0.2017
358.7144	0.2033
358.923	0.2031
359.1316	0.2001
359.3402	0.2025
359.5488	0.1999
359.7574	0.2036
359.966	0.1959
360.1746	0.2037
360.3831	0.2105
360.5916	0.207
360.8002	0.2107
361.0087	0.2078
361.2172	0.2141
361.4256	0.2162
361.6341	0.2168
361.8426	0.2128
362.051	0.2159
362.2594	0.2132
362.4678	0.2102
362.6762	0.217
362.8846	0.222
363.093	0.2218
363.3014	0.2225
363.5097	0.2161
363.718	0.2271
363.9264	0.2208
364.1347	0.2237
364.343	0.234
364.5513	0.2307
364.7595	0.2291
364.9678	0.2304
365.176	0.2274
365.3842	0.2384
365.5925	0.2297
365.8007	0.2342
366.0089	0.2368
366.217	0.2281
366.4252	0.2341
366.6333	0.2464
366.8415	0.2361
367.0496	0.2383
367.2577	0.2372
367.4658	0.2349
367.6739	0.2363
367.882	0.2485
368.09	0.2358
368.2981	0.246
368.5061	0.2415
368.7141	0.244
368.9221	0.2588
369.1301	0.2501
369.3381	0.253
369.5461	0.2608
369.754	0.2566
369.962	0.2495
370.1699	0.2616
370.3778	0.2645
370.5857	0.2552
370.7936	0.2655
371.0015	0.258
371.2093	0.2502
371.4172	0.2604
371.625	0.2639
371.8328	0.2522
372.0406	0.2676
372.2484	0.256
372.4562	0.2687
372.664	0.2655
372.8717	0.2636
373.0795	0.2713
373.2872	0.27
373.4949	0.271
373.7026	0.2697
373.9103	0.2615
374.118	0.2724
374.3256	0.2714
374.5333	0.2681
374.7409	0.2797
374.9485	0.2778
375.1561	0.27
375.3637	0.2812
375.5713	0.2889
375.7789	0.2705
375.9864	0.2743
376.194	0.2927
376.4015	0.2836
376.609	0.2858
376.8165	0.2892
377.024	0.2789
377.2315	0.2846
377.4389	0.2811
377.6464	0.2895
377.8538	0.2899
378.0612	0.2874
378.2686	0.2899
378.476	0.2951
378.6834	0.2858
378.8908	0.2984
379.0981	0.2986
379.3055	0.2956
379.5128	0.2955
379.7201	0.2913
379.9274	0.2983
380.1347	0.3
380.342	0.3033
380.5492	0.2934
380.7565	0.3017
380.9637	0.3087
381.1709	0.2965
381.3781	0.3001
381.5853	0.2971
381.7925	0.3007
381.9997	0.3039
382.2068	0.3042
382.4139	0.3038
382.6211	0.3051
382.8282	0.3104
383.0353	0.3193
383.2424	0.3013
383.4494	0.3106
383.6565	0.3047
383.8635	0.3129
384.0706	0.3194
384.2776	0.3106
384.4846	0.308
384.6916	0.3043
384.8986	0.313
385.1055	0.321
385.3125	0.3114
385.5194	0.3255
385.7263	0.3091
385.9333	0.3164
386.1402	0.3076
386.347	0.3124
386.5539	0.3092
386.7608	0.3195
386.9676	0.3027
387.1744	0.3102
387.3813	0.3124
387.5881	0.306
387.7948	0.3237
388.0016	0.3205
388.2084	0.307
388.4151	0.3139
388.6219	0.3037
388.8286	0.3129
389.0353	0.3157
389.242	0.308
389.4487	0.3004
389.6553	0.2937
389.862	0.3042
390.0686	0.3151
390.2753	0.3053
390.4819	0.3176
390.6885	0.309
390.8951	0.2985
391.1016	0.2997
391.3082	0.2996
391.5147	0.2918
391.7213	0.3088
391.9278	0.2897
392.1343	0.2967
392.3408	0.2999
392.5473	0.2906
392.7537	0.3051
392.9602	0.2909
393.1666	0.2867
393.373	0.2804
393.5794	0.2959
393.7858	0.293
393.9922	0.2824
394.1986	0.281
394.4049	0.2831
394.6113	0.2841
394.8176	0.2908
395.0239	0.2772
395.2302	0.2757
395.4365	0.2798
395.6428	0.2811
395.8491	0.2796
396.0553	0.2716
396.2615	0.2758
396.4678	0.2877
396.674	0.2653
396.8802	0.2638
397.0863	0.262
397.2925	0.2678
397.4987	0.2651
397.7048	0.2806
397.9109	0.2609
398.117	0.2582
398.3231	0.2636
398.5292	0.2642
398.7353	0.2608
398.9413	0.2704
399.1474	0.2749
399.3534	0.2738
399.5594	0.2682
399.7654	0.2644
399.9714	0.2681
400.1774	0.2664
400.3833	0.2562
400.5893	0.2703
400.7952	0.2727
401.0011	0.2639
401.207	0.2643
401.4129	0.274
401.6188	0.2669
401.8247	0.2719
402.0305	0.2634
402.2364	0.2688
402.4422	0.2636
402.648	0.2661
402.8538	0.2629
403.0596	0.2527
403.2654	0.2674
403.4711	0.2552
403.6768	0.2557
403.8826	0.2693
404.0883	0.2673
404.294	0.2675
404.4997	0.2668
404.7054	0.2644
404.911	0.2669
405.1167	0.2679
405.3223	0.2554
405.5279	0.2599
405.7335	0.2645
405.9391	0.2607
406.1447	0.2678
406.3502	0.2645
406.5558	0.2648
406.7613	0.2644
406.9668	0.2651
407.1724	0.259
407.3778	0.2644
407.5833	0.2529
407.7888	0.2694
407.9942	0.2635
408.1997	0.265
408.4051	0.2665
408.6105	0.2657
408.8159	0.2596
409.0213	0.2705
409.2267	0.2717
409.432	0.253
409.6374	0.2803
409.8427	0.2726
410.048	0.2746
410.2533	0.2583
410.4586	0.2539
410.6639	0.2714
410.8691	0.2538
411.0744	0.2655
411.2796	0.2615
411.4848	0.2669
411.69	0.2571
411.8952	0.2593
412.1004	0.2581
412.3056	0.2649
412.5107	0.2578
412.7158	0.2752
412.921	0.2643
413.1261	0.251
413.3312	0.2549
413.5362	0.2751
413.7413	0.2677
413.9464	0.253
414.1514	0.2599
414.3564	0.2674
414.5614	0.2492
414.7664	0.2522
414.9714	0.2507
415.1764	0.2648
415.3813	0.2607
415.5863	0.2635
415.7912	0.2557
415.9961	0.261
416.201	0.2615
416.4059	0.2617
416.6108	0.2539
416.8156	0.252
417.0205	0.2555
417.2253	0.2547
417.4301	0.2649
417.6349	0.2424
417.8397	0.2573
418.0445	0.2525
418.2492	0.2567
418.454	0.2658
418.6587	0.2572
418.8634	0.251
419.0681	0.2534
419.2728	0.2466
419.4775	0.2668
419.6822	0.2588
419.8868	0.2483
420.0915	0.2486
420.2961	0.25
420.5007	0.2583
420.7053	0.2453
420.9099	0.2487
421.1144	0.2406
421.319	0.2346
421.5235	0.2342
421.728	0.2508
421.9325	0.2385
422.137	0.247
422.3415	0.2327
422.546	0.2351
422.7504	0.2338
422.9549	0.2419
423.1593	0.2352
423.3637	0.2357
423.5681	0.2395
423.7725	0.2363
423.9769	0.2448
424.1812	0.2283
424.3856	0.2299
424.5899	0.2236
424.7942	0.2308
424.9985	0.2298
425.2028	0.2375
425.4071	0.2363
425.6113	0.2284
425.8156	0.217
426.0198	0.2251
426.224	0.2321
426.4282	0.2128
426.6324	0.2172
426.8366	0.2094
