Data from D4ACN5uM460nmA_Absorbance_13-05-41-570.txt Node
Date: Fri Feb 21 13:05:41 GMT 2025
User: LASERRRRR
Spectrometer: FLMT03099
Trigger mode: 0
Integration Time (sec): 1.500000E-2
Scans to average: 1
Electric dark correction enabled: true
Nonlinearity correction enabled: false
Boxcar width: 0
XAxis mode: Wavelengths
Number of Pixels in Spectrum: 3648
>>>>>Begin Spectral Data<<<<<
179.3399	-0.0187
179.5586	-0.0187
179.7771	-0.0187
179.9957	-0
180.2143	-0
180.4329	-0
180.6514	-0
180.8699	-0
181.0885	-0.1481
181.307	0.2
181.5255	0.6659
181.744	-0
181.9625	0.74
182.181	0.2013
182.3994	-0.3355
182.6179	-0.4588
182.8363	-0
183.0547	0.2644
183.2732	0.0947
183.4916	0.2494
183.71	0.4461
183.9284	0.1291
184.1467	0.1979
184.3651	0.1097
184.5835	0.1709
184.8018	-0.0013
185.0201	0.1929
185.2385	0.2795
185.4568	0.2231
185.6751	0.0438
185.8934	0.006
186.1117	-0.0557
186.3299	0.1635
186.5482	0.5243
186.7664	0.1898
186.9847	-0.0578
187.2029	0.0572
187.4211	0.1287
187.6393	0.0388
187.8575	0.1806
188.0757	0.3972
188.2939	0.1381
188.512	0.1637
188.7302	0.2164
188.9483	0.195
189.1665	1.4803
189.3846	0.3132
189.6027	0.1223
189.8208	0.3148
190.0389	0.2556
190.257	0.124
190.475	0.3362
190.6931	0.0658
190.9111	0.135
191.1292	0.104
191.3472	0.1394
191.5652	0.0159
191.7832	0.2454
192.0012	0.2066
192.2192	0.2702
192.4371	0.222
192.6551	0.2243
192.873	0.1139
193.091	0.0941
193.3089	0.2231
193.5268	0.1653
193.7447	0.1124
193.9626	0.1882
194.1805	0.2241
194.3984	0.1727
194.6162	0.1644
194.8341	0.2915
195.0519	0.1769
195.2697	0.2942
195.4875	0.3637
195.7054	0.2596
195.9231	0.2155
196.1409	0.3735
196.3587	0.3056
196.5765	0.3195
196.7942	0.2526
197.012	0.4009
197.2297	0.3595
197.4474	0.3577
197.6651	0.2638
197.8828	0.3015
198.1005	0.369
198.3182	0.4658
198.5358	0.3791
198.7535	0.3314
198.9711	0.3768
199.1888	0.3364
199.4064	0.4167
199.624	0.4122
199.8416	0.407
200.0592	0.3534
200.2767	0.3938
200.4943	0.5048
200.7119	0.4023
200.9294	0.4173
201.1469	0.4269
201.3645	0.3999
201.582	0.429
201.7995	0.3833
202.017	0.4485
202.2344	0.4226
202.4519	0.4136
202.6694	0.4325
202.8868	0.4281
203.1042	0.4066
203.3217	0.405
203.5391	0.4029
203.7565	0.3669
203.9739	0.362
204.1913	0.3609
204.4086	0.3779
204.626	0.3708
204.8433	0.3965
205.0607	0.351
205.278	0.349
205.4953	0.3722
205.7126	0.3335
205.9299	0.2878
206.1472	0.3345
206.3644	0.3456
206.5817	0.3575
206.7989	0.3537
207.0162	0.3514
207.2334	0.3724
207.4506	0.3312
207.6678	0.3052
207.885	0.3121
208.1022	0.315
208.3194	0.2972
208.5365	0.3278
208.7537	0.2904
208.9708	0.2946
209.1879	0.2985
209.405	0.2918
209.6222	0.2805
209.8392	0.3098
210.0563	0.286
210.2734	0.2676
210.4905	0.2698
210.7075	0.2948
210.9245	0.268
211.1416	0.2916
211.3586	0.2576
211.5756	0.2445
211.7926	0.2598
212.0096	0.2835
212.2265	0.2674
212.4435	0.2562
212.6604	0.2652
212.8774	0.261
213.0943	0.272
213.3112	0.265
213.5281	0.2557
213.745	0.2487
213.9619	0.2544
214.1788	0.2529
214.3956	0.2374
214.6125	0.2525
214.8293	0.2492
215.0461	0.2499
215.2629	0.2463
215.4798	0.2563
215.6965	0.2539
215.9133	0.2491
216.1301	0.2611
216.3469	0.2602
216.5636	0.2634
216.7803	0.2656
216.9971	0.2697
217.2138	0.2624
217.4305	0.2573
217.6472	0.2526
217.8639	0.2584
218.0805	0.2528
218.2972	0.2437
218.5138	0.2544
218.7305	0.2603
218.9471	0.261
219.1637	0.2849
219.3803	0.2643
219.5969	0.2549
219.8135	0.262
220.0301	0.2556
220.2466	0.2653
220.4632	0.269
220.6797	0.2599
220.8962	0.2753
221.1127	0.2705
221.3292	0.2676
221.5457	0.2675
221.7622	0.2723
221.9787	0.2875
222.1951	0.2832
222.4116	0.2785
222.628	0.2882
222.8444	0.2911
223.0608	0.283
223.2772	0.2885
223.4936	0.2861
223.71	0.2923
223.9264	0.2908
224.1427	0.2825
224.3591	0.3011
224.5754	0.2851
224.7917	0.2825
225.008	0.3014
225.2243	0.306
225.4406	0.2972
225.6569	0.3107
225.8732	0.3102
226.0894	0.3072
226.3057	0.3174
226.5219	0.3269
226.7381	0.3302
226.9543	0.3221
227.1705	0.3216
227.3867	0.321
227.6029	0.3373
227.8191	0.3322
228.0352	0.3467
228.2513	0.3512
228.4675	0.3501
228.6836	0.3518
228.8997	0.3527
229.1158	0.3555
229.3319	0.3577
229.548	0.349
229.764	0.3521
229.9801	0.3715
230.1961	0.3703
230.4121	0.3693
230.6282	0.3882
230.8442	0.3935
231.0602	0.3778
231.2761	0.3886
231.4921	0.3883
231.7081	0.3931
231.924	0.4038
232.14	0.4026
232.3559	0.4023
232.5718	0.4251
232.7877	0.4037
233.0036	0.4051
233.2195	0.4112
233.4353	0.4145
233.6512	0.4079
233.867	0.429
234.0829	0.4182
234.2987	0.4234
234.5145	0.431
234.7303	0.4295
234.9461	0.4372
235.1619	0.4428
235.3776	0.4325
235.5934	0.4315
235.8091	0.4483
236.0249	0.4354
236.2406	0.4462
236.4563	0.45
236.672	0.4419
236.8877	0.4437
237.1034	0.4424
237.319	0.4454
237.5347	0.4419
237.7503	0.445
237.966	0.4676
238.1816	0.4474
238.3972	0.4636
238.6128	0.4567
238.8284	0.4607
239.0439	0.4637
239.2595	0.4631
239.475	0.4602
239.6906	0.4605
239.9061	0.4668
240.1216	0.4631
240.3371	0.4618
240.5526	0.4601
240.7681	0.4524
240.9836	0.4655
241.199	0.4488
241.4145	0.4535
241.6299	0.4464
241.8453	0.4483
242.0607	0.4438
242.2761	0.4418
242.4915	0.4285
242.7069	0.4166
242.9223	0.412
243.1376	0.4068
243.353	0.403
243.5683	0.3953
243.7836	0.3911
243.9989	0.3684
244.2142	0.3731
244.4295	0.3702
244.6448	0.3646
244.86	0.3497
245.0753	0.3394
245.2905	0.336
245.5057	0.3285
245.721	0.3265
245.9362	0.322
246.1514	0.3201
246.3665	0.3067
246.5817	0.3003
246.7969	0.2981
247.012	0.2856
247.2271	0.2938
247.4423	0.2828
247.6574	0.2787
247.8725	0.268
248.0876	0.2654
248.3026	0.266
248.5177	0.2587
248.7328	0.2508
248.9478	0.2495
249.1628	0.2482
249.3779	0.2382
249.5929	0.238
249.8079	0.2385
250.0228	0.2299
250.2378	0.2297
250.4528	0.2244
250.6677	0.2147
250.8827	0.2166
251.0976	0.2121
251.3125	0.2145
251.5274	0.2092
251.7423	0.2096
251.9572	0.202
252.172	0.2055
252.3869	0.2093
252.6017	0.1976
252.8166	0.1969
253.0314	0.1963
253.2462	0.1918
253.461	0.1908
253.6758	0.1932
253.8906	0.1944
254.1053	0.1866
254.3201	0.1925
254.5348	0.1806
254.7496	0.1816
254.9643	0.194
255.179	0.1885
255.3937	0.1847
255.6083	0.196
255.823	0.1836
256.0377	0.1826
256.2523	0.1811
256.467	0.1869
256.6816	0.1811
256.8962	0.1831
257.1108	0.182
257.3254	0.1798
257.54	0.1759
257.7545	0.1795
257.9691	0.1765
258.1836	0.173
258.3981	0.1785
258.6127	0.1738
258.8272	0.1802
259.0417	0.1722
259.2561	0.1721
259.4706	0.1756
259.6851	0.1782
259.8995	0.1768
260.114	0.179
260.3284	0.1715
260.5428	0.1719
260.7572	0.1718
260.9716	0.1781
261.186	0.1712
261.4003	0.1766
261.6147	0.1782
261.829	0.1766
262.0433	0.1802
262.2577	0.1784
262.472	0.1705
262.6863	0.1802
262.9005	0.1753
263.1148	0.1711
263.3291	0.1779
263.5433	0.1771
263.7576	0.1785
263.9718	0.1799
264.186	0.1748
264.4002	0.1802
264.6144	0.1782
264.8286	0.1802
265.0427	0.1828
265.2569	0.1749
265.471	0.1821
265.6851	0.1822
265.8993	0.1765
266.1134	0.1788
266.3275	0.1698
266.5415	0.1795
266.7556	0.1827
266.9697	0.1782
267.1837	0.1797
267.3978	0.1753
267.6118	0.1723
267.8258	0.1776
268.0398	0.1748
268.2538	0.1813
268.4677	0.1728
268.6817	0.1723
268.8957	0.1677
269.1096	0.1641
269.3235	0.1724
269.5374	0.1722
269.7514	0.1748
269.9652	0.1688
270.1791	0.1651
270.393	0.1689
270.6068	0.1687
270.8207	0.1624
271.0345	0.1632
271.2483	0.1635
271.4622	0.1698
271.676	0.1669
271.8897	0.1628
272.1035	0.1734
272.3173	0.1683
272.531	0.1675
272.7448	0.1655
272.9585	0.1614
273.1722	0.1638
273.3859	0.1652
273.5996	0.1671
273.8133	0.1688
274.0269	0.1618
274.2406	0.1665
274.4542	0.1653
274.6679	0.1699
274.8815	0.1707
275.0951	0.1711
275.3087	0.1728
275.5223	0.1675
275.7358	0.1647
275.9494	0.1714
276.1629	0.1724
276.3765	0.1711
276.59	0.1695
276.8035	0.1622
277.017	0.1771
277.2305	0.1723
277.444	0.1684
277.6574	0.1695
277.8709	0.1769
278.0843	0.1729
278.2978	0.1729
278.5112	0.1717
278.7246	0.1717
278.938	0.1737
279.1513	0.1777
279.3647	0.1743
279.5781	0.173
279.7914	0.1699
280.0047	0.1731
280.2181	0.1744
280.4314	0.1741
280.6447	0.1814
280.8579	0.1733
281.0712	0.1714
281.2845	0.1765
281.4977	0.1771
281.711	0.1742
281.9242	0.1795
282.1374	0.1741
282.3506	0.1755
282.5638	0.1796
282.7769	0.1747
282.9901	0.1778
283.2033	0.1803
283.4164	0.1762
283.6295	0.1784
283.8426	0.1818
284.0557	0.1814
284.2688	0.1834
284.4819	0.1765
284.695	0.1883
284.908	0.1829
285.1211	0.1869
285.3341	0.1804
285.5471	0.1832
285.7601	0.1815
285.9731	0.1848
286.1861	0.1843
286.3991	0.1878
286.612	0.1873
286.825	0.1891
287.0379	0.1896
287.2508	0.1872
287.4637	0.1855
287.6766	0.1876
287.8895	0.1873
288.1024	0.1955
288.3152	0.1943
288.5281	0.1853
288.7409	0.1874
288.9538	0.1906
289.1666	0.1864
289.3794	0.1888
289.5922	0.1863
289.8049	0.1884
290.0177	0.1908
290.2304	0.1864
290.4432	0.1959
290.6559	0.1884
290.8686	0.1878
291.0813	0.1975
291.294	0.1928
291.5067	0.1841
291.7194	0.1928
291.932	0.192
292.1447	0.194
292.3573	0.1959
292.5699	0.1971
292.7825	0.1897
292.9951	0.1931
293.2077	0.1919
293.4203	0.1897
293.6328	0.192
293.8454	0.1944
294.0579	0.1953
294.2704	0.197
294.4829	0.1872
294.6954	0.1963
294.9079	0.1964
295.1204	0.1851
295.3328	0.1967
295.5453	0.1932
295.7577	0.1961
295.9701	0.1964
296.1825	0.1989
296.3949	0.193
296.6073	0.1878
296.8197	0.1894
297.0321	0.1981
297.2444	0.1824
297.4567	0.1953
297.6691	0.1968
297.8814	0.1939
298.0937	0.1931
298.306	0.1922
298.5182	0.1925
298.7305	0.1954
298.9428	0.1923
299.155	0.1902
299.3672	0.1904
299.5794	0.1972
299.7916	0.1943
300.0038	0.1891
300.216	0.1876
300.4282	0.1911
300.6403	0.1939
300.8525	0.1948
301.0646	0.1963
301.2767	0.1947
301.4888	0.1883
301.7009	0.198
301.913	0.1937
302.125	0.1911
302.3371	0.1964
302.5491	0.1962
302.7612	0.196
302.9732	0.1965
303.1852	0.1885
303.3972	0.1974
303.6092	0.1919
303.8211	0.1938
304.0331	0.1923
304.245	0.1888
304.457	0.1893
304.6689	0.1878
304.8808	0.182
305.0927	0.1893
305.3046	0.1877
305.5164	0.1836
305.7283	0.185
305.9401	0.1736
306.152	0.185
306.3638	0.1789
306.5756	0.1855
306.7874	0.1748
306.9992	0.1734
307.2109	0.1734
307.4227	0.1699
307.6344	0.1766
307.8462	0.1712
308.0579	0.1703
308.2696	0.1694
308.4813	0.1685
308.693	0.1613
308.9046	0.1664
309.1163	0.1533
309.328	0.1555
309.5396	0.1522
309.7512	0.1493
309.9628	0.1466
310.1744	0.154
310.386	0.1468
310.5976	0.1449
310.8091	0.1478
311.0207	0.1434
311.2322	0.1397
311.4437	0.1447
311.6552	0.1409
311.8667	0.1397
312.0782	0.1347
312.2897	0.1446
312.5012	0.1401
312.7126	0.1337
312.924	0.1341
313.1355	0.1305
313.3469	0.1339
313.5583	0.1368
313.7696	0.1272
313.981	0.1343
314.1924	0.1237
314.4037	0.1272
314.6151	0.1241
314.8264	0.1301
315.0377	0.1282
315.249	0.1315
315.4603	0.1245
315.6716	0.1276
315.8828	0.1235
316.0941	0.1213
316.3053	0.1224
316.5165	0.1245
316.7277	0.1213
316.9389	0.1225
317.1501	0.1236
317.3613	0.1157
317.5724	0.1206
317.7836	0.1176
317.9947	0.119
318.2058	0.1222
318.417	0.1201
318.6281	0.1171
318.8391	0.1246
319.0502	0.1253
319.2613	0.1219
319.4723	0.1169
319.6834	0.1225
319.8944	0.1139
320.1054	0.1213
320.3164	0.1171
320.5274	0.1138
320.7383	0.1202
320.9493	0.1178
321.1602	0.1243
321.3712	0.1199
321.5821	0.1142
321.793	0.1224
322.0039	0.1216
322.2148	0.118
322.4257	0.1182
322.6365	0.1165
322.8474	0.1215
323.0582	0.1266
323.269	0.126
323.4798	0.1252
323.6906	0.1133
323.9014	0.1187
324.1122	0.1184
324.3229	0.1224
324.5337	0.1176
324.7444	0.1201
324.9551	0.1188
325.1658	0.1217
325.3765	0.1248
325.5872	0.1284
325.7979	0.1235
326.0085	0.1158
326.2192	0.1216
326.4298	0.1282
326.6404	0.1265
326.851	0.1218
327.0616	0.1192
327.2722	0.1249
327.4828	0.1264
327.6933	0.1361
327.9039	0.1218
328.1144	0.1226
328.3249	0.128
328.5354	0.1227
328.7459	0.1277
328.9564	0.1268
329.1669	0.1286
329.3773	0.1264
329.5878	0.1283
329.7982	0.1268
330.0086	0.1292
330.219	0.1258
330.4294	0.1277
330.6398	0.1269
330.8502	0.1272
331.0605	0.128
331.2708	0.1288
331.4812	0.1268
331.6915	0.1312
331.9018	0.1268
332.1121	0.1382
332.3224	0.1313
332.5326	0.1214
332.7429	0.1261
332.9531	0.1317
333.1633	0.1307
333.3735	0.1239
333.5837	0.1357
333.7939	0.1321
334.0041	0.1342
334.2143	0.1269
334.4244	0.1344
334.6346	0.1345
334.8447	0.1269
335.0548	0.1316
335.2649	0.1344
335.475	0.1352
335.685	0.1283
335.8951	0.1368
336.1051	0.133
336.3152	0.1368
336.5252	0.1404
336.7352	0.1371
336.9452	0.1301
337.1552	0.1359
337.3652	0.1322
337.5751	0.1353
337.7851	0.134
337.995	0.1366
338.2049	0.1342
338.4148	0.1392
338.6247	0.133
338.8346	0.135
339.0445	0.1414
339.2543	0.1306
339.4642	0.1361
339.674	0.1311
339.8838	0.1401
340.0936	0.1333
340.3034	0.1366
340.5132	0.135
340.7229	0.1364
340.9327	0.1485
341.1424	0.1389
341.3522	0.137
341.5619	0.1375
341.7716	0.1404
341.9813	0.148
342.1909	0.1415
342.4006	0.1439
342.6102	0.1439
342.8199	0.1408
343.0295	0.1431
343.2391	0.1433
343.4487	0.1427
343.6583	0.153
343.8679	0.1402
344.0774	0.1446
344.287	0.1472
344.4965	0.1524
344.706	0.1476
344.9155	0.1455
345.125	0.1506
345.3345	0.1567
345.544	0.1412
345.7534	0.1526
345.9629	0.156
346.1723	0.1554
346.3817	0.155
346.5911	0.1562
346.8005	0.159
347.0099	0.161
347.2193	0.1647
347.4286	0.1607
347.638	0.1573
347.8473	0.164
348.0566	0.1583
348.2659	0.161
348.4752	0.1594
348.6845	0.1578
348.8937	0.1628
349.103	0.1628
349.3122	0.1632
349.5214	0.1671
349.7306	0.1675
349.9398	0.1659
350.149	0.1636
350.3582	0.1701
350.5674	0.1715
350.7765	0.1726
350.9856	0.1694
351.1948	0.1744
351.4039	0.172
351.613	0.1751
351.822	0.1755
352.0311	0.173
352.2402	0.176
352.4492	0.1736
352.6582	0.1858
352.8672	0.1825
353.0762	0.1799
353.2852	0.1825
353.4942	0.1823
353.7032	0.1727
353.9121	0.1753
354.1211	0.1799
354.33	0.1784
354.5389	0.1827
354.7478	0.1821
354.9567	0.1822
355.1655	0.1855
355.3744	0.1839
355.5833	0.1815
355.7921	0.1891
356.0009	0.188
356.2097	0.1814
356.4185	0.1923
356.6273	0.1909
356.8361	0.1885
357.0448	0.1861
357.2536	0.1987
357.4623	0.1919
357.671	0.1946
357.8797	0.1926
358.0884	0.1882
358.2971	0.1912
358.5057	0.2
358.7144	0.1953
358.923	0.2016
359.1316	0.1951
359.3402	0.1922
359.5488	0.1975
359.7574	0.2012
359.966	0.2009
360.1746	0.2016
360.3831	0.216
360.5916	0.2034
360.8002	0.2107
361.0087	0.2064
361.2172	0.2088
361.4256	0.2137
361.6341	0.2101
361.8426	0.211
362.051	0.2122
362.2594	0.2098
362.4678	0.2238
362.6762	0.2265
362.8846	0.2137
363.093	0.2145
363.3014	0.2254
363.5097	0.2243
363.718	0.227
363.9264	0.2208
364.1347	0.2305
364.343	0.2311
364.5513	0.2211
364.7595	0.2274
364.9678	0.225
365.176	0.2319
365.3842	0.2359
365.5925	0.2294
365.8007	0.2279
366.0089	0.2413
366.217	0.2414
366.4252	0.2372
366.6333	0.2372
366.8415	0.2462
367.0496	0.2344
367.2577	0.2409
367.4658	0.2348
367.6739	0.2309
367.882	0.2459
368.09	0.2431
368.2981	0.2447
368.5061	0.2458
368.7141	0.2453
368.9221	0.2561
369.1301	0.2518
369.3381	0.2569
369.5461	0.2519
369.754	0.2585
369.962	0.2531
370.1699	0.261
370.3778	0.2659
370.5857	0.2552
370.7936	0.2585
371.0015	0.2544
371.2093	0.2579
371.4172	0.2518
371.625	0.2617
371.8328	0.2575
372.0406	0.2687
372.2484	0.2662
372.4562	0.2574
372.664	0.2665
372.8717	0.2668
373.0795	0.2681
373.2872	0.2741
373.4949	0.268
373.7026	0.27
373.9103	0.2657
374.118	0.2716
374.3256	0.2737
374.5333	0.2728
374.7409	0.2677
374.9485	0.2738
375.1561	0.2721
375.3637	0.2738
375.5713	0.2804
375.7789	0.2743
375.9864	0.2744
376.194	0.2888
376.4015	0.2838
376.609	0.2834
376.8165	0.286
377.024	0.2795
377.2315	0.287
377.4389	0.2746
377.6464	0.2838
377.8538	0.2907
378.0612	0.2889
378.2686	0.2886
378.476	0.292
378.6834	0.2901
378.8908	0.2984
379.0981	0.293
379.3055	0.289
379.5128	0.2884
379.7201	0.2938
379.9274	0.2937
380.1347	0.2965
380.342	0.2972
380.5492	0.294
380.7565	0.2999
380.9637	0.3016
381.1709	0.2952
381.3781	0.2982
381.5853	0.2989
381.7925	0.2973
381.9997	0.3127
382.2068	0.307
382.4139	0.3005
382.6211	0.3007
382.8282	0.3193
383.0353	0.3127
383.2424	0.3077
383.4494	0.2983
383.6565	0.3093
383.8635	0.2995
384.0706	0.3073
384.2776	0.3022
384.4846	0.3183
384.6916	0.3108
384.8986	0.3015
385.1055	0.3175
385.3125	0.3165
385.5194	0.3083
385.7263	0.3082
385.9333	0.3015
386.1402	0.3138
386.347	0.3091
386.5539	0.3122
386.7608	0.3103
386.9676	0.3058
387.1744	0.3124
387.3813	0.3151
387.5881	0.3067
387.7948	0.3211
388.0016	0.3117
388.2084	0.3086
388.4151	0.3178
388.6219	0.3063
388.8286	0.3064
389.0353	0.3077
389.242	0.3145
389.4487	0.2996
389.6553	0.3053
389.862	0.3016
390.0686	0.3165
390.2753	0.2988
390.4819	0.3072
390.6885	0.2969
390.8951	0.297
391.1016	0.301
391.3082	0.3018
391.5147	0.2962
391.7213	0.2955
391.9278	0.3005
392.1343	0.2894
392.3408	0.2946
392.5473	0.2873
392.7537	0.2972
392.9602	0.2779
393.1666	0.2928
393.373	0.2831
393.5794	0.2806
393.7858	0.2945
393.9922	0.2839
394.1986	0.281
394.4049	0.2775
394.6113	0.2847
394.8176	0.287
395.0239	0.2758
395.2302	0.2772
395.4365	0.2837
395.6428	0.2787
395.8491	0.2791
396.0553	0.2711
396.2615	0.2754
396.4678	0.2776
396.674	0.2683
396.8802	0.2695
397.0863	0.2734
397.2925	0.2789
397.4987	0.2678
397.7048	0.2738
397.9109	0.2675
398.117	0.2664
398.3231	0.265
398.5292	0.2568
398.7353	0.2715
398.9413	0.2616
399.1474	0.2624
399.3534	0.271
399.5594	0.2739
399.7654	0.255
399.9714	0.2695
400.1774	0.2636
400.3833	0.2605
400.5893	0.2681
400.7952	0.2639
401.0011	0.2642
401.207	0.2649
401.4129	0.2644
401.6188	0.2539
401.8247	0.2681
402.0305	0.2564
402.2364	0.2683
402.4422	0.2711
402.648	0.2751
402.8538	0.2566
403.0596	0.2552
403.2654	0.2632
403.4711	0.2609
403.6768	0.2552
403.8826	0.2665
404.0883	0.2652
404.294	0.2628
404.4997	0.2595
404.7054	0.2702
404.911	0.2677
405.1167	0.269
405.3223	0.2628
405.5279	0.2626
405.7335	0.2611
405.9391	0.2596
406.1447	0.2756
406.3502	0.261
406.5558	0.2654
406.7613	0.2643
406.9668	0.2573
407.1724	0.2685
407.3778	0.2612
407.5833	0.2486
407.7888	0.2747
407.9942	0.2643
408.1997	0.2543
408.4051	0.2602
408.6105	0.2633
408.8159	0.2565
409.0213	0.2699
409.2267	0.2697
409.432	0.2712
409.6374	0.2624
409.8427	0.2704
410.048	0.2746
410.2533	0.2646
410.4586	0.2563
410.6639	0.2636
410.8691	0.2486
411.0744	0.2597
411.2796	0.2598
411.4848	0.2642
411.69	0.2564
411.8952	0.2649
412.1004	0.2614
412.3056	0.2658
412.5107	0.2705
412.7158	0.2743
412.921	0.2582
413.1261	0.2586
413.3312	0.2667
413.5362	0.2765
413.7413	0.2665
413.9464	0.2469
414.1514	0.2613
414.3564	0.2602
414.5614	0.2622
414.7664	0.2525
414.9714	0.259
415.1764	0.267
415.3813	0.2541
415.5863	0.2688
415.7912	0.2501
415.9961	0.2517
416.201	0.2739
416.4059	0.2586
416.6108	0.2591
416.8156	0.252
417.0205	0.2669
417.2253	0.2515
417.4301	0.2553
417.6349	0.2529
417.8397	0.2549
418.0445	0.2528
418.2492	0.2526
418.454	0.2593
418.6587	0.2574
418.8634	0.253
419.0681	0.2577
419.2728	0.2429
419.4775	0.2592
419.6822	0.2429
419.8868	0.2448
420.0915	0.2523
420.2961	0.2357
420.5007	0.2464
420.7053	0.2483
420.9099	0.2492
421.1144	0.2368
421.319	0.2305
421.5235	0.2391
421.728	0.249
421.9325	0.2451
422.137	0.2371
422.3415	0.2406
422.546	0.2304
422.7504	0.2414
422.9549	0.2373
423.1593	0.234
423.3637	0.2349
423.5681	0.2425
423.7725	0.231
423.9769	0.231
424.1812	0.2261
424.3856	0.2293
424.5899	0.2254
424.7942	0.2326
424.9985	0.227
425.2028	0.2292
425.4071	0.2309
425.6113	0.2318
425.8156	0.2275
426.0198	0.2236
426.224	0.2308
426.4282	0.2274
426.6324	0.2099
426.8366	0.2195
