Data from D4ACN5uM460nmA_Absorbance_13-05-41-105.txt Node
Date: Fri Feb 21 13:05:41 GMT 2025
User: LASERRRRR
Spectrometer: FLMT03099
Trigger mode: 0
Integration Time (sec): 1.500000E-2
Scans to average: 1
Electric dark correction enabled: true
Nonlinearity correction enabled: false
Boxcar width: 0
XAxis mode: Wavelengths
Number of Pixels in Spectrum: 3648
>>>>>Begin Spectral Data<<<<<
179.3399	-0.6601
179.5586	-0.6601
179.7771	-0.6601
179.9957	-0.3319
180.2143	-0
180.4329	-0
180.6514	-0
180.8699	-0
181.0885	0.4393
181.307	0.0873
181.5255	0.0079
181.744	-0.1953
181.9625	-0
182.181	-0.2743
182.3994	-0.3112
182.6179	0.451
182.8363	0.3488
183.0547	-0.2322
183.2732	0.116
183.4916	0.2987
183.71	0.2062
183.9284	0.104
184.1467	0.1407
184.3651	0.1396
184.5835	0.2881
184.8018	0.302
185.0201	0.2981
185.2385	0.1512
185.4568	0.1018
185.6751	0.241
185.8934	0.1287
186.1117	-0.1959
186.3299	0.0925
186.5482	0.2563
186.7664	0.7442
186.9847	0.0754
187.2029	0.1265
187.4211	0.0496
187.6393	0.0192
187.8575	0.2174
188.0757	0.4903
188.2939	0.0707
188.512	0.3352
188.7302	0.1645
188.9483	0.2109
189.1665	0.8166
189.3846	0.242
189.6027	0.0333
189.8208	0.1019
190.0389	0.0955
190.257	0.1469
190.475	-0.008
190.6931	0.0433
190.9111	-0.0003
191.1292	0.1847
191.3472	0.1467
191.5652	0.2394
191.7832	0.0572
192.0012	0.0832
192.2192	0.1981
192.4371	0.0936
192.6551	0.1702
192.873	0.1382
193.091	0.0184
193.3089	0.1318
193.5268	0.3296
193.7447	0.2334
193.9626	0.2265
194.1805	0.2491
194.3984	0.2135
194.6162	0.2339
194.8341	0.3477
195.0519	0.2113
195.2697	0.2283
195.4875	0.3989
195.7054	0.2123
195.9231	0.2569
196.1409	0.2831
196.3587	0.2917
196.5765	0.3664
196.7942	0.2399
197.012	0.3439
197.2297	0.3236
197.4474	0.3875
197.6651	0.3305
197.8828	0.3439
198.1005	0.3279
198.3182	0.3947
198.5358	0.3958
198.7535	0.3413
198.9711	0.3865
199.1888	0.3183
199.4064	0.4449
199.624	0.3685
199.8416	0.4141
200.0592	0.4134
200.2767	0.4053
200.4943	0.3971
200.7119	0.3891
200.9294	0.4037
201.1469	0.395
201.3645	0.4741
201.582	0.3457
201.7995	0.4218
202.017	0.4068
202.2344	0.4534
202.4519	0.4163
202.6694	0.3734
202.8868	0.4011
203.1042	0.4038
203.3217	0.3624
203.5391	0.3954
203.7565	0.3314
203.9739	0.3681
204.1913	0.3828
204.4086	0.3367
204.626	0.3468
204.8433	0.3379
205.0607	0.3694
205.278	0.36
205.4953	0.3431
205.7126	0.3215
205.9299	0.3137
206.1472	0.3441
206.3644	0.3437
206.5817	0.332
206.7989	0.3469
207.0162	0.3389
207.2334	0.316
207.4506	0.3243
207.6678	0.31
207.885	0.3038
208.1022	0.3323
208.3194	0.2946
208.5365	0.3195
208.7537	0.2925
208.9708	0.2865
209.1879	0.2729
209.405	0.2926
209.6222	0.2635
209.8392	0.2932
210.0563	0.2987
210.2734	0.2791
210.4905	0.305
210.7075	0.291
210.9245	0.2681
211.1416	0.2674
211.3586	0.2607
211.5756	0.2678
211.7926	0.2622
212.0096	0.2767
212.2265	0.2488
212.4435	0.2503
212.6604	0.2674
212.8774	0.2298
213.0943	0.2501
213.3112	0.2444
213.5281	0.2566
213.745	0.2304
213.9619	0.2529
214.1788	0.2738
214.3956	0.2707
214.6125	0.2641
214.8293	0.258
215.0461	0.2541
215.2629	0.2403
215.4798	0.2613
215.6965	0.2546
215.9133	0.2499
216.1301	0.2417
216.3469	0.2416
216.5636	0.2485
216.7803	0.2555
216.9971	0.2597
217.2138	0.2594
217.4305	0.2457
217.6472	0.2636
217.8639	0.2475
218.0805	0.2597
218.2972	0.2445
218.5138	0.2574
218.7305	0.2621
218.9471	0.2496
219.1637	0.2582
219.3803	0.267
219.5969	0.2641
219.8135	0.2596
220.0301	0.2685
220.2466	0.2586
220.4632	0.2786
220.6797	0.2635
220.8962	0.2619
221.1127	0.2594
221.3292	0.2656
221.5457	0.2763
221.7622	0.2689
221.9787	0.2991
222.1951	0.2764
222.4116	0.2761
222.628	0.2879
222.8444	0.2913
223.0608	0.2814
223.2772	0.2911
223.4936	0.2796
223.71	0.291
223.9264	0.2784
224.1427	0.2809
224.3591	0.2931
224.5754	0.2952
224.7917	0.2975
225.008	0.3058
225.2243	0.309
225.4406	0.2966
225.6569	0.3218
225.8732	0.2986
226.0894	0.3156
226.3057	0.3138
226.5219	0.3144
226.7381	0.3244
226.9543	0.3192
227.1705	0.3113
227.3867	0.3261
227.6029	0.3239
227.8191	0.3349
228.0352	0.3457
228.2513	0.3461
228.4675	0.3393
228.6836	0.3391
228.8997	0.3471
229.1158	0.3581
229.3319	0.3591
229.548	0.3499
229.764	0.361
229.9801	0.3696
230.1961	0.3732
230.4121	0.3772
230.6282	0.3838
230.8442	0.3874
231.0602	0.3869
231.2761	0.379
231.4921	0.3989
231.7081	0.398
231.924	0.3977
232.14	0.4077
232.3559	0.4051
232.5718	0.4045
232.7877	0.4141
233.0036	0.4151
233.2195	0.408
233.4353	0.411
233.6512	0.4234
233.867	0.4248
234.0829	0.4192
234.2987	0.4302
234.5145	0.4274
234.7303	0.4387
234.9461	0.4415
235.1619	0.4319
235.3776	0.4329
235.5934	0.4257
235.8091	0.4375
236.0249	0.4432
236.2406	0.4411
236.4563	0.4424
236.672	0.4435
236.8877	0.4535
237.1034	0.4499
237.319	0.4509
237.5347	0.4482
237.7503	0.445
237.966	0.4655
238.1816	0.4525
238.3972	0.4589
238.6128	0.4597
238.8284	0.4669
239.0439	0.4549
239.2595	0.4517
239.475	0.4625
239.6906	0.4563
239.9061	0.4547
240.1216	0.4558
240.3371	0.4636
240.5526	0.4522
240.7681	0.4591
240.9836	0.4569
241.199	0.4519
241.4145	0.4467
241.6299	0.4447
241.8453	0.4352
242.0607	0.436
242.2761	0.4287
242.4915	0.4265
242.7069	0.4179
242.9223	0.4183
243.1376	0.4045
243.353	0.3977
243.5683	0.3878
243.7836	0.3812
243.9989	0.375
244.2142	0.3794
244.4295	0.3638
244.6448	0.3601
244.86	0.3482
245.0753	0.3465
245.2905	0.3316
245.5057	0.3371
245.721	0.3293
245.9362	0.3258
246.1514	0.3134
246.3665	0.3028
246.5817	0.2974
246.7969	0.2925
247.012	0.2869
247.2271	0.2841
247.4423	0.2865
247.6574	0.2791
247.8725	0.2674
248.0876	0.2635
248.3026	0.26
248.5177	0.2516
248.7328	0.2505
248.9478	0.2472
249.1628	0.2443
249.3779	0.2299
249.5929	0.2367
249.8079	0.2353
250.0228	0.2285
250.2378	0.2306
250.4528	0.2285
250.6677	0.2184
250.8827	0.2158
251.0976	0.2092
251.3125	0.2154
251.5274	0.2084
251.7423	0.212
251.9572	0.2167
252.172	0.2015
252.3869	0.2007
252.6017	0.2007
252.8166	0.2021
253.0314	0.1963
253.2462	0.1999
253.461	0.1933
253.6758	0.1928
253.8906	0.1975
254.1053	0.193
254.3201	0.1877
254.5348	0.1797
254.7496	0.1816
254.9643	0.19
255.179	0.1859
255.3937	0.1856
255.6083	0.1917
255.823	0.188
256.0377	0.1801
256.2523	0.1804
256.467	0.1858
256.6816	0.1806
256.8962	0.1811
257.1108	0.1831
257.3254	0.1818
257.54	0.1781
257.7545	0.1887
257.9691	0.1765
258.1836	0.1735
258.3981	0.1762
258.6127	0.1729
258.8272	0.179
259.0417	0.1717
259.2561	0.1731
259.4706	0.1739
259.6851	0.1788
259.8995	0.1716
260.114	0.1738
260.3284	0.1686
260.5428	0.1723
260.7572	0.1737
260.9716	0.1828
261.186	0.175
261.4003	0.1707
261.6147	0.1749
261.829	0.1761
262.0433	0.1737
262.2577	0.1739
262.472	0.1731
262.6863	0.1805
262.9005	0.1747
263.1148	0.1717
263.3291	0.1751
263.5433	0.1735
263.7576	0.1751
263.9718	0.172
264.186	0.1772
264.4002	0.174
264.6144	0.1839
264.8286	0.1792
265.0427	0.1826
265.2569	0.1843
265.471	0.172
265.6851	0.1782
265.8993	0.1733
266.1134	0.1758
266.3275	0.1744
266.5415	0.1765
266.7556	0.1807
266.9697	0.1774
267.1837	0.1738
267.3978	0.174
267.6118	0.1707
267.8258	0.1762
268.0398	0.1754
268.2538	0.1757
268.4677	0.1735
268.6817	0.1756
268.8957	0.1679
269.1096	0.1709
269.3235	0.171
269.5374	0.1714
269.7514	0.1691
269.9652	0.1729
270.1791	0.1674
270.393	0.1713
270.6068	0.1739
270.8207	0.1637
271.0345	0.1674
271.2483	0.1623
271.4622	0.1616
271.676	0.171
271.8897	0.1703
272.1035	0.1658
272.3173	0.1627
272.531	0.1664
272.7448	0.17
272.9585	0.1607
273.1722	0.164
273.3859	0.164
273.5996	0.1635
273.8133	0.1657
274.0269	0.1668
274.2406	0.1652
274.4542	0.163
274.6679	0.1678
274.8815	0.1743
275.0951	0.1757
275.3087	0.1713
275.5223	0.1666
275.7358	0.174
275.9494	0.1738
276.1629	0.1739
276.3765	0.1679
276.59	0.164
276.8035	0.1665
277.017	0.1729
277.2305	0.1715
277.444	0.1692
277.6574	0.167
277.8709	0.1734
278.0843	0.1765
278.2978	0.1728
278.5112	0.1707
278.7246	0.1712
278.938	0.1709
279.1513	0.1754
279.3647	0.1691
279.5781	0.172
279.7914	0.1723
280.0047	0.1714
280.2181	0.1675
280.4314	0.1729
280.6447	0.1808
280.8579	0.1718
281.0712	0.1773
281.2845	0.1748
281.4977	0.1749
281.711	0.1714
281.9242	0.1751
282.1374	0.1761
282.3506	0.1776
282.5638	0.1786
282.7769	0.1804
282.9901	0.1779
283.2033	0.1814
283.4164	0.1727
283.6295	0.1797
283.8426	0.1708
284.0557	0.1813
284.2688	0.1837
284.4819	0.1803
284.695	0.1869
284.908	0.1833
285.1211	0.1803
285.3341	0.1785
285.5471	0.1813
285.7601	0.1833
285.9731	0.1889
286.1861	0.1871
286.3991	0.1897
286.612	0.1854
286.825	0.191
287.0379	0.1849
287.2508	0.1882
287.4637	0.1896
287.6766	0.1887
287.8895	0.1888
288.1024	0.187
288.3152	0.1866
288.5281	0.1821
288.7409	0.1966
288.9538	0.1921
289.1666	0.1877
289.3794	0.1893
289.5922	0.1788
289.8049	0.1903
290.0177	0.1924
290.2304	0.1905
290.4432	0.1943
290.6559	0.1935
290.8686	0.1916
291.0813	0.1992
291.294	0.1926
291.5067	0.1904
291.7194	0.194
291.932	0.1872
292.1447	0.1898
292.3573	0.1943
292.5699	0.1966
292.7825	0.1936
292.9951	0.1908
293.2077	0.1907
293.4203	0.19
293.6328	0.1914
293.8454	0.1939
294.0579	0.1945
294.2704	0.2001
294.4829	0.1907
294.6954	0.1965
294.9079	0.1914
295.1204	0.1896
295.3328	0.1975
295.5453	0.1965
295.7577	0.1949
295.9701	0.1896
296.1825	0.1939
296.3949	0.1934
296.6073	0.1898
296.8197	0.1943
297.0321	0.196
297.2444	0.1897
297.4567	0.1935
297.6691	0.1917
297.8814	0.1912
298.0937	0.1976
298.306	0.1934
298.5182	0.1971
298.7305	0.1906
298.9428	0.1899
299.155	0.1907
299.3672	0.1882
299.5794	0.1972
299.7916	0.1954
300.0038	0.1924
300.216	0.1906
300.4282	0.1915
300.6403	0.1932
300.8525	0.1884
301.0646	0.1946
301.2767	0.1978
301.4888	0.1944
301.7009	0.1941
301.913	0.1954
302.125	0.1883
302.3371	0.1959
302.5491	0.1908
302.7612	0.1965
302.9732	0.1979
303.1852	0.1947
303.3972	0.192
303.6092	0.1951
303.8211	0.1897
304.0331	0.1921
304.245	0.1917
304.457	0.1868
304.6689	0.1873
304.8808	0.1898
305.0927	0.1879
305.3046	0.1838
305.5164	0.1793
305.7283	0.1861
305.9401	0.1779
306.152	0.1803
306.3638	0.1822
306.5756	0.1813
306.7874	0.1711
306.9992	0.1752
307.2109	0.1696
307.4227	0.1678
307.6344	0.175
307.8462	0.1643
308.0579	0.1706
308.2696	0.172
308.4813	0.1649
308.693	0.1608
308.9046	0.1698
309.1163	0.1558
309.328	0.1593
309.5396	0.1581
309.7512	0.1527
309.9628	0.1497
310.1744	0.1524
310.386	0.1457
310.5976	0.1405
310.8091	0.148
311.0207	0.1458
311.2322	0.1457
311.4437	0.1405
311.6552	0.1478
311.8667	0.1489
312.0782	0.1355
312.2897	0.1405
312.5012	0.1346
312.7126	0.1297
312.924	0.1372
313.1355	0.1351
313.3469	0.1304
313.5583	0.1293
313.7696	0.1284
313.981	0.1388
314.1924	0.1267
314.4037	0.1275
314.6151	0.1277
314.8264	0.1257
315.0377	0.1263
315.249	0.127
315.4603	0.1175
315.6716	0.125
315.8828	0.126
316.0941	0.1291
316.3053	0.1149
316.5165	0.1245
316.7277	0.1205
316.9389	0.1245
317.1501	0.1259
317.3613	0.1198
317.5724	0.1197
317.7836	0.1169
317.9947	0.1162
318.2058	0.1172
318.417	0.1225
318.6281	0.116
318.8391	0.123
319.0502	0.1187
319.2613	0.1194
319.4723	0.1215
319.6834	0.1167
319.8944	0.1198
320.1054	0.1208
320.3164	0.1154
320.5274	0.1182
320.7383	0.1246
320.9493	0.1194
321.1602	0.1173
321.3712	0.1197
321.5821	0.1161
321.793	0.1266
322.0039	0.1197
322.2148	0.1196
322.4257	0.1183
322.6365	0.1112
322.8474	0.1223
323.0582	0.1173
323.269	0.1207
323.4798	0.1202
323.6906	0.1193
323.9014	0.1164
324.1122	0.1178
324.3229	0.12
324.5337	0.1254
324.7444	0.1235
324.9551	0.1176
325.1658	0.1174
325.3765	0.1234
325.5872	0.1245
325.7979	0.1227
326.0085	0.1211
326.2192	0.1176
326.4298	0.1234
326.6404	0.122
326.851	0.1188
327.0616	0.122
327.2722	0.1181
327.4828	0.1252
327.6933	0.1282
327.9039	0.1235
328.1144	0.1262
328.3249	0.1274
328.5354	0.1243
328.7459	0.122
328.9564	0.1236
329.1669	0.1293
329.3773	0.1272
329.5878	0.1268
329.7982	0.1289
330.0086	0.1264
330.219	0.1153
330.4294	0.1299
330.6398	0.1282
330.8502	0.1279
331.0605	0.1285
331.2708	0.1265
331.4812	0.1315
331.6915	0.1305
331.9018	0.1299
332.1121	0.1358
332.3224	0.1271
332.5326	0.1198
332.7429	0.1217
332.9531	0.1285
333.1633	0.123
333.3735	0.1252
333.5837	0.1317
333.7939	0.1307
334.0041	0.1404
334.2143	0.1309
334.4244	0.1387
334.6346	0.1305
334.8447	0.1277
335.0548	0.1302
335.2649	0.1353
335.475	0.1323
335.685	0.1288
335.8951	0.126
336.1051	0.1319
336.3152	0.1433
336.5252	0.1309
336.7352	0.1304
336.9452	0.1307
337.1552	0.1302
337.3652	0.1293
337.5751	0.1373
337.7851	0.1379
337.995	0.1428
338.2049	0.1338
338.4148	0.1347
338.6247	0.1433
338.8346	0.134
339.0445	0.1341
339.2543	0.1397
339.4642	0.1335
339.674	0.1307
339.8838	0.1395
340.0936	0.1421
340.3034	0.1393
340.5132	0.1331
340.7229	0.1393
340.9327	0.1456
341.1424	0.1452
341.3522	0.1323
341.5619	0.1365
341.7716	0.1445
341.9813	0.1431
342.1909	0.1431
342.4006	0.144
342.6102	0.1435
342.8199	0.1446
343.0295	0.1348
343.2391	0.1472
343.4487	0.1486
343.6583	0.1571
343.8679	0.1467
344.0774	0.1474
344.287	0.1489
344.4965	0.1517
344.706	0.1545
344.9155	0.1431
345.125	0.1539
345.3345	0.1615
345.544	0.1516
345.7534	0.149
345.9629	0.1486
346.1723	0.1512
346.3817	0.1557
346.5911	0.1581
346.8005	0.1575
347.0099	0.1539
347.2193	0.1607
347.4286	0.165
347.638	0.1606
347.8473	0.1636
348.0566	0.1639
348.2659	0.1605
348.4752	0.1591
348.6845	0.1578
348.8937	0.1628
349.103	0.1621
349.3122	0.1598
349.5214	0.1638
349.7306	0.1711
349.9398	0.1693
350.149	0.1678
350.3582	0.1645
350.5674	0.1646
350.7765	0.1707
350.9856	0.1667
351.1948	0.1718
351.4039	0.1802
351.613	0.1694
351.822	0.1793
352.0311	0.173
352.2402	0.1735
352.4492	0.1734
352.6582	0.1755
352.8672	0.1782
353.0762	0.1844
353.2852	0.1759
353.4942	0.183
353.7032	0.1781
353.9121	0.1827
354.1211	0.1856
354.33	0.1849
354.5389	0.1886
354.7478	0.1702
354.9567	0.1832
355.1655	0.1833
355.3744	0.1809
355.5833	0.1849
355.7921	0.1872
356.0009	0.184
356.2097	0.1791
356.4185	0.1805
356.6273	0.1903
356.8361	0.1862
357.0448	0.1913
357.2536	0.1897
357.4623	0.1898
357.671	0.1902
357.8797	0.1908
358.0884	0.1904
358.2971	0.1913
358.5057	0.2001
358.7144	0.1901
358.923	0.1912
359.1316	0.2038
359.3402	0.2056
359.5488	0.1965
359.7574	0.2008
359.966	0.204
360.1746	0.1956
360.3831	0.2084
360.5916	0.2055
360.8002	0.2138
361.0087	0.2027
361.2172	0.2048
361.4256	0.2113
361.6341	0.2118
361.8426	0.2076
362.051	0.2164
362.2594	0.2155
362.4678	0.2142
362.6762	0.2201
362.8846	0.2175
363.093	0.2191
363.3014	0.2249
363.5097	0.2186
363.718	0.2198
363.9264	0.2226
364.1347	0.2263
364.343	0.2271
364.5513	0.2272
364.7595	0.2291
364.9678	0.2258
365.176	0.2246
365.3842	0.2339
365.5925	0.2308
365.8007	0.2327
366.0089	0.2376
366.217	0.2374
366.4252	0.2321
366.6333	0.2334
366.8415	0.2377
367.0496	0.2374
367.2577	0.2435
367.4658	0.2393
367.6739	0.2358
367.882	0.2435
368.09	0.2439
368.2981	0.2528
368.5061	0.2484
368.7141	0.247
368.9221	0.258
369.1301	0.2546
369.3381	0.2605
369.5461	0.2503
369.754	0.2562
369.962	0.2459
370.1699	0.2556
370.3778	0.2654
370.5857	0.252
370.7936	0.2564
371.0015	0.2605
371.2093	0.2557
371.4172	0.2615
371.625	0.2587
371.8328	0.2571
372.0406	0.2701
372.2484	0.2671
372.4562	0.2653
372.664	0.2603
372.8717	0.2698
373.0795	0.2778
373.2872	0.2751
373.4949	0.2713
373.7026	0.2738
373.9103	0.2596
374.118	0.2663
374.3256	0.274
374.5333	0.2741
374.7409	0.2795
374.9485	0.2728
375.1561	0.2778
375.3637	0.2695
375.5713	0.2762
375.7789	0.2793
375.9864	0.2822
376.194	0.2882
376.4015	0.2776
376.609	0.2844
376.8165	0.2809
377.024	0.2809
377.2315	0.282
377.4389	0.2738
377.6464	0.2935
377.8538	0.2837
378.0612	0.2859
378.2686	0.2891
378.476	0.2945
378.6834	0.2858
378.8908	0.2958
379.0981	0.2976
379.3055	0.2916
379.5128	0.2813
379.7201	0.2933
379.9274	0.292
380.1347	0.2955
380.342	0.2981
380.5492	0.2956
380.7565	0.3073
380.9637	0.2961
381.1709	0.298
381.3781	0.3072
381.5853	0.2974
381.7925	0.3052
381.9997	0.3005
382.2068	0.2998
382.4139	0.3089
382.6211	0.3022
382.8282	0.3088
383.0353	0.3105
383.2424	0.3099
383.4494	0.2999
383.6565	0.3124
383.8635	0.303
384.0706	0.3128
384.2776	0.3169
384.4846	0.3171
384.6916	0.324
384.8986	0.3046
385.1055	0.3239
385.3125	0.3168
385.5194	0.3153
385.7263	0.3104
385.9333	0.3151
386.1402	0.3052
386.347	0.3079
386.5539	0.3124
386.7608	0.3088
386.9676	0.3211
387.1744	0.3153
387.3813	0.3201
387.5881	0.3062
387.7948	0.3087
388.0016	0.3234
388.2084	0.3166
388.4151	0.3136
388.6219	0.3021
388.8286	0.3103
389.0353	0.3084
389.242	0.3129
389.4487	0.3062
389.6553	0.2966
389.862	0.2993
390.0686	0.31
390.2753	0.3073
390.4819	0.3066
390.6885	0.299
390.8951	0.3014
391.1016	0.309
391.3082	0.3009
391.5147	0.2964
391.7213	0.2964
391.9278	0.294
392.1343	0.2912
392.3408	0.2898
392.5473	0.2984
392.7537	0.2894
392.9602	0.2991
393.1666	0.2923
393.373	0.2918
393.5794	0.2829
393.7858	0.2968
393.9922	0.2802
394.1986	0.2936
394.4049	0.2839
394.6113	0.2952
394.8176	0.2825
395.0239	0.2798
395.2302	0.2812
395.4365	0.2886
395.6428	0.2858
395.8491	0.2726
396.0553	0.2715
396.2615	0.2748
396.4678	0.2767
396.674	0.2733
396.8802	0.2713
397.0863	0.2629
397.2925	0.2722
397.4987	0.2709
397.7048	0.2742
397.9109	0.2565
398.117	0.2602
398.3231	0.2676
398.5292	0.2589
398.7353	0.2691
398.9413	0.2689
399.1474	0.2731
399.3534	0.2744
399.5594	0.2715
399.7654	0.2639
399.9714	0.266
400.1774	0.2597
400.3833	0.2692
400.5893	0.265
400.7952	0.2749
401.0011	0.2643
401.207	0.2622
401.4129	0.2731
401.6188	0.2608
401.8247	0.2789
402.0305	0.2626
402.2364	0.2702
402.4422	0.2613
402.648	0.2642
402.8538	0.2672
403.0596	0.2712
403.2654	0.2689
403.4711	0.2655
403.6768	0.258
403.8826	0.2643
404.0883	0.2643
404.294	0.2737
404.4997	0.2646
404.7054	0.2673
404.911	0.2618
405.1167	0.2681
405.3223	0.2575
405.5279	0.2682
405.7335	0.2691
405.9391	0.2675
406.1447	0.2665
406.3502	0.2628
406.5558	0.2569
406.7613	0.258
406.9668	0.2583
407.1724	0.2557
407.3778	0.2639
407.5833	0.2552
407.7888	0.2756
407.9942	0.2571
408.1997	0.2634
408.4051	0.2709
408.6105	0.2582
408.8159	0.2592
409.0213	0.2703
409.2267	0.2747
409.432	0.2602
409.6374	0.2664
409.8427	0.2811
410.048	0.2717
410.2533	0.2566
410.4586	0.2643
410.6639	0.2684
410.8691	0.2579
411.0744	0.258
411.2796	0.2613
411.4848	0.2772
411.69	0.2613
411.8952	0.2678
412.1004	0.264
412.3056	0.2534
412.5107	0.2553
412.7158	0.2651
412.921	0.2601
413.1261	0.2619
413.3312	0.2729
413.5362	0.2739
413.7413	0.2705
413.9464	0.2549
414.1514	0.2624
414.3564	0.2568
414.5614	0.2583
414.7664	0.2593
414.9714	0.2518
415.1764	0.2664
415.3813	0.2484
415.5863	0.268
415.7912	0.2553
415.9961	0.2557
416.201	0.2647
416.4059	0.2521
416.6108	0.2582
416.8156	0.2508
417.0205	0.2566
417.2253	0.246
417.4301	0.261
417.6349	0.2541
417.8397	0.2528
418.0445	0.2522
418.2492	0.245
418.454	0.2561
418.6587	0.2531
418.8634	0.2603
419.0681	0.2561
419.2728	0.2462
419.4775	0.2523
419.6822	0.2481
419.8868	0.2508
420.0915	0.2449
420.2961	0.238
420.5007	0.2514
420.7053	0.2534
420.9099	0.25
421.1144	0.2448
421.319	0.2469
421.5235	0.2451
421.728	0.2388
421.9325	0.2396
422.137	0.2502
422.3415	0.2393
422.546	0.2321
422.7504	0.2307
422.9549	0.2434
423.1593	0.2261
423.3637	0.2406
423.5681	0.2416
423.7725	0.227
423.9769	0.237
424.1812	0.2259
424.3856	0.2397
424.5899	0.2294
424.7942	0.2223
424.9985	0.232
425.2028	0.2374
425.4071	0.2366
425.6113	0.2242
425.8156	0.2219
426.0198	0.2165
426.224	0.2274
426.4282	0.2171
426.6324	0.2125
