Data from D4ACN5uM460nmA_Absorbance_13-05-42-071.txt Node
Date: Fri Feb 21 13:05:42 GMT 2025
User: LASERRRRR
Spectrometer: FLMT03099
Trigger mode: 0
Integration Time (sec): 1.500000E-2
Scans to average: 1
Electric dark correction enabled: true
Nonlinearity correction enabled: false
Boxcar width: 0
XAxis mode: Wavelengths
Number of Pixels in Spectrum: 3648
>>>>>Begin Spectral Data<<<<<
179.3399	-0.2505
179.5586	-0.2505
179.7771	-0.2505
179.9957	-0.0523
180.2143	-1.5665
180.4329	0.0858
180.6514	-0
180.8699	-0.116
181.0885	-0
181.307	0.1915
181.5255	0.4865
181.744	-0
181.9625	0.3204
182.181	-0.3235
182.3994	-0.1057
182.6179	-0
182.8363	-0
183.0547	-0
183.2732	0.0919
183.4916	0.2461
183.71	0.396
183.9284	0.021
184.1467	-0.0274
184.3651	0.1711
184.5835	0.1932
184.8018	0.1571
185.0201	-0.0409
185.2385	0.2376
185.4568	0.3586
185.6751	0.0981
185.8934	0.4329
186.1117	-0.1649
186.3299	0.2311
186.5482	0.2523
186.7664	0.0539
186.9847	0.0342
187.2029	0.5717
187.4211	-0.097
187.6393	0.2137
187.8575	0.3633
188.0757	0.6711
188.2939	0.1793
188.512	0.4602
188.7302	0.1506
188.9483	0.1518
189.1665	0.3624
189.3846	0.2902
189.6027	0.2239
189.8208	0.1686
190.0389	0.1715
190.257	0.0888
190.475	0.0807
190.6931	0.1825
190.9111	0.2057
191.1292	0.0844
191.3472	0.1343
191.5652	0.3098
191.7832	0.1648
192.0012	0.187
192.2192	0.3499
192.4371	0.2497
192.6551	0.1432
192.873	0.1289
193.091	0.1713
193.3089	0.1076
193.5268	0.2665
193.7447	0.2392
193.9626	0.1914
194.1805	0.225
194.3984	0.1265
194.6162	0.146
194.8341	0.3663
195.0519	0.2867
195.2697	0.1893
195.4875	0.3047
195.7054	0.2493
195.9231	0.1843
196.1409	0.2911
196.3587	0.3596
196.5765	0.2586
196.7942	0.2885
197.012	0.3001
197.2297	0.3169
197.4474	0.4554
197.6651	0.3335
197.8828	0.3219
198.1005	0.3816
198.3182	0.403
198.5358	0.3613
198.7535	0.3918
198.9711	0.3556
199.1888	0.4022
199.4064	0.409
199.624	0.3832
199.8416	0.3887
200.0592	0.4104
200.2767	0.3922
200.4943	0.4474
200.7119	0.4683
200.9294	0.4177
201.1469	0.4382
201.3645	0.4502
201.582	0.408
201.7995	0.4465
202.017	0.4053
202.2344	0.4384
202.4519	0.3901
202.6694	0.3904
202.8868	0.4336
203.1042	0.4267
203.3217	0.3579
203.5391	0.4238
203.7565	0.3786
203.9739	0.3722
204.1913	0.3567
204.4086	0.3541
204.626	0.3869
204.8433	0.3588
205.0607	0.3695
205.278	0.3451
205.4953	0.3416
205.7126	0.3795
205.9299	0.3113
206.1472	0.306
206.3644	0.3558
206.5817	0.3132
206.7989	0.3544
207.0162	0.343
207.2334	0.3385
207.4506	0.2891
207.6678	0.3171
207.885	0.2799
208.1022	0.3168
208.3194	0.2775
208.5365	0.3088
208.7537	0.2979
208.9708	0.292
209.1879	0.2834
209.405	0.2741
209.6222	0.2583
209.8392	0.2925
210.0563	0.2752
210.2734	0.2846
210.4905	0.2812
210.7075	0.2897
210.9245	0.2462
211.1416	0.2993
211.3586	0.2854
211.5756	0.2516
211.7926	0.2625
212.0096	0.2731
212.2265	0.2639
212.4435	0.267
212.6604	0.2507
212.8774	0.246
213.0943	0.2509
213.3112	0.2519
213.5281	0.2513
213.745	0.2353
213.9619	0.2603
214.1788	0.2812
214.3956	0.2617
214.6125	0.2453
214.8293	0.2539
215.0461	0.2398
215.2629	0.2518
215.4798	0.2446
215.6965	0.2612
215.9133	0.2492
216.1301	0.2478
216.3469	0.2531
216.5636	0.2545
216.7803	0.2487
216.9971	0.2685
217.2138	0.2465
217.4305	0.2636
217.6472	0.2511
217.8639	0.2565
218.0805	0.2591
218.2972	0.2508
218.5138	0.2727
218.7305	0.2602
218.9471	0.2416
219.1637	0.2672
219.3803	0.2591
219.5969	0.2419
219.8135	0.2731
220.0301	0.2508
220.2466	0.2547
220.4632	0.2631
220.6797	0.2709
220.8962	0.2674
221.1127	0.2679
221.3292	0.2704
221.5457	0.2807
221.7622	0.2706
221.9787	0.3005
222.1951	0.2746
222.4116	0.2855
222.628	0.2873
222.8444	0.2836
223.0608	0.2907
223.2772	0.2836
223.4936	0.2852
223.71	0.2879
223.9264	0.2839
224.1427	0.281
224.3591	0.2927
224.5754	0.2978
224.7917	0.299
225.008	0.31
225.2243	0.3032
225.4406	0.2944
225.6569	0.315
225.8732	0.3177
226.0894	0.3047
226.3057	0.3217
226.5219	0.3171
226.7381	0.3262
226.9543	0.3101
227.1705	0.3103
227.3867	0.3289
227.6029	0.3376
227.8191	0.3488
228.0352	0.3442
228.2513	0.3556
228.4675	0.3539
228.6836	0.3512
228.8997	0.351
229.1158	0.3576
229.3319	0.3561
229.548	0.3506
229.764	0.3652
229.9801	0.38
230.1961	0.3805
230.4121	0.3689
230.6282	0.3743
230.8442	0.3925
231.0602	0.3763
231.2761	0.3779
231.4921	0.3859
231.7081	0.4014
231.924	0.4159
232.14	0.3941
232.3559	0.4067
232.5718	0.4135
232.7877	0.4075
233.0036	0.4038
233.2195	0.4135
233.4353	0.4254
233.6512	0.4154
233.867	0.4279
234.0829	0.4343
234.2987	0.4281
234.5145	0.4382
234.7303	0.4394
234.9461	0.4308
235.1619	0.4333
235.3776	0.4284
235.5934	0.4313
235.8091	0.4342
236.0249	0.4474
236.2406	0.4503
236.4563	0.4499
236.672	0.4512
236.8877	0.4425
237.1034	0.4465
237.319	0.4535
237.5347	0.4532
237.7503	0.4523
237.966	0.4555
238.1816	0.457
238.3972	0.4539
238.6128	0.4661
238.8284	0.4633
239.0439	0.4641
239.2595	0.4618
239.475	0.4537
239.6906	0.464
239.9061	0.4619
240.1216	0.4593
240.3371	0.467
240.5526	0.4618
240.7681	0.4603
240.9836	0.4562
241.199	0.4413
241.4145	0.4489
241.6299	0.444
241.8453	0.4367
242.0607	0.4374
242.2761	0.4268
242.4915	0.4236
242.7069	0.4189
242.9223	0.4202
243.1376	0.4113
243.353	0.3948
243.5683	0.3902
243.7836	0.3843
243.9989	0.3721
244.2142	0.3705
244.4295	0.3628
244.6448	0.3591
244.86	0.3485
245.0753	0.3431
245.2905	0.3301
245.5057	0.3339
245.721	0.3271
245.9362	0.3226
246.1514	0.3151
246.3665	0.3065
246.5817	0.2992
246.7969	0.2984
247.012	0.2875
247.2271	0.2867
247.4423	0.2794
247.6574	0.2795
247.8725	0.2682
248.0876	0.2597
248.3026	0.2667
248.5177	0.2515
248.7328	0.2562
248.9478	0.2474
249.1628	0.2451
249.3779	0.2429
249.5929	0.2382
249.8079	0.2333
250.0228	0.2322
250.2378	0.227
250.4528	0.2283
250.6677	0.2256
250.8827	0.2194
251.0976	0.213
251.3125	0.2155
251.5274	0.2082
251.7423	0.2092
251.9572	0.2063
252.172	0.2
252.3869	0.2048
252.6017	0.2057
252.8166	0.2004
253.0314	0.1973
253.2462	0.1956
253.461	0.1964
253.6758	0.1926
253.8906	0.1916
254.1053	0.1939
254.3201	0.1916
254.5348	0.1824
254.7496	0.1799
254.9643	0.189
255.179	0.1835
255.3937	0.195
255.6083	0.1893
255.823	0.1803
256.0377	0.1813
256.2523	0.1843
256.467	0.1803
256.6816	0.1821
256.8962	0.1824
257.1108	0.1825
257.3254	0.1792
257.54	0.1783
257.7545	0.1847
257.9691	0.1799
258.1836	0.1734
258.3981	0.183
258.6127	0.1736
258.8272	0.1776
259.0417	0.1748
259.2561	0.1715
259.4706	0.1711
259.6851	0.1792
259.8995	0.1749
260.114	0.181
260.3284	0.1723
260.5428	0.1774
260.7572	0.1706
260.9716	0.1781
261.186	0.174
261.4003	0.1753
261.6147	0.1702
261.829	0.1759
262.0433	0.1754
262.2577	0.1744
262.472	0.1729
262.6863	0.1761
262.9005	0.1804
263.1148	0.1759
263.3291	0.173
263.5433	0.1781
263.7576	0.1784
263.9718	0.1754
264.186	0.173
264.4002	0.1782
264.6144	0.1832
264.8286	0.1782
265.0427	0.1806
265.2569	0.1771
265.471	0.1794
265.6851	0.1776
265.8993	0.178
266.1134	0.1728
266.3275	0.1757
266.5415	0.1814
266.7556	0.1798
266.9697	0.178
267.1837	0.1757
267.3978	0.1773
267.6118	0.1734
267.8258	0.1799
268.0398	0.1789
268.2538	0.1769
268.4677	0.1735
268.6817	0.1712
268.8957	0.1697
269.1096	0.1673
269.3235	0.169
269.5374	0.1747
269.7514	0.169
269.9652	0.1722
270.1791	0.1642
270.393	0.168
270.6068	0.1709
270.8207	0.1709
271.0345	0.171
271.2483	0.1675
271.4622	0.1663
271.676	0.1679
271.8897	0.1659
272.1035	0.1719
272.3173	0.1683
272.531	0.1692
272.7448	0.1646
272.9585	0.1665
273.1722	0.1694
273.3859	0.1713
273.5996	0.1692
273.8133	0.1676
274.0269	0.1638
274.2406	0.17
274.4542	0.1608
274.6679	0.1662
274.8815	0.172
275.0951	0.1761
275.3087	0.1714
275.5223	0.172
275.7358	0.1753
275.9494	0.1751
276.1629	0.1703
276.3765	0.1741
276.59	0.1678
276.8035	0.1694
277.017	0.1706
277.2305	0.1693
277.444	0.1733
277.6574	0.1772
277.8709	0.1809
278.0843	0.1764
278.2978	0.1749
278.5112	0.1776
278.7246	0.173
278.938	0.175
279.1513	0.1747
279.3647	0.1768
279.5781	0.1714
279.7914	0.172
280.0047	0.1785
280.2181	0.1769
280.4314	0.176
280.6447	0.1808
280.8579	0.1719
281.0712	0.1712
281.2845	0.1792
281.4977	0.1803
281.711	0.1748
281.9242	0.1744
282.1374	0.1771
282.3506	0.1782
282.5638	0.1778
282.7769	0.1746
282.9901	0.1801
283.2033	0.1844
283.4164	0.1743
283.6295	0.178
283.8426	0.177
284.0557	0.1865
284.2688	0.1819
284.4819	0.1781
284.695	0.188
284.908	0.1839
285.1211	0.1862
285.3341	0.1787
285.5471	0.1868
285.7601	0.1831
285.9731	0.1851
286.1861	0.1872
286.3991	0.1917
286.612	0.1832
286.825	0.1841
287.0379	0.183
287.2508	0.1901
287.4637	0.1889
287.6766	0.1875
287.8895	0.1823
288.1024	0.1864
288.3152	0.1889
288.5281	0.1851
288.7409	0.1944
288.9538	0.1913
289.1666	0.1892
289.3794	0.1887
289.5922	0.19
289.8049	0.1927
290.0177	0.1911
290.2304	0.1878
290.4432	0.1892
290.6559	0.192
290.8686	0.1879
291.0813	0.1883
291.294	0.1943
291.5067	0.1901
291.7194	0.191
291.932	0.1846
292.1447	0.1914
292.3573	0.1953
292.5699	0.1943
292.7825	0.1882
292.9951	0.1967
293.2077	0.1919
293.4203	0.1938
293.6328	0.1928
293.8454	0.196
294.0579	0.1921
294.2704	0.1957
294.4829	0.1891
294.6954	0.1987
294.9079	0.1882
295.1204	0.1849
295.3328	0.1991
295.5453	0.1945
295.7577	0.1955
295.9701	0.1919
296.1825	0.1919
296.3949	0.1871
296.6073	0.1893
296.8197	0.193
297.0321	0.199
297.2444	0.1935
297.4567	0.1948
297.6691	0.1927
297.8814	0.1893
298.0937	0.1891
298.306	0.193
298.5182	0.1951
298.7305	0.1951
298.9428	0.1899
299.155	0.1819
299.3672	0.1949
299.5794	0.1924
299.7916	0.1966
300.0038	0.1939
300.216	0.1953
300.4282	0.1877
300.6403	0.1973
300.8525	0.1948
301.0646	0.1913
301.2767	0.1879
301.4888	0.1909
301.7009	0.192
301.913	0.1926
302.125	0.1894
302.3371	0.1933
302.5491	0.1894
302.7612	0.1997
302.9732	0.1963
303.1852	0.197
303.3972	0.1889
303.6092	0.1886
303.8211	0.1922
304.0331	0.1877
304.245	0.1883
304.457	0.1884
304.6689	0.1949
304.8808	0.1849
305.0927	0.1876
305.3046	0.1881
305.5164	0.1853
305.7283	0.1819
305.9401	0.1725
306.152	0.1824
306.3638	0.1838
306.5756	0.1765
306.7874	0.174
306.9992	0.1721
307.2109	0.1748
307.4227	0.1705
307.6344	0.1719
307.8462	0.1677
308.0579	0.1718
308.2696	0.1684
308.4813	0.1628
308.693	0.1615
308.9046	0.165
309.1163	0.1584
309.328	0.1589
309.5396	0.1541
309.7512	0.1548
309.9628	0.1456
310.1744	0.1437
310.386	0.1468
310.5976	0.1468
310.8091	0.1517
311.0207	0.1437
311.2322	0.1467
311.4437	0.1453
311.6552	0.14
311.8667	0.1418
312.0782	0.1413
312.2897	0.1435
312.5012	0.1356
312.7126	0.133
312.924	0.1358
313.1355	0.1314
313.3469	0.1338
313.5583	0.1355
313.7696	0.1272
313.981	0.1327
314.1924	0.1318
314.4037	0.1339
314.6151	0.125
314.8264	0.1333
315.0377	0.1334
315.249	0.1295
315.4603	0.1255
315.6716	0.127
315.8828	0.1238
316.0941	0.1246
316.3053	0.123
316.5165	0.1262
316.7277	0.1231
316.9389	0.1275
317.1501	0.1241
317.3613	0.1173
317.5724	0.1196
317.7836	0.1194
317.9947	0.1181
318.2058	0.1214
318.417	0.1119
318.6281	0.1146
318.8391	0.1255
319.0502	0.1224
319.2613	0.1174
319.4723	0.1134
319.6834	0.1199
319.8944	0.1188
320.1054	0.12
320.3164	0.1153
320.5274	0.1118
320.7383	0.1239
320.9493	0.1227
321.1602	0.1174
321.3712	0.1181
321.5821	0.1172
321.793	0.1206
322.0039	0.1198
322.2148	0.119
322.4257	0.1168
322.6365	0.1149
322.8474	0.1261
323.0582	0.1224
323.269	0.12
323.4798	0.1186
323.6906	0.1141
323.9014	0.1204
324.1122	0.1188
324.3229	0.126
324.5337	0.1229
324.7444	0.1215
324.9551	0.1212
325.1658	0.1203
325.3765	0.1261
325.5872	0.1243
325.7979	0.1208
326.0085	0.1221
326.2192	0.1175
326.4298	0.1286
326.6404	0.1253
326.851	0.1216
327.0616	0.1211
327.2722	0.1215
327.4828	0.1188
327.6933	0.1334
327.9039	0.1222
328.1144	0.1221
328.3249	0.1302
328.5354	0.1288
328.7459	0.1228
328.9564	0.1266
329.1669	0.1327
329.3773	0.1231
329.5878	0.127
329.7982	0.1273
330.0086	0.1217
330.219	0.124
330.4294	0.1296
330.6398	0.1248
330.8502	0.1305
331.0605	0.1313
331.2708	0.1272
331.4812	0.1296
331.6915	0.132
331.9018	0.1283
332.1121	0.1305
332.3224	0.1295
332.5326	0.1288
332.7429	0.1323
332.9531	0.1339
333.1633	0.1289
333.3735	0.1251
333.5837	0.1296
333.7939	0.1348
334.0041	0.1325
334.2143	0.1327
334.4244	0.1419
334.6346	0.1285
334.8447	0.132
335.0548	0.1378
335.2649	0.1337
335.475	0.1361
335.685	0.139
335.8951	0.1334
336.1051	0.1354
336.3152	0.1355
336.5252	0.1304
336.7352	0.1337
336.9452	0.1322
337.1552	0.1322
337.3652	0.1361
337.5751	0.1332
337.7851	0.1304
337.995	0.1327
338.2049	0.1295
338.4148	0.1363
338.6247	0.1366
338.8346	0.1366
339.0445	0.1399
339.2543	0.1412
339.4642	0.1351
339.674	0.1314
339.8838	0.1364
340.0936	0.1358
340.3034	0.1299
340.5132	0.1318
340.7229	0.1397
340.9327	0.1502
341.1424	0.1405
341.3522	0.1291
341.5619	0.1497
341.7716	0.147
341.9813	0.1464
342.1909	0.1459
342.4006	0.1433
342.6102	0.146
342.8199	0.1463
343.0295	0.1442
343.2391	0.1456
343.4487	0.1499
343.6583	0.1519
343.8679	0.1367
344.0774	0.1481
344.287	0.1532
344.4965	0.1591
344.706	0.149
344.9155	0.1449
345.125	0.151
345.3345	0.1614
345.544	0.1524
345.7534	0.1491
345.9629	0.1521
346.1723	0.1539
346.3817	0.159
346.5911	0.1545
346.8005	0.1633
347.0099	0.1566
347.2193	0.1585
347.4286	0.1664
347.638	0.1597
347.8473	0.1676
348.0566	0.1578
348.2659	0.1632
348.4752	0.1585
348.6845	0.1541
348.8937	0.1594
349.103	0.1653
349.3122	0.1592
349.5214	0.1666
349.7306	0.1694
349.9398	0.1738
350.149	0.1639
350.3582	0.1695
350.5674	0.1703
350.7765	0.1745
350.9856	0.1608
351.1948	0.1693
351.4039	0.1711
351.613	0.168
351.822	0.1726
352.0311	0.1729
352.2402	0.1756
352.4492	0.1731
352.6582	0.1759
352.8672	0.1821
353.0762	0.1822
353.2852	0.1767
353.4942	0.175
353.7032	0.1798
353.9121	0.1779
354.1211	0.191
354.33	0.1832
354.5389	0.1747
354.7478	0.1803
354.9567	0.177
355.1655	0.18
355.3744	0.1813
355.5833	0.1844
355.7921	0.1871
356.0009	0.1891
356.2097	0.1871
356.4185	0.1832
356.6273	0.1858
356.8361	0.1866
357.0448	0.1875
357.2536	0.1958
357.4623	0.1895
357.671	0.1974
357.8797	0.1942
358.0884	0.1872
358.2971	0.1923
358.5057	0.1948
358.7144	0.1927
358.923	0.1947
359.1316	0.2021
359.3402	0.1992
359.5488	0.1982
359.7574	0.2153
359.966	0.2085
360.1746	0.1953
360.3831	0.2077
360.5916	0.2023
360.8002	0.2061
361.0087	0.2063
361.2172	0.2081
361.4256	0.217
361.6341	0.2142
361.8426	0.2165
362.051	0.2118
362.2594	0.2146
362.4678	0.2113
362.6762	0.2256
362.8846	0.2144
363.093	0.2149
363.3014	0.22
363.5097	0.2178
363.718	0.2222
363.9264	0.2242
364.1347	0.2266
364.343	0.2272
364.5513	0.2221
364.7595	0.2335
364.9678	0.227
365.176	0.2296
365.3842	0.2342
365.5925	0.2231
365.8007	0.2356
366.0089	0.2405
366.217	0.2355
366.4252	0.2354
366.6333	0.2322
366.8415	0.2437
367.0496	0.2362
367.2577	0.243
367.4658	0.2363
367.6739	0.2354
367.882	0.2468
368.09	0.2325
368.2981	0.256
368.5061	0.2463
368.7141	0.2375
368.9221	0.2508
369.1301	0.2475
369.3381	0.2513
369.5461	0.2517
369.754	0.2588
369.962	0.2514
370.1699	0.2593
370.3778	0.2565
370.5857	0.2571
370.7936	0.252
371.0015	0.2537
371.2093	0.262
371.4172	0.2558
371.625	0.2552
371.8328	0.2589
372.0406	0.2594
372.2484	0.2565
372.4562	0.2654
372.664	0.2627
372.8717	0.2691
373.0795	0.2791
373.2872	0.2722
373.4949	0.2663
373.7026	0.263
373.9103	0.2665
374.118	0.2746
374.3256	0.2689
374.5333	0.2698
374.7409	0.2667
374.9485	0.2791
375.1561	0.2763
375.3637	0.2739
375.5713	0.2813
375.7789	0.2712
375.9864	0.2865
376.194	0.2872
376.4015	0.2727
376.609	0.2816
376.8165	0.2849
377.024	0.2824
377.2315	0.2901
377.4389	0.2739
377.6464	0.2823
377.8538	0.2936
378.0612	0.2926
378.2686	0.2892
378.476	0.2929
378.6834	0.2832
378.8908	0.2877
379.0981	0.2886
379.3055	0.2876
379.5128	0.2924
379.7201	0.2959
379.9274	0.2966
380.1347	0.292
380.342	0.2948
380.5492	0.2967
380.7565	0.2847
380.9637	0.2958
381.1709	0.2979
381.3781	0.301
381.5853	0.2991
381.7925	0.2922
381.9997	0.3037
382.2068	0.2972
382.4139	0.3026
382.6211	0.3086
382.8282	0.3081
383.0353	0.3095
383.2424	0.2925
383.4494	0.3069
383.6565	0.3064
383.8635	0.3098
384.0706	0.3098
384.2776	0.3021
384.4846	0.3086
384.6916	0.3073
384.8986	0.3105
385.1055	0.3137
385.3125	0.317
385.5194	0.3148
385.7263	0.3086
385.9333	0.313
386.1402	0.3109
386.347	0.3116
386.5539	0.3096
386.7608	0.3031
386.9676	0.3076
387.1744	0.2987
387.3813	0.3147
387.5881	0.3041
387.7948	0.3133
388.0016	0.3209
388.2084	0.3157
388.4151	0.3143
388.6219	0.303
388.8286	0.3065
389.0353	0.3063
389.242	0.3058
389.4487	0.3035
389.6553	0.2976
389.862	0.3069
390.0686	0.3008
390.2753	0.3052
390.4819	0.312
390.6885	0.3087
390.8951	0.2996
391.1016	0.2962
391.3082	0.3003
391.5147	0.301
391.7213	0.2899
391.9278	0.2889
392.1343	0.2874
392.3408	0.2975
392.5473	0.2844
392.7537	0.2872
392.9602	0.2814
393.1666	0.2987
393.373	0.2889
393.5794	0.2824
393.7858	0.2855
393.9922	0.2831
394.1986	0.2775
394.4049	0.282
394.6113	0.2827
394.8176	0.2793
395.0239	0.277
395.2302	0.2822
395.4365	0.2769
395.6428	0.2737
395.8491	0.2765
396.0553	0.2739
396.2615	0.2735
396.4678	0.2757
396.674	0.2723
396.8802	0.2751
397.0863	0.2702
397.2925	0.2756
397.4987	0.265
397.7048	0.2787
397.9109	0.2614
398.117	0.268
398.3231	0.2648
398.5292	0.2585
398.7353	0.2657
398.9413	0.2629
399.1474	0.2675
399.3534	0.2616
399.5594	0.2611
399.7654	0.2606
399.9714	0.2618
400.1774	0.2669
400.3833	0.2678
400.5893	0.2711
400.7952	0.2757
401.0011	0.2608
401.207	0.2649
401.4129	0.261
401.6188	0.2622
401.8247	0.269
402.0305	0.2586
402.2364	0.2679
402.4422	0.2546
402.648	0.2597
402.8538	0.2679
403.0596	0.2621
403.2654	0.2551
403.4711	0.2561
403.6768	0.2596
403.8826	0.2635
404.0883	0.2764
404.294	0.2645
404.4997	0.2717
404.7054	0.2635
404.911	0.271
405.1167	0.2539
405.3223	0.2586
405.5279	0.2586
405.7335	0.261
405.9391	0.2634
406.1447	0.253
406.3502	0.257
406.5558	0.2561
406.7613	0.2714
406.9668	0.2653
407.1724	0.2712
407.3778	0.2631
407.5833	0.2559
407.7888	0.2609
407.9942	0.2549
408.1997	0.2644
408.4051	0.2647
408.6105	0.2675
408.8159	0.2529
409.0213	0.265
409.2267	0.2643
409.432	0.2573
409.6374	0.2657
409.8427	0.268
410.048	0.251
410.2533	0.2566
410.4586	0.2584
410.6639	0.2584
410.8691	0.253
411.0744	0.2566
411.2796	0.2558
411.4848	0.2536
411.69	0.2562
411.8952	0.2588
412.1004	0.2549
412.3056	0.2565
412.5107	0.2633
412.7158	0.2706
412.921	0.2644
413.1261	0.2552
413.3312	0.2658
413.5362	0.271
413.7413	0.2619
413.9464	0.2478
414.1514	0.258
414.3564	0.2526
414.5614	0.2521
414.7664	0.2584
414.9714	0.2514
415.1764	0.2612
415.3813	0.2472
415.5863	0.2585
415.7912	0.2567
415.9961	0.2585
416.201	0.2691
416.4059	0.258
416.6108	0.2646
416.8156	0.2608
417.0205	0.253
417.2253	0.2527
417.4301	0.2593
417.6349	0.2626
417.8397	0.2538
418.0445	0.2522
418.2492	0.2486
418.454	0.2469
418.6587	0.2494
418.8634	0.2519
419.0681	0.2583
419.2728	0.2529
419.4775	0.2657
419.6822	0.2466
419.8868	0.232
420.0915	0.2431
420.2961	0.238
420.5007	0.2318
420.7053	0.2496
420.9099	0.2433
421.1144	0.2427
421.319	0.2407
421.5235	0.2422
421.728	0.2439
421.9325	0.2322
422.137	0.2352
422.3415	0.229
422.546	0.2326
422.7504	0.2353
422.9549	0.2354
423.1593	0.2313
423.3637	0.2381
423.5681	0.2478
423.7725	0.2347
423.9769	0.2348
424.1812	0.2256
424.3856	0.2187
424.5899	0.2269
424.7942	0.2297
424.9985	0.2234
425.2028	0.2299
425.4071	0.2346
425.6113	0.2201
425.8156	0.214
426.0198	0.2265
426.224	0.2206
426.4282	0.217
426.6324	0.2209
426.8366	0.2162
