Data from D4ACN5uM460nmA_Absorbance_13-05-42-560.txt Node
Date: Fri Feb 21 13:05:42 GMT 2025
User: LASERRRRR
Spectrometer: FLMT03099
Trigger mode: 0
Integration Time (sec): 1.500000E-2
Scans to average: 1
Electric dark correction enabled: true
Nonlinearity correction enabled: false
Boxcar width: 0
XAxis mode: Wavelengths
Number of Pixels in Spectrum: 3648
>>>>>Begin Spectral Data<<<<<
179.3399	-0.4509
179.5586	-0.4509
179.7771	-0.4509
179.9957	0.2203
180.2143	-0
180.4329	0.3742
180.6514	-0
180.8699	-0
181.0885	-0
181.307	0.5903
181.5255	0.1932
181.744	-0
181.9625	0.319
182.181	0.1747
182.3994	-0.2406
182.6179	-0
182.8363	0.3602
183.0547	-0.2493
183.2732	0.1277
183.4916	0.3615
183.71	0.0829
183.9284	0.0707
184.1467	0.1119
184.3651	-0.0629
184.5835	0.2508
184.8018	0.5261
185.0201	0.0827
185.2385	0.2766
185.4568	0.1327
185.6751	-0.0286
185.8934	0.1203
186.1117	-0.0323
186.3299	0.2316
186.5482	0.3599
186.7664	0.2488
186.9847	-0.1507
187.2029	0.0453
187.4211	-0.0475
187.6393	0.1043
187.8575	0.2644
188.0757	0.5409
188.2939	0.2038
188.512	0.3182
188.7302	0.011
188.9483	0.0424
189.1665	0.5343
189.3846	0.0005
189.6027	0.1277
189.8208	0.1565
190.0389	0.1034
190.257	0.1304
190.475	-0.0503
190.6931	-0.0295
190.9111	0.2716
191.1292	0.1306
191.3472	0.1377
191.5652	0.4366
191.7832	0.3078
192.0012	0.1574
192.2192	0.1303
192.4371	0.0966
192.6551	0.1338
192.873	0.1221
193.091	0.1824
193.3089	0.1188
193.5268	0.2757
193.7447	0.1036
193.9626	0.1894
194.1805	0.1838
194.3984	0.2563
194.6162	0.2852
194.8341	0.2121
195.0519	0.1793
195.2697	0.2214
195.4875	0.3262
195.7054	0.2764
195.9231	0.1761
196.1409	0.2773
196.3587	0.313
196.5765	0.3144
196.7942	0.3219
197.012	0.283
197.2297	0.2752
197.4474	0.3599
197.6651	0.3227
197.8828	0.3427
198.1005	0.4602
198.3182	0.3638
198.5358	0.3662
198.7535	0.3729
198.9711	0.4014
199.1888	0.3584
199.4064	0.4618
199.624	0.3973
199.8416	0.3866
200.0592	0.3739
200.2767	0.3823
200.4943	0.4124
200.7119	0.3931
200.9294	0.4352
201.1469	0.3871
201.3645	0.4086
201.582	0.402
201.7995	0.4192
202.017	0.4175
202.2344	0.4324
202.4519	0.3667
202.6694	0.3854
202.8868	0.4102
203.1042	0.407
203.3217	0.3838
203.5391	0.3868
203.7565	0.3712
203.9739	0.3696
204.1913	0.3423
204.4086	0.346
204.626	0.3935
204.8433	0.3436
205.0607	0.3778
205.278	0.3505
205.4953	0.3524
205.7126	0.342
205.9299	0.3208
206.1472	0.3056
206.3644	0.3301
206.5817	0.3383
206.7989	0.3495
207.0162	0.3214
207.2334	0.3106
207.4506	0.2944
207.6678	0.3063
207.885	0.2883
208.1022	0.3218
208.3194	0.287
208.5365	0.2958
208.7537	0.2922
208.9708	0.3008
209.1879	0.2798
209.405	0.2706
209.6222	0.2696
209.8392	0.2943
210.0563	0.2632
210.2734	0.2728
210.4905	0.287
210.7075	0.2721
210.9245	0.2724
211.1416	0.2758
211.3586	0.2743
211.5756	0.2328
211.7926	0.2608
212.0096	0.2474
212.2265	0.2648
212.4435	0.2541
212.6604	0.2787
212.8774	0.2452
213.0943	0.2531
213.3112	0.2531
213.5281	0.267
213.745	0.2582
213.9619	0.2314
214.1788	0.2476
214.3956	0.2402
214.6125	0.2538
214.8293	0.2523
215.0461	0.2334
215.2629	0.25
215.4798	0.2621
215.6965	0.2465
215.9133	0.241
216.1301	0.2458
216.3469	0.2536
216.5636	0.2413
216.7803	0.2509
216.9971	0.2515
217.2138	0.2582
217.4305	0.2541
217.6472	0.2507
217.8639	0.2535
218.0805	0.2571
218.2972	0.2445
218.5138	0.2664
218.7305	0.2585
218.9471	0.2412
219.1637	0.2735
219.3803	0.2646
219.5969	0.2556
219.8135	0.2581
220.0301	0.2514
220.2466	0.255
220.4632	0.2444
220.6797	0.2662
220.8962	0.2517
221.1127	0.2608
221.3292	0.2592
221.5457	0.261
221.7622	0.2709
221.9787	0.2897
222.1951	0.2677
222.4116	0.2846
222.628	0.2883
222.8444	0.282
223.0608	0.2891
223.2772	0.2845
223.4936	0.2805
223.71	0.2986
223.9264	0.2894
224.1427	0.2957
224.3591	0.2886
224.5754	0.282
224.7917	0.2978
225.008	0.304
225.2243	0.3035
225.4406	0.2892
225.6569	0.3066
225.8732	0.3108
226.0894	0.3036
226.3057	0.3194
226.5219	0.3151
226.7381	0.3182
226.9543	0.3167
227.1705	0.3244
227.3867	0.3228
227.6029	0.3361
227.8191	0.3396
228.0352	0.3356
228.2513	0.3507
228.4675	0.3359
228.6836	0.3484
228.8997	0.338
229.1158	0.3586
229.3319	0.3601
229.548	0.3541
229.764	0.3647
229.9801	0.3726
230.1961	0.3578
230.4121	0.3632
230.6282	0.3799
230.8442	0.3788
231.0602	0.3916
231.2761	0.381
231.4921	0.3888
231.7081	0.393
231.924	0.4027
232.14	0.3971
232.3559	0.4058
232.5718	0.416
232.7877	0.4031
233.0036	0.4122
233.2195	0.4178
233.4353	0.4186
233.6512	0.4114
233.867	0.4315
234.0829	0.4228
234.2987	0.4148
234.5145	0.4417
234.7303	0.425
234.9461	0.4405
235.1619	0.442
235.3776	0.4366
235.5934	0.4303
235.8091	0.4391
236.0249	0.4363
236.2406	0.438
236.4563	0.4451
236.672	0.4423
236.8877	0.4488
237.1034	0.4396
237.319	0.4491
237.5347	0.4447
237.7503	0.4474
237.966	0.4619
238.1816	0.4518
238.3972	0.4547
238.6128	0.4587
238.8284	0.4623
239.0439	0.4585
239.2595	0.4625
239.475	0.4621
239.6906	0.4577
239.9061	0.455
240.1216	0.4586
240.3371	0.457
240.5526	0.4629
240.7681	0.4623
240.9836	0.4555
241.199	0.4439
241.4145	0.4432
241.6299	0.4456
241.8453	0.4383
242.0607	0.4319
242.2761	0.4267
242.4915	0.4247
242.7069	0.4163
242.9223	0.419
243.1376	0.4036
243.353	0.392
243.5683	0.4012
243.7836	0.385
243.9989	0.3722
244.2142	0.3725
244.4295	0.3639
244.6448	0.3632
244.86	0.3406
245.0753	0.3415
245.2905	0.3342
245.5057	0.3289
245.721	0.3296
245.9362	0.3204
246.1514	0.3183
246.3665	0.3091
246.5817	0.2958
246.7969	0.2922
247.012	0.2916
247.2271	0.289
247.4423	0.2803
247.6574	0.2776
247.8725	0.2682
248.0876	0.2662
248.3026	0.2664
248.5177	0.2563
248.7328	0.2488
248.9478	0.2432
249.1628	0.2465
249.3779	0.2386
249.5929	0.2407
249.8079	0.2351
250.0228	0.2261
250.2378	0.2252
250.4528	0.2262
250.6677	0.2195
250.8827	0.2095
251.0976	0.2182
251.3125	0.2172
251.5274	0.2093
251.7423	0.2047
251.9572	0.2059
252.172	0.2065
252.3869	0.2066
252.6017	0.2015
252.8166	0.1958
253.0314	0.1958
253.2462	0.1971
253.461	0.1961
253.6758	0.197
253.8906	0.1943
254.1053	0.1938
254.3201	0.1925
254.5348	0.1863
254.7496	0.1836
254.9643	0.19
255.179	0.1861
255.3937	0.1891
255.6083	0.1907
255.823	0.1849
256.0377	0.1823
256.2523	0.1856
256.467	0.1833
256.6816	0.1775
256.8962	0.1841
257.1108	0.1823
257.3254	0.1835
257.54	0.1751
257.7545	0.1811
257.9691	0.1808
258.1836	0.1742
258.3981	0.1829
258.6127	0.1741
258.8272	0.1796
259.0417	0.1731
259.2561	0.1782
259.4706	0.1733
259.6851	0.1719
259.8995	0.1755
260.114	0.178
260.3284	0.1709
260.5428	0.1755
260.7572	0.1769
260.9716	0.1756
261.186	0.1741
261.4003	0.1724
261.6147	0.171
261.829	0.1752
262.0433	0.1715
262.2577	0.1718
262.472	0.1757
262.6863	0.1804
262.9005	0.172
263.1148	0.174
263.3291	0.1784
263.5433	0.1792
263.7576	0.1791
263.9718	0.1745
264.186	0.1744
264.4002	0.1729
264.6144	0.1816
264.8286	0.1777
265.0427	0.1845
265.2569	0.1794
265.471	0.1807
265.6851	0.1864
265.8993	0.1705
266.1134	0.1759
266.3275	0.171
266.5415	0.1789
266.7556	0.178
266.9697	0.1821
267.1837	0.1785
267.3978	0.1767
267.6118	0.1756
267.8258	0.174
268.0398	0.1747
268.2538	0.1765
268.4677	0.1753
268.6817	0.1703
268.8957	0.1697
269.1096	0.168
269.3235	0.1732
269.5374	0.1757
269.7514	0.1823
269.9652	0.1754
270.1791	0.1673
270.393	0.1696
270.6068	0.1717
270.8207	0.1673
271.0345	0.1666
271.2483	0.1605
271.4622	0.1678
271.676	0.1715
271.8897	0.1658
272.1035	0.1764
272.3173	0.1649
272.531	0.1666
272.7448	0.1668
272.9585	0.1587
273.1722	0.1661
273.3859	0.1641
273.5996	0.1634
273.8133	0.1659
274.0269	0.1655
274.2406	0.166
274.4542	0.1641
274.6679	0.1667
274.8815	0.1776
275.0951	0.1729
275.3087	0.172
275.5223	0.1668
275.7358	0.1728
275.9494	0.1708
276.1629	0.1746
276.3765	0.1692
276.59	0.1706
276.8035	0.1678
277.017	0.1733
277.2305	0.1722
277.444	0.1721
277.6574	0.1715
277.8709	0.1752
278.0843	0.1775
278.2978	0.1774
278.5112	0.1716
278.7246	0.1758
278.938	0.177
279.1513	0.1748
279.3647	0.1761
279.5781	0.1736
279.7914	0.1709
280.0047	0.1774
280.2181	0.1763
280.4314	0.1732
280.6447	0.1782
280.8579	0.1681
281.0712	0.1792
281.2845	0.17
281.4977	0.1787
281.711	0.1755
281.9242	0.1741
282.1374	0.1793
282.3506	0.1815
282.5638	0.1754
282.7769	0.1775
282.9901	0.1823
283.2033	0.1807
283.4164	0.1783
283.6295	0.1791
283.8426	0.1766
284.0557	0.1812
284.2688	0.1774
284.4819	0.1775
284.695	0.1889
284.908	0.1803
285.1211	0.1789
285.3341	0.1791
285.5471	0.1847
285.7601	0.182
285.9731	0.183
286.1861	0.1848
286.3991	0.1833
286.612	0.1877
286.825	0.1876
287.0379	0.1837
287.2508	0.188
287.4637	0.1857
287.6766	0.1807
287.8895	0.1822
288.1024	0.1882
288.3152	0.1878
288.5281	0.1861
288.7409	0.1856
288.9538	0.1848
289.1666	0.1851
289.3794	0.1875
289.5922	0.1885
289.8049	0.1878
290.0177	0.1902
290.2304	0.1895
290.4432	0.1943
290.6559	0.1861
290.8686	0.1904
291.0813	0.1898
291.294	0.1892
291.5067	0.1901
291.7194	0.1898
291.932	0.19
292.1447	0.1989
292.3573	0.1908
292.5699	0.1933
292.7825	0.1943
292.9951	0.1851
293.2077	0.1894
293.4203	0.1964
293.6328	0.1924
293.8454	0.1971
294.0579	0.1892
294.2704	0.1996
294.4829	0.1924
294.6954	0.1936
294.9079	0.1945
295.1204	0.1873
295.3328	0.201
295.5453	0.1941
295.7577	0.1941
295.9701	0.1964
296.1825	0.1941
296.3949	0.1826
296.6073	0.191
296.8197	0.1948
297.0321	0.1889
297.2444	0.189
297.4567	0.1971
297.6691	0.1892
297.8814	0.1893
298.0937	0.1905
298.306	0.1937
298.5182	0.1948
298.7305	0.1923
298.9428	0.1886
299.155	0.1918
299.3672	0.1899
299.5794	0.1891
299.7916	0.1964
300.0038	0.1907
300.216	0.1897
300.4282	0.1925
300.6403	0.2006
300.8525	0.1986
301.0646	0.1956
301.2767	0.1903
301.4888	0.1982
301.7009	0.1927
301.913	0.1917
302.125	0.1904
302.3371	0.1908
302.5491	0.189
302.7612	0.1973
302.9732	0.1892
303.1852	0.1942
303.3972	0.1911
303.6092	0.1951
303.8211	0.1921
304.0331	0.187
304.245	0.19
304.457	0.1828
304.6689	0.1875
304.8808	0.1846
305.0927	0.1886
305.3046	0.1851
305.5164	0.1798
305.7283	0.1825
305.9401	0.1802
306.152	0.1779
306.3638	0.1767
306.5756	0.1805
306.7874	0.1758
306.9992	0.1744
307.2109	0.1724
307.4227	0.1701
307.6344	0.1736
307.8462	0.1605
308.0579	0.1653
308.2696	0.1688
308.4813	0.1638
308.693	0.1566
308.9046	0.1605
309.1163	0.1577
309.328	0.1616
309.5396	0.1538
309.7512	0.1548
309.9628	0.1512
310.1744	0.1506
310.386	0.1435
310.5976	0.1437
310.8091	0.1554
311.0207	0.1485
311.2322	0.146
311.4437	0.1394
311.6552	0.1413
311.8667	0.1401
312.0782	0.1422
312.2897	0.1423
312.5012	0.137
312.7126	0.1336
312.924	0.1361
313.1355	0.1329
313.3469	0.1345
313.5583	0.1332
313.7696	0.1286
313.981	0.1365
314.1924	0.1312
314.4037	0.1318
314.6151	0.1294
314.8264	0.1301
315.0377	0.1313
315.249	0.1289
315.4603	0.1166
315.6716	0.1259
315.8828	0.1239
316.0941	0.1277
316.3053	0.1208
316.5165	0.1293
316.7277	0.1194
316.9389	0.1244
317.1501	0.122
317.3613	0.123
317.5724	0.1225
317.7836	0.1143
317.9947	0.1185
318.2058	0.1181
318.417	0.1199
318.6281	0.1178
318.8391	0.1176
319.0502	0.1257
319.2613	0.1213
319.4723	0.1224
319.6834	0.1274
319.8944	0.1158
320.1054	0.1161
320.3164	0.1188
320.5274	0.1205
320.7383	0.1211
320.9493	0.1152
321.1602	0.1173
321.3712	0.119
321.5821	0.1171
321.793	0.1279
322.0039	0.1213
322.2148	0.1208
322.4257	0.1196
322.6365	0.1223
322.8474	0.1202
323.0582	0.1168
323.269	0.1232
323.4798	0.1257
323.6906	0.1145
323.9014	0.1175
324.1122	0.1137
324.3229	0.1245
324.5337	0.1184
324.7444	0.1257
324.9551	0.125
325.1658	0.1186
325.3765	0.1292
325.5872	0.1201
325.7979	0.119
326.0085	0.1211
326.2192	0.1218
326.4298	0.1243
326.6404	0.1285
326.851	0.1159
327.0616	0.1231
327.2722	0.1205
327.4828	0.1273
327.6933	0.1301
327.9039	0.1273
328.1144	0.128
328.3249	0.1301
328.5354	0.1305
328.7459	0.1275
328.9564	0.1254
329.1669	0.1278
329.3773	0.1288
329.5878	0.1236
329.7982	0.1236
330.0086	0.1287
330.219	0.1236
330.4294	0.1324
330.6398	0.122
330.8502	0.1316
331.0605	0.1265
331.2708	0.1241
331.4812	0.1329
331.6915	0.1293
331.9018	0.129
332.1121	0.1372
332.3224	0.1359
332.5326	0.1281
332.7429	0.1281
332.9531	0.13
333.1633	0.1262
333.3735	0.1295
333.5837	0.1348
333.7939	0.1281
334.0041	0.1336
334.2143	0.1338
334.4244	0.1361
334.6346	0.1345
334.8447	0.1338
335.0548	0.1311
335.2649	0.1406
335.475	0.1367
335.685	0.1383
335.8951	0.131
336.1051	0.1356
336.3152	0.1354
336.5252	0.1315
336.7352	0.1367
336.9452	0.1333
337.1552	0.1353
337.3652	0.1286
337.5751	0.1348
337.7851	0.1415
337.995	0.1324
338.2049	0.1362
338.4148	0.1392
338.6247	0.1415
338.8346	0.1331
339.0445	0.1389
339.2543	0.1355
339.4642	0.1324
339.674	0.137
339.8838	0.1393
340.0936	0.1365
340.3034	0.1317
340.5132	0.1315
340.7229	0.1342
340.9327	0.1452
341.1424	0.1418
341.3522	0.1324
341.5619	0.1431
341.7716	0.1419
341.9813	0.1472
342.1909	0.1446
342.4006	0.1513
342.6102	0.142
342.8199	0.1446
343.0295	0.1409
343.2391	0.1489
343.4487	0.1465
343.6583	0.1505
343.8679	0.1357
344.0774	0.1455
344.287	0.1519
344.4965	0.1473
344.706	0.1498
344.9155	0.1477
345.125	0.1465
345.3345	0.1574
345.544	0.1578
345.7534	0.1567
345.9629	0.1577
346.1723	0.1598
346.3817	0.1568
346.5911	0.1551
346.8005	0.1616
347.0099	0.1594
347.2193	0.1597
347.4286	0.1632
347.638	0.1575
347.8473	0.1585
348.0566	0.1624
348.2659	0.1607
348.4752	0.16
348.6845	0.1604
348.8937	0.1647
349.103	0.1605
349.3122	0.1643
349.5214	0.17
349.7306	0.1722
349.9398	0.1655
350.149	0.1576
350.3582	0.1703
350.5674	0.1671
350.7765	0.1704
350.9856	0.1701
351.1948	0.1706
351.4039	0.1676
351.613	0.1735
351.822	0.1774
352.0311	0.1703
352.2402	0.1752
352.4492	0.1747
352.6582	0.1704
352.8672	0.1814
353.0762	0.1766
353.2852	0.1773
353.4942	0.1829
353.7032	0.1757
353.9121	0.179
354.1211	0.1743
354.33	0.1857
354.5389	0.174
354.7478	0.171
354.9567	0.1809
355.1655	0.1825
355.3744	0.1787
355.5833	0.1821
355.7921	0.1862
356.0009	0.189
356.2097	0.183
356.4185	0.1831
356.6273	0.1833
356.8361	0.1849
357.0448	0.1836
357.2536	0.1868
357.4623	0.1854
357.671	0.1873
357.8797	0.1967
358.0884	0.1871
358.2971	0.1866
358.5057	0.2001
358.7144	0.1953
358.923	0.203
359.1316	0.1985
359.3402	0.1959
359.5488	0.191
359.7574	0.208
359.966	0.1996
360.1746	0.1946
360.3831	0.2058
360.5916	0.205
360.8002	0.2068
361.0087	0.2053
361.2172	0.2037
361.4256	0.2087
361.6341	0.2014
361.8426	0.2135
362.051	0.204
362.2594	0.2079
362.4678	0.2108
362.6762	0.2122
362.8846	0.2116
363.093	0.2138
363.3014	0.225
363.5097	0.2175
363.718	0.2231
363.9264	0.2292
364.1347	0.2244
364.343	0.226
364.5513	0.2174
364.7595	0.2315
364.9678	0.2203
365.176	0.2278
365.3842	0.2259
365.5925	0.2295
365.8007	0.2239
366.0089	0.2395
366.217	0.233
366.4252	0.2335
366.6333	0.2346
366.8415	0.2432
367.0496	0.2348
367.2577	0.2361
367.4658	0.2344
367.6739	0.2376
367.882	0.2413
368.09	0.2355
368.2981	0.2415
368.5061	0.2478
368.7141	0.2464
368.9221	0.2476
369.1301	0.244
369.3381	0.2486
369.5461	0.2443
369.754	0.2478
369.962	0.2454
370.1699	0.2536
370.3778	0.2548
370.5857	0.2521
370.7936	0.2547
371.0015	0.2535
371.2093	0.2552
371.4172	0.2519
371.625	0.2513
371.8328	0.2509
372.0406	0.2619
372.2484	0.2574
372.4562	0.2627
372.664	0.2607
372.8717	0.2638
373.0795	0.2736
373.2872	0.2688
373.4949	0.2657
373.7026	0.2605
373.9103	0.2591
374.118	0.2616
374.3256	0.2755
374.5333	0.2679
374.7409	0.2647
374.9485	0.2746
375.1561	0.2705
375.3637	0.2675
375.5713	0.2794
375.7789	0.2643
375.9864	0.2684
376.194	0.2799
376.4015	0.2735
376.609	0.2739
376.8165	0.2794
377.024	0.2797
377.2315	0.2758
377.4389	0.2743
377.6464	0.2814
377.8538	0.2777
378.0612	0.2837
378.2686	0.2801
378.476	0.2815
378.6834	0.2845
378.8908	0.2928
379.0981	0.2889
379.3055	0.2882
379.5128	0.2847
379.7201	0.2846
379.9274	0.2893
380.1347	0.2883
380.342	0.3007
380.5492	0.2922
380.7565	0.2852
380.9637	0.2941
381.1709	0.287
381.3781	0.3009
381.5853	0.2872
381.7925	0.2954
381.9997	0.3066
382.2068	0.3122
382.4139	0.2959
382.6211	0.3039
382.8282	0.2995
383.0353	0.3004
383.2424	0.3011
383.4494	0.3013
383.6565	0.3
383.8635	0.2968
384.0706	0.3104
384.2776	0.3067
384.4846	0.3023
384.6916	0.3075
384.8986	0.3165
385.1055	0.3136
385.3125	0.3045
385.5194	0.3104
385.7263	0.2984
385.9333	0.3099
386.1402	0.3098
386.347	0.3009
386.5539	0.3099
386.7608	0.3025
386.9676	0.3148
387.1744	0.3025
387.3813	0.3107
387.5881	0.3008
387.7948	0.3104
388.0016	0.3145
388.2084	0.3015
388.4151	0.31
388.6219	0.3012
388.8286	0.3013
389.0353	0.3072
389.242	0.3169
389.4487	0.2971
389.6553	0.2922
389.862	0.3007
390.0686	0.3057
390.2753	0.2943
390.4819	0.3021
390.6885	0.3031
390.8951	0.304
391.1016	0.2894
391.3082	0.2929
391.5147	0.2921
391.7213	0.2873
391.9278	0.2927
392.1343	0.2968
392.3408	0.2976
392.5473	0.2885
392.7537	0.2935
392.9602	0.2951
393.1666	0.2865
393.373	0.2853
393.5794	0.2863
393.7858	0.2881
393.9922	0.2765
394.1986	0.2785
394.4049	0.2801
394.6113	0.2778
394.8176	0.2857
395.0239	0.2712
395.2302	0.2747
395.4365	0.2822
395.6428	0.277
395.8491	0.2678
396.0553	0.2763
396.2615	0.268
396.4678	0.2788
396.674	0.2738
396.8802	0.2698
397.0863	0.2603
397.2925	0.2646
397.4987	0.2603
397.7048	0.262
397.9109	0.2636
398.117	0.2633
398.3231	0.2614
398.5292	0.2499
398.7353	0.253
398.9413	0.258
399.1474	0.2583
399.3534	0.2653
399.5594	0.2623
399.7654	0.2655
399.9714	0.2689
400.1774	0.2647
400.3833	0.2546
400.5893	0.2488
400.7952	0.2632
401.0011	0.2571
401.207	0.2664
401.4129	0.2575
401.6188	0.2604
401.8247	0.2647
402.0305	0.26
402.2364	0.2531
402.4422	0.253
402.648	0.2648
402.8538	0.2548
403.0596	0.2524
403.2654	0.2629
403.4711	0.2563
403.6768	0.2488
403.8826	0.2538
404.0883	0.2621
404.294	0.2582
404.4997	0.2566
404.7054	0.2712
404.911	0.2511
405.1167	0.2699
405.3223	0.2544
405.5279	0.2567
405.7335	0.2526
405.9391	0.2581
406.1447	0.2607
406.3502	0.2497
406.5558	0.2546
406.7613	0.2559
406.9668	0.2623
407.1724	0.2591
407.3778	0.26
407.5833	0.2484
407.7888	0.2673
407.9942	0.2556
408.1997	0.2594
408.4051	0.2595
408.6105	0.2642
408.8159	0.2601
409.0213	0.258
409.2267	0.2689
409.432	0.2577
409.6374	0.255
409.8427	0.2642
410.048	0.2574
410.2533	0.2555
410.4586	0.251
410.6639	0.2516
410.8691	0.2601
411.0744	0.2629
411.2796	0.2552
411.4848	0.2638
411.69	0.2574
411.8952	0.265
412.1004	0.2584
412.3056	0.2453
412.5107	0.2599
412.7158	0.2736
412.921	0.2549
413.1261	0.2616
413.3312	0.2572
413.5362	0.2685
413.7413	0.2549
413.9464	0.2462
414.1514	0.2521
414.3564	0.2497
414.5614	0.2605
414.7664	0.2456
414.9714	0.2553
415.1764	0.2611
415.3813	0.2543
415.5863	0.253
415.7912	0.2442
415.9961	0.2584
416.201	0.2612
416.4059	0.2565
416.6108	0.2546
416.8156	0.2446
417.0205	0.2533
417.2253	0.2568
417.4301	0.2581
417.6349	0.2402
417.8397	0.2428
418.0445	0.2454
418.2492	0.2403
418.454	0.2449
418.6587	0.2483
418.8634	0.2453
419.0681	0.2526
419.2728	0.2366
419.4775	0.2525
419.6822	0.2381
419.8868	0.2372
420.0915	0.2425
420.2961	0.2344
420.5007	0.2347
420.7053	0.2432
420.9099	0.2427
421.1144	0.2346
421.319	0.2354
421.5235	0.2322
421.728	0.2389
421.9325	0.2429
422.137	0.2266
422.3415	0.234
422.546	0.2323
422.7504	0.227
422.9549	0.2421
423.1593	0.2311
423.3637	0.2223
423.5681	0.241
423.7725	0.2239
423.9769	0.2288
424.1812	0.2191
424.3856	0.2219
424.5899	0.2237
424.7942	0.2187
424.9985	0.2258
425.2028	0.2337
425.4071	0.2317
425.6113	0.2273
425.8156	0.2194
426.0198	0.2264
426.224	0.2212
426.4282	0.2128
426.6324	0.2172
