Data from D4ACN5uM460nmA_Absorbance_13-05-41-646.txt Node
Date: Fri Feb 21 13:05:41 GMT 2025
User: LASERRRRR
Spectrometer: FLMT03099
Trigger mode: 0
Integration Time (sec): 1.500000E-2
Scans to average: 1
Electric dark correction enabled: true
Nonlinearity correction enabled: false
Boxcar width: 0
XAxis mode: Wavelengths
Number of Pixels in Spectrum: 3648
>>>>>Begin Spectral Data<<<<<
179.3399	-0.2396
179.5586	-0.2396
179.7771	-0.2396
179.9957	-0.3544
180.2143	-0
180.4329	-0
180.6514	-0
180.8699	-0
181.0885	-0.3775
181.307	-0.1906
181.5255	2.4822
181.744	0.2518
181.9625	0.1774
182.181	-0.0197
182.3994	-0.4691
182.6179	0.0278
182.8363	0.9983
183.0547	-0
183.2732	0.4976
183.4916	0.1901
183.71	0.2526
183.9284	0.15
184.1467	0.2746
184.3651	0.1862
184.5835	0.1803
184.8018	0.1482
185.0201	0.0791
185.2385	0.4124
185.4568	0.3537
185.6751	0.1086
185.8934	0.2808
186.1117	0.0991
186.3299	0.4457
186.5482	0.3097
186.7664	0.1947
186.9847	-0.1297
187.2029	0.1775
187.4211	0.2636
187.6393	0.2314
187.8575	0.1519
188.0757	0.386
188.2939	0.0551
188.512	0.3321
188.7302	0.0683
188.9483	0.1798
189.1665	0.3448
189.3846	0.1583
189.6027	0.1865
189.8208	0.2432
190.0389	0.2349
190.257	0.4148
190.475	0.0337
190.6931	0.2849
190.9111	0.1223
191.1292	0.1124
191.3472	0.1013
191.5652	0.1623
191.7832	0.1122
192.0012	0.1456
192.2192	0.1341
192.4371	0.1534
192.6551	0.2121
192.873	0.1043
193.091	0.1915
193.3089	0.1471
193.5268	0.2557
193.7447	0.3218
193.9626	0.2014
194.1805	0.2549
194.3984	0.1649
194.6162	0.1857
194.8341	0.2488
195.0519	0.2549
195.2697	0.3159
195.4875	0.2472
195.7054	0.3216
195.9231	0.2695
196.1409	0.2656
196.3587	0.2637
196.5765	0.3591
196.7942	0.3311
197.012	0.3241
197.2297	0.3414
197.4474	0.4131
197.6651	0.334
197.8828	0.2998
198.1005	0.4655
198.3182	0.3873
198.5358	0.357
198.7535	0.3572
198.9711	0.3907
199.1888	0.3484
199.4064	0.3969
199.624	0.4294
199.8416	0.4216
200.0592	0.3972
200.2767	0.4186
200.4943	0.4434
200.7119	0.44
200.9294	0.4221
201.1469	0.4819
201.3645	0.4465
201.582	0.4269
201.7995	0.4623
202.017	0.4104
202.2344	0.4458
202.4519	0.4242
202.6694	0.4192
202.8868	0.3983
203.1042	0.4185
203.3217	0.4199
203.5391	0.3686
203.7565	0.3863
203.9739	0.3605
204.1913	0.3443
204.4086	0.3865
204.626	0.3751
204.8433	0.3883
205.0607	0.3426
205.278	0.3512
205.4953	0.3375
205.7126	0.35
205.9299	0.3274
206.1472	0.3287
206.3644	0.3571
206.5817	0.3318
206.7989	0.3335
207.0162	0.3565
207.2334	0.3247
207.4506	0.3241
207.6678	0.3155
207.885	0.3036
208.1022	0.3104
208.3194	0.3156
208.5365	0.2992
208.7537	0.3021
208.9708	0.3057
209.1879	0.3049
209.405	0.2851
209.6222	0.316
209.8392	0.3313
210.0563	0.2887
210.2734	0.262
210.4905	0.273
210.7075	0.2937
210.9245	0.2949
211.1416	0.2797
211.3586	0.2823
211.5756	0.2613
211.7926	0.2713
212.0096	0.2702
212.2265	0.2878
212.4435	0.2576
212.6604	0.2628
212.8774	0.2546
213.0943	0.2537
213.3112	0.2435
213.5281	0.2592
213.745	0.2629
213.9619	0.2476
214.1788	0.2934
214.3956	0.261
214.6125	0.2735
214.8293	0.2606
215.0461	0.243
215.2629	0.2679
215.4798	0.2586
215.6965	0.2518
215.9133	0.2436
216.1301	0.2569
216.3469	0.2465
216.5636	0.2672
216.7803	0.2507
216.9971	0.261
217.2138	0.2595
217.4305	0.268
217.6472	0.2564
217.8639	0.2549
218.0805	0.254
218.2972	0.2343
218.5138	0.2487
218.7305	0.2641
218.9471	0.2522
219.1637	0.2791
219.3803	0.2588
219.5969	0.2552
219.8135	0.2694
220.0301	0.2656
220.2466	0.2804
220.4632	0.2633
220.6797	0.2564
220.8962	0.26
221.1127	0.2852
221.3292	0.2761
221.5457	0.2807
221.7622	0.2917
221.9787	0.288
222.1951	0.2929
222.4116	0.2822
222.628	0.2889
222.8444	0.2777
223.0608	0.2857
223.2772	0.2857
223.4936	0.292
223.71	0.2853
223.9264	0.2851
224.1427	0.2871
224.3591	0.2923
224.5754	0.2927
224.7917	0.3016
225.008	0.3006
225.2243	0.3018
225.4406	0.2897
225.6569	0.3021
225.8732	0.318
226.0894	0.3045
226.3057	0.3137
226.5219	0.3264
226.7381	0.3187
226.9543	0.3151
227.1705	0.3177
227.3867	0.3244
227.6029	0.3333
227.8191	0.3361
228.0352	0.3526
228.2513	0.3496
228.4675	0.3439
228.6836	0.3467
228.8997	0.341
229.1158	0.36
229.3319	0.3536
229.548	0.36
229.764	0.3655
229.9801	0.3786
230.1961	0.3754
230.4121	0.3752
230.6282	0.3851
230.8442	0.3878
231.0602	0.3842
231.2761	0.371
231.4921	0.387
231.7081	0.3982
231.924	0.4024
232.14	0.4139
232.3559	0.4056
232.5718	0.4214
232.7877	0.412
233.0036	0.4019
233.2195	0.4208
233.4353	0.4249
233.6512	0.4205
233.867	0.4237
234.0829	0.4274
234.2987	0.4247
234.5145	0.4232
234.7303	0.4322
234.9461	0.4336
235.1619	0.4365
235.3776	0.4328
235.5934	0.4397
235.8091	0.4452
236.0249	0.4473
236.2406	0.444
236.4563	0.4412
236.672	0.4422
236.8877	0.4434
237.1034	0.4487
237.319	0.4545
237.5347	0.4435
237.7503	0.4461
237.966	0.4595
238.1816	0.4649
238.3972	0.4697
238.6128	0.4685
238.8284	0.4638
239.0439	0.4641
239.2595	0.4665
239.475	0.4706
239.6906	0.4594
239.9061	0.4499
240.1216	0.458
240.3371	0.4634
240.5526	0.4556
240.7681	0.4694
240.9836	0.4544
241.199	0.4575
241.4145	0.4515
241.6299	0.4471
241.8453	0.4345
242.0607	0.4393
242.2761	0.439
242.4915	0.4271
242.7069	0.4115
242.9223	0.4194
243.1376	0.4034
243.353	0.3955
243.5683	0.3916
243.7836	0.3837
243.9989	0.3757
244.2142	0.3664
244.4295	0.3608
244.6448	0.3601
244.86	0.3484
245.0753	0.3382
245.2905	0.3298
245.5057	0.3201
245.721	0.3203
245.9362	0.3227
246.1514	0.3165
246.3665	0.3078
246.5817	0.2966
246.7969	0.2861
247.012	0.2888
247.2271	0.2874
247.4423	0.2864
247.6574	0.2812
247.8725	0.2718
248.0876	0.2659
248.3026	0.2675
248.5177	0.2539
248.7328	0.2497
248.9478	0.2446
249.1628	0.2444
249.3779	0.2468
249.5929	0.2357
249.8079	0.2356
250.0228	0.2322
250.2378	0.2269
250.4528	0.225
250.6677	0.2232
250.8827	0.216
251.0976	0.2177
251.3125	0.213
251.5274	0.2133
251.7423	0.2054
251.9572	0.2119
252.172	0.2064
252.3869	0.2093
252.6017	0.2068
252.8166	0.1964
253.0314	0.1961
253.2462	0.2012
253.461	0.1929
253.6758	0.1906
253.8906	0.1948
254.1053	0.1929
254.3201	0.1991
254.5348	0.1814
254.7496	0.1844
254.9643	0.1911
255.179	0.1856
255.3937	0.1887
255.6083	0.191
255.823	0.1867
256.0377	0.1883
256.2523	0.1865
256.467	0.1841
256.6816	0.1802
256.8962	0.1823
257.1108	0.1819
257.3254	0.1812
257.54	0.1766
257.7545	0.1842
257.9691	0.1781
258.1836	0.1747
258.3981	0.1812
258.6127	0.1758
258.8272	0.1819
259.0417	0.1752
259.2561	0.1806
259.4706	0.1729
259.6851	0.1784
259.8995	0.1681
260.114	0.1789
260.3284	0.1662
260.5428	0.1738
260.7572	0.1738
260.9716	0.1852
261.186	0.1742
261.4003	0.1697
261.6147	0.1682
261.829	0.1691
262.0433	0.1724
262.2577	0.1756
262.472	0.1733
262.6863	0.1825
262.9005	0.1736
263.1148	0.1711
263.3291	0.1754
263.5433	0.1795
263.7576	0.1742
263.9718	0.1794
264.186	0.1779
264.4002	0.1779
264.6144	0.1802
264.8286	0.1779
265.0427	0.1835
265.2569	0.1767
265.471	0.1815
265.6851	0.1772
265.8993	0.1752
266.1134	0.1769
266.3275	0.1737
266.5415	0.1753
266.7556	0.1846
266.9697	0.1823
267.1837	0.1779
267.3978	0.1774
267.6118	0.1698
267.8258	0.1781
268.0398	0.1767
268.2538	0.1763
268.4677	0.1737
268.6817	0.1746
268.8957	0.1699
269.1096	0.1722
269.3235	0.1724
269.5374	0.1719
269.7514	0.1739
269.9652	0.1728
270.1791	0.1671
270.393	0.1727
270.6068	0.1716
270.8207	0.1693
271.0345	0.1657
271.2483	0.1602
271.4622	0.1657
271.676	0.1669
271.8897	0.1703
272.1035	0.1783
272.3173	0.1699
272.531	0.169
272.7448	0.1675
272.9585	0.1631
273.1722	0.1645
273.3859	0.1663
273.5996	0.1664
273.8133	0.1703
274.0269	0.1656
274.2406	0.1674
274.4542	0.1632
274.6679	0.1642
274.8815	0.17
275.0951	0.1709
275.3087	0.1736
275.5223	0.1678
275.7358	0.1681
275.9494	0.1714
276.1629	0.1673
276.3765	0.1697
276.59	0.1652
276.8035	0.1691
277.017	0.1706
277.2305	0.1693
277.444	0.1758
277.6574	0.1711
277.8709	0.1758
278.0843	0.1739
278.2978	0.1777
278.5112	0.1749
278.7246	0.1713
278.938	0.172
279.1513	0.1776
279.3647	0.1754
279.5781	0.1682
279.7914	0.1753
280.0047	0.1729
280.2181	0.1784
280.4314	0.1757
280.6447	0.1837
280.8579	0.1721
281.0712	0.1722
281.2845	0.1819
281.4977	0.1795
281.711	0.1741
281.9242	0.1795
282.1374	0.1755
282.3506	0.1781
282.5638	0.1761
282.7769	0.1718
282.9901	0.1834
283.2033	0.1759
283.4164	0.1801
283.6295	0.1759
283.8426	0.1773
284.0557	0.1806
284.2688	0.1808
284.4819	0.1772
284.695	0.189
284.908	0.1797
285.1211	0.1854
285.3341	0.177
285.5471	0.1897
285.7601	0.1878
285.9731	0.1834
286.1861	0.1893
286.3991	0.1868
286.612	0.1844
286.825	0.1909
287.0379	0.1888
287.2508	0.1887
287.4637	0.1868
287.6766	0.1904
287.8895	0.1851
288.1024	0.1876
288.3152	0.1904
288.5281	0.1796
288.7409	0.1916
288.9538	0.193
289.1666	0.1917
289.3794	0.1898
289.5922	0.1849
289.8049	0.1917
290.0177	0.1919
290.2304	0.1912
290.4432	0.1943
290.6559	0.192
290.8686	0.1894
291.0813	0.1896
291.294	0.1939
291.5067	0.1923
291.7194	0.1935
291.932	0.1905
292.1447	0.1973
292.3573	0.1934
292.5699	0.1956
292.7825	0.1866
292.9951	0.1973
293.2077	0.1899
293.4203	0.1945
293.6328	0.1961
293.8454	0.1931
294.0579	0.1951
294.2704	0.1961
294.4829	0.1946
294.6954	0.1954
294.9079	0.1938
295.1204	0.195
295.3328	0.199
295.5453	0.1915
295.7577	0.1928
295.9701	0.1917
296.1825	0.1948
296.3949	0.1918
296.6073	0.1905
296.8197	0.1935
297.0321	0.1956
297.2444	0.1957
297.4567	0.1883
297.6691	0.1938
297.8814	0.1937
298.0937	0.1945
298.306	0.1878
298.5182	0.1978
298.7305	0.1912
298.9428	0.1889
299.155	0.1886
299.3672	0.1893
299.5794	0.1943
299.7916	0.1928
300.0038	0.1917
300.216	0.1933
300.4282	0.1896
300.6403	0.1955
300.8525	0.1914
301.0646	0.1937
301.2767	0.193
301.4888	0.1941
301.7009	0.1939
301.913	0.1913
302.125	0.1949
302.3371	0.1904
302.5491	0.1961
302.7612	0.2
302.9732	0.1995
303.1852	0.1899
303.3972	0.1944
303.6092	0.1945
303.8211	0.1887
304.0331	0.1949
304.245	0.1945
304.457	0.1876
304.6689	0.1902
304.8808	0.187
305.0927	0.1901
305.3046	0.1852
305.5164	0.1888
305.7283	0.1853
305.9401	0.1728
306.152	0.185
306.3638	0.181
306.5756	0.1777
306.7874	0.1755
306.9992	0.1683
307.2109	0.1729
307.4227	0.1659
307.6344	0.1772
307.8462	0.171
308.0579	0.169
308.2696	0.1647
308.4813	0.167
308.693	0.1589
308.9046	0.1649
309.1163	0.1577
309.328	0.1609
309.5396	0.1547
309.7512	0.1568
309.9628	0.1507
310.1744	0.1497
310.386	0.1473
310.5976	0.146
310.8091	0.148
311.0207	0.1496
311.2322	0.1437
311.4437	0.1426
311.6552	0.1417
311.8667	0.1441
312.0782	0.1394
312.2897	0.1402
312.5012	0.1362
312.7126	0.1314
312.924	0.1408
313.1355	0.1305
313.3469	0.1305
313.5583	0.1315
313.7696	0.122
313.981	0.1319
314.1924	0.1302
314.4037	0.1269
314.6151	0.1314
314.8264	0.1313
315.0377	0.1277
315.249	0.1252
315.4603	0.1227
315.6716	0.1228
315.8828	0.1196
316.0941	0.1223
316.3053	0.123
316.5165	0.1212
316.7277	0.1203
316.9389	0.1267
317.1501	0.1209
317.3613	0.1182
317.5724	0.1191
317.7836	0.1143
317.9947	0.1182
318.2058	0.1156
318.417	0.1226
318.6281	0.1196
318.8391	0.1227
319.0502	0.1149
319.2613	0.1226
319.4723	0.117
319.6834	0.1247
319.8944	0.1234
320.1054	0.1143
320.3164	0.1173
320.5274	0.1171
320.7383	0.1202
320.9493	0.1183
321.1602	0.1201
321.3712	0.1154
321.5821	0.1195
321.793	0.1284
322.0039	0.1245
322.2148	0.1218
322.4257	0.1163
322.6365	0.1173
322.8474	0.1185
323.0582	0.1176
323.269	0.1195
323.4798	0.1221
323.6906	0.1199
323.9014	0.1214
324.1122	0.1163
324.3229	0.1239
324.5337	0.1237
324.7444	0.1231
324.9551	0.1228
325.1658	0.1197
325.3765	0.1236
325.5872	0.1269
325.7979	0.1194
326.0085	0.1223
326.2192	0.1204
326.4298	0.123
326.6404	0.131
326.851	0.1237
327.0616	0.125
327.2722	0.1271
327.4828	0.127
327.6933	0.1269
327.9039	0.1248
328.1144	0.1237
328.3249	0.1271
328.5354	0.1311
328.7459	0.1233
328.9564	0.1237
329.1669	0.1338
329.3773	0.1308
329.5878	0.1269
329.7982	0.127
330.0086	0.125
330.219	0.1259
330.4294	0.1303
330.6398	0.1272
330.8502	0.1325
331.0605	0.1273
331.2708	0.1285
331.4812	0.1261
331.6915	0.1297
331.9018	0.1282
332.1121	0.133
332.3224	0.1309
332.5326	0.1239
332.7429	0.1311
332.9531	0.1318
333.1633	0.1203
333.3735	0.1237
333.5837	0.132
333.7939	0.1321
334.0041	0.1342
334.2143	0.128
334.4244	0.1353
334.6346	0.1295
334.8447	0.1301
335.0548	0.1366
335.2649	0.1328
335.475	0.1326
335.685	0.1362
335.8951	0.1327
336.1051	0.1416
336.3152	0.1395
336.5252	0.1361
336.7352	0.1361
336.9452	0.1315
337.1552	0.1378
337.3652	0.1335
337.5751	0.137
337.7851	0.1377
337.995	0.1344
338.2049	0.1314
338.4148	0.1349
338.6247	0.1346
338.8346	0.1324
339.0445	0.1367
339.2543	0.1336
339.4642	0.1344
339.674	0.1387
339.8838	0.1403
340.0936	0.1358
340.3034	0.1359
340.5132	0.1332
340.7229	0.1418
340.9327	0.1481
341.1424	0.1409
341.3522	0.1356
341.5619	0.1453
341.7716	0.1434
341.9813	0.1428
342.1909	0.1468
342.4006	0.1468
342.6102	0.1443
342.8199	0.1415
343.0295	0.1445
343.2391	0.1463
343.4487	0.1475
343.6583	0.1545
343.8679	0.1494
344.0774	0.1489
344.287	0.1541
344.4965	0.1507
344.706	0.1503
344.9155	0.1435
345.125	0.1454
345.3345	0.1556
345.544	0.1581
345.7534	0.1543
345.9629	0.1607
346.1723	0.1557
346.3817	0.1542
346.5911	0.157
346.8005	0.1597
347.0099	0.1591
347.2193	0.1635
347.4286	0.1653
347.638	0.1664
347.8473	0.1648
348.0566	0.1584
348.2659	0.1599
348.4752	0.1639
348.6845	0.1599
348.8937	0.1627
349.103	0.1639
349.3122	0.1626
349.5214	0.1698
349.7306	0.1722
349.9398	0.1669
350.149	0.1642
350.3582	0.1663
350.5674	0.1745
350.7765	0.1724
350.9856	0.1632
351.1948	0.1727
351.4039	0.1746
351.613	0.1715
351.822	0.1748
352.0311	0.1753
352.2402	0.1771
352.4492	0.1695
352.6582	0.1808
352.8672	0.1771
353.0762	0.1834
353.2852	0.1736
353.4942	0.179
353.7032	0.1756
353.9121	0.1786
354.1211	0.1788
354.33	0.1886
354.5389	0.1819
354.7478	0.1859
354.9567	0.1813
355.1655	0.1851
355.3744	0.1811
355.5833	0.1848
355.7921	0.1875
356.0009	0.1818
356.2097	0.1807
356.4185	0.1866
356.6273	0.1828
356.8361	0.1886
357.0448	0.1847
357.2536	0.1874
357.4623	0.1926
357.671	0.1977
357.8797	0.1904
358.0884	0.1891
358.2971	0.1929
358.5057	0.1974
358.7144	0.1895
358.923	0.2043
359.1316	0.2031
359.3402	0.1981
359.5488	0.1977
359.7574	0.2064
359.966	0.202
360.1746	0.1975
360.3831	0.2102
360.5916	0.2013
360.8002	0.205
361.0087	0.2043
361.2172	0.204
361.4256	0.2039
361.6341	0.2141
361.8426	0.2143
362.051	0.2089
362.2594	0.2104
362.4678	0.2148
362.6762	0.2224
362.8846	0.2215
363.093	0.2205
363.3014	0.2254
363.5097	0.2178
363.718	0.2278
363.9264	0.2279
364.1347	0.2308
364.343	0.2197
364.5513	0.2254
364.7595	0.2324
364.9678	0.2167
365.176	0.2293
365.3842	0.2258
365.5925	0.2303
365.8007	0.2403
366.0089	0.2355
366.217	0.2311
366.4252	0.2402
366.6333	0.2383
366.8415	0.2424
367.0496	0.2373
367.2577	0.2498
367.4658	0.243
367.6739	0.2382
367.882	0.2462
368.09	0.2449
368.2981	0.2503
368.5061	0.2465
368.7141	0.2418
368.9221	0.252
369.1301	0.2569
369.3381	0.2553
369.5461	0.249
369.754	0.2476
369.962	0.2472
370.1699	0.2587
370.3778	0.263
370.5857	0.2502
370.7936	0.2603
371.0015	0.26
371.2093	0.2508
371.4172	0.2647
371.625	0.2564
371.8328	0.2467
372.0406	0.265
372.2484	0.2628
372.4562	0.27
372.664	0.2714
372.8717	0.2579
373.0795	0.2793
373.2872	0.2735
373.4949	0.2728
373.7026	0.261
373.9103	0.2703
374.118	0.2699
374.3256	0.2819
374.5333	0.266
374.7409	0.2719
374.9485	0.2803
375.1561	0.2781
375.3637	0.2715
375.5713	0.2842
375.7789	0.2765
375.9864	0.283
376.194	0.2883
376.4015	0.2776
376.609	0.287
376.8165	0.2891
377.024	0.2854
377.2315	0.284
377.4389	0.276
377.6464	0.2902
377.8538	0.2831
378.0612	0.2891
378.2686	0.2872
378.476	0.2961
378.6834	0.2847
378.8908	0.2903
379.0981	0.2875
379.3055	0.3031
379.5128	0.2885
379.7201	0.2969
379.9274	0.2976
380.1347	0.2948
380.342	0.3
380.5492	0.2927
380.7565	0.2955
380.9637	0.2936
381.1709	0.2951
381.3781	0.3075
381.5853	0.3005
381.7925	0.2979
381.9997	0.3039
382.2068	0.2876
382.4139	0.3051
382.6211	0.3081
382.8282	0.3128
383.0353	0.3069
383.2424	0.3038
383.4494	0.3121
383.6565	0.3122
383.8635	0.3042
384.0706	0.3155
384.2776	0.3081
384.4846	0.3098
384.6916	0.3081
384.8986	0.3123
385.1055	0.3167
385.3125	0.3142
385.5194	0.3152
385.7263	0.3045
385.9333	0.3096
386.1402	0.3074
386.347	0.3128
386.5539	0.3037
386.7608	0.309
386.9676	0.3094
387.1744	0.3128
387.3813	0.3129
387.5881	0.3134
387.7948	0.3072
388.0016	0.3181
388.2084	0.3151
388.4151	0.3157
388.6219	0.2986
388.8286	0.3135
389.0353	0.312
389.242	0.3073
389.4487	0.3027
389.6553	0.2968
389.862	0.2967
390.0686	0.3009
390.2753	0.2962
390.4819	0.3065
390.6885	0.3035
390.8951	0.3063
391.1016	0.2997
391.3082	0.2998
391.5147	0.3022
391.7213	0.2918
391.9278	0.2943
392.1343	0.3015
392.3408	0.2904
392.5473	0.2908
392.7537	0.293
392.9602	0.2877
393.1666	0.2947
393.373	0.2882
393.5794	0.2888
393.7858	0.2927
393.9922	0.2828
394.1986	0.2819
394.4049	0.2914
394.6113	0.274
394.8176	0.2785
395.0239	0.2745
395.2302	0.2761
395.4365	0.28
395.6428	0.2739
395.8491	0.2732
396.0553	0.2732
396.2615	0.2809
396.4678	0.2808
396.674	0.2633
396.8802	0.2756
397.0863	0.2694
397.2925	0.2656
397.4987	0.2636
397.7048	0.2728
397.9109	0.2668
398.117	0.2549
398.3231	0.2601
398.5292	0.2641
398.7353	0.2657
398.9413	0.2629
399.1474	0.2728
399.3534	0.268
399.5594	0.2666
399.7654	0.2636
399.9714	0.2689
400.1774	0.2668
400.3833	0.2655
400.5893	0.2565
400.7952	0.2705
401.0011	0.2586
401.207	0.2663
401.4129	0.266
401.6188	0.2615
401.8247	0.2703
402.0305	0.2598
402.2364	0.2593
402.4422	0.2609
402.648	0.2707
402.8538	0.2574
403.0596	0.2487
403.2654	0.2571
403.4711	0.261
403.6768	0.2601
403.8826	0.2599
404.0883	0.2675
404.294	0.2699
404.4997	0.2754
404.7054	0.2745
404.911	0.2616
405.1167	0.2657
405.3223	0.253
405.5279	0.2577
405.7335	0.2646
405.9391	0.2636
406.1447	0.2659
406.3502	0.2597
406.5558	0.2607
406.7613	0.2648
406.9668	0.2633
407.1724	0.263
407.3778	0.2652
407.5833	0.2623
407.7888	0.2696
407.9942	0.2597
408.1997	0.257
408.4051	0.2573
408.6105	0.2685
408.8159	0.2542
409.0213	0.2588
409.2267	0.2615
409.432	0.2566
409.6374	0.2532
409.8427	0.2586
410.048	0.2664
410.2533	0.2618
410.4586	0.2563
410.6639	0.27
410.8691	0.2612
411.0744	0.2659
411.2796	0.2736
411.4848	0.2753
411.69	0.2543
411.8952	0.255
412.1004	0.2712
412.3056	0.2571
412.5107	0.2596
412.7158	0.2706
412.921	0.2607
413.1261	0.2618
413.3312	0.2648
413.5362	0.2698
413.7413	0.2599
413.9464	0.2662
414.1514	0.2475
414.3564	0.263
414.5614	0.2609
414.7664	0.249
414.9714	0.2633
415.1764	0.263
415.3813	0.2521
415.5863	0.2622
415.7912	0.2551
415.9961	0.2571
416.201	0.2668
416.4059	0.2658
416.6108	0.2589
416.8156	0.248
417.0205	0.2607
417.2253	0.2517
417.4301	0.2531
417.6349	0.2488
417.8397	0.2461
418.0445	0.2579
418.2492	0.2525
418.454	0.2522
418.6587	0.2541
418.8634	0.2505
419.0681	0.2592
419.2728	0.2443
419.4775	0.2559
419.6822	0.2447
419.8868	0.2472
420.0915	0.249
420.2961	0.2427
420.5007	0.2457
420.7053	0.2469
420.9099	0.2496
421.1144	0.2452
421.319	0.2397
421.5235	0.2354
421.728	0.244
421.9325	0.2373
422.137	0.238
422.3415	0.2373
422.546	0.2347
422.7504	0.2342
422.9549	0.2394
423.1593	0.2256
423.3637	0.2311
423.5681	0.2351
423.7725	0.2374
423.9769	0.24
424.1812	0.2236
424.3856	0.2282
424.5899	0.2297
424.7942	0.2314
424.9985	0.2303
425.2028	0.2359
425.4071	0.2421
425.6113	0.2157
425.8156	0.2267
426.0198	0.2248
426.224	0.2182
426.4282	0.2185
426.6324	0.2163
