Data from D4ACN5uM460nmA_Absorbance_13-05-41-045.txt Node
Date: Fri Feb 21 13:05:41 GMT 2025
User: LASERRRRR
Spectrometer: FLMT03099
Trigger mode: 0
Integration Time (sec): 1.500000E-2
Scans to average: 1
Electric dark correction enabled: true
Nonlinearity correction enabled: false
Boxcar width: 0
XAxis mode: Wavelengths
Number of Pixels in Spectrum: 3648
>>>>>Begin Spectral Data<<<<<
179.3399	-0.7644
179.5586	-0.7644
179.7771	-0.7644
179.9957	-0.1588
180.2143	-0
180.4329	-0
180.6514	-0
180.8699	0.7428
181.0885	0.4085
181.307	0.3503
181.5255	0.2713
181.744	-0
181.9625	0.0817
182.181	1.065
182.3994	-0.7164
182.6179	-0.3669
182.8363	-0
183.0547	-0.0846
183.2732	-0.0965
183.4916	0.0279
183.71	0.0876
183.9284	0.1448
184.1467	0.1535
184.3651	0.1199
184.5835	0.2522
184.8018	0.2914
185.0201	0.174
185.2385	0.1084
185.4568	0.2679
185.6751	0.2098
185.8934	0.1832
186.1117	-0.0197
186.3299	0.0873
186.5482	0.1271
186.7664	0.0958
186.9847	0.0263
187.2029	0.1593
187.4211	-0.0928
187.6393	0.0595
187.8575	0.041
188.0757	0.2446
188.2939	0.078
188.512	0.1716
188.7302	0.1526
188.9483	0.2373
189.1665	0.7556
189.3846	0.2024
189.6027	0.1147
189.8208	0.2146
190.0389	0.1189
190.257	-0.0111
190.475	0.0383
190.6931	0.1254
190.9111	0.1172
191.1292	0.4661
191.3472	0.0229
191.5652	0.4129
191.7832	0.2279
192.0012	0.1458
192.2192	0.211
192.4371	0.1482
192.6551	0.2067
192.873	0.1347
193.091	0.2425
193.3089	0.2086
193.5268	0.1162
193.7447	0.1625
193.9626	0.1512
194.1805	0.345
194.3984	0.1988
194.6162	0.1972
194.8341	0.1916
195.0519	0.2123
195.2697	0.2645
195.4875	0.2402
195.7054	0.2852
195.9231	0.2432
196.1409	0.2855
196.3587	0.3022
196.5765	0.3419
196.7942	0.275
197.012	0.32
197.2297	0.3258
197.4474	0.4324
197.6651	0.3272
197.8828	0.3027
198.1005	0.4294
198.3182	0.3655
198.5358	0.4124
198.7535	0.371
198.9711	0.4544
199.1888	0.3542
199.4064	0.4224
199.624	0.3814
199.8416	0.4125
200.0592	0.4151
200.2767	0.3651
200.4943	0.4128
200.7119	0.4041
200.9294	0.4324
201.1469	0.4189
201.3645	0.4651
201.582	0.4058
201.7995	0.4311
202.017	0.4017
202.2344	0.425
202.4519	0.3943
202.6694	0.3739
202.8868	0.4105
203.1042	0.4132
203.3217	0.373
203.5391	0.3777
203.7565	0.3885
203.9739	0.3805
204.1913	0.3614
204.4086	0.3653
204.626	0.3448
204.8433	0.3883
205.0607	0.3571
205.278	0.361
205.4953	0.3381
205.7126	0.3544
205.9299	0.3199
206.1472	0.3381
206.3644	0.3718
206.5817	0.3416
206.7989	0.3121
207.0162	0.3201
207.2334	0.3192
207.4506	0.3189
207.6678	0.3001
207.885	0.3271
208.1022	0.3031
208.3194	0.2956
208.5365	0.2777
208.7537	0.3038
208.9708	0.2977
209.1879	0.2958
209.405	0.2811
209.6222	0.2676
209.8392	0.2909
210.0563	0.2855
210.2734	0.2692
210.4905	0.2681
210.7075	0.2772
210.9245	0.2827
211.1416	0.2618
211.3586	0.2548
211.5756	0.2409
211.7926	0.2776
212.0096	0.2657
212.2265	0.2719
212.4435	0.2485
212.6604	0.2549
212.8774	0.2566
213.0943	0.2601
213.3112	0.2599
213.5281	0.2546
213.745	0.2418
213.9619	0.245
214.1788	0.2529
214.3956	0.2577
214.6125	0.2493
214.8293	0.2497
215.0461	0.2506
215.2629	0.2474
215.4798	0.2452
215.6965	0.2411
215.9133	0.2328
216.1301	0.2359
216.3469	0.2609
216.5636	0.2574
216.7803	0.2435
216.9971	0.2545
217.2138	0.2687
217.4305	0.2596
217.6472	0.2554
217.8639	0.2642
218.0805	0.2416
218.2972	0.2449
218.5138	0.2555
218.7305	0.2727
218.9471	0.248
219.1637	0.269
219.3803	0.27
219.5969	0.2534
219.8135	0.2675
220.0301	0.2604
220.2466	0.2739
220.4632	0.2487
220.6797	0.2636
220.8962	0.2629
221.1127	0.2779
221.3292	0.2627
221.5457	0.2778
221.7622	0.2564
221.9787	0.2868
222.1951	0.2813
222.4116	0.2789
222.628	0.2894
222.8444	0.2779
223.0608	0.2618
223.2772	0.3048
223.4936	0.2815
223.71	0.2862
223.9264	0.2864
224.1427	0.286
224.3591	0.2913
224.5754	0.2858
224.7917	0.2974
225.008	0.2978
225.2243	0.3141
225.4406	0.2962
225.6569	0.3123
225.8732	0.2993
226.0894	0.3003
226.3057	0.2974
226.5219	0.3119
226.7381	0.3244
226.9543	0.3166
227.1705	0.3223
227.3867	0.3153
227.6029	0.3322
227.8191	0.3319
228.0352	0.3303
228.2513	0.3455
228.4675	0.3375
228.6836	0.346
228.8997	0.3421
229.1158	0.356
229.3319	0.3578
229.548	0.3608
229.764	0.3489
229.9801	0.3807
230.1961	0.3679
230.4121	0.3721
230.6282	0.3803
230.8442	0.3936
231.0602	0.388
231.2761	0.384
231.4921	0.3819
231.7081	0.389
231.924	0.396
232.14	0.4125
232.3559	0.4086
232.5718	0.4047
232.7877	0.4067
233.0036	0.408
233.2195	0.4145
233.4353	0.4257
233.6512	0.4053
233.867	0.4154
234.0829	0.4309
234.2987	0.4204
234.5145	0.4308
234.7303	0.4308
234.9461	0.4363
235.1619	0.4331
235.3776	0.4389
235.5934	0.4333
235.8091	0.4422
236.0249	0.4342
236.2406	0.4446
236.4563	0.4498
236.672	0.4382
236.8877	0.4478
237.1034	0.4479
237.319	0.4473
237.5347	0.4622
237.7503	0.4501
237.966	0.4574
238.1816	0.4564
238.3972	0.4626
238.6128	0.4697
238.8284	0.4666
239.0439	0.4591
239.2595	0.4646
239.475	0.4559
239.6906	0.4684
239.9061	0.4556
240.1216	0.4582
240.3371	0.4627
240.5526	0.4517
240.7681	0.4588
240.9836	0.4508
241.199	0.4406
241.4145	0.4507
241.6299	0.4451
241.8453	0.4379
242.0607	0.4304
242.2761	0.4314
242.4915	0.4326
242.7069	0.4169
242.9223	0.4147
243.1376	0.4047
243.353	0.4005
243.5683	0.3969
243.7836	0.3866
243.9989	0.3752
244.2142	0.371
244.4295	0.3649
244.6448	0.3648
244.86	0.3539
245.0753	0.3418
245.2905	0.327
245.5057	0.3252
245.721	0.3282
245.9362	0.3212
246.1514	0.3138
246.3665	0.3118
246.5817	0.2931
246.7969	0.2961
247.012	0.2866
247.2271	0.2823
247.4423	0.2815
247.6574	0.2801
247.8725	0.2638
248.0876	0.2625
248.3026	0.2648
248.5177	0.2529
248.7328	0.2453
248.9478	0.2459
249.1628	0.2462
249.3779	0.2339
249.5929	0.2334
249.8079	0.2363
250.0228	0.2273
250.2378	0.2256
250.4528	0.2301
250.6677	0.2244
250.8827	0.2212
251.0976	0.2137
251.3125	0.2192
251.5274	0.2113
251.7423	0.2101
251.9572	0.2039
252.172	0.2083
252.3869	0.1993
252.6017	0.2021
252.8166	0.1999
253.0314	0.2004
253.2462	0.2009
253.461	0.1964
253.6758	0.1914
253.8906	0.1907
254.1053	0.1941
254.3201	0.1965
254.5348	0.1861
254.7496	0.1825
254.9643	0.1917
255.179	0.1868
255.3937	0.188
255.6083	0.1884
255.823	0.1846
256.0377	0.1851
256.2523	0.183
256.467	0.1847
256.6816	0.1902
256.8962	0.1786
257.1108	0.1826
257.3254	0.181
257.54	0.1761
257.7545	0.1785
257.9691	0.1795
258.1836	0.1758
258.3981	0.1827
258.6127	0.1769
258.8272	0.1783
259.0417	0.1724
259.2561	0.1733
259.4706	0.1721
259.6851	0.1732
259.8995	0.1676
260.114	0.1765
260.3284	0.1747
260.5428	0.1725
260.7572	0.1784
260.9716	0.1806
261.186	0.1723
261.4003	0.1691
261.6147	0.1731
261.829	0.1722
262.0433	0.1755
262.2577	0.1741
262.472	0.1725
262.6863	0.1773
262.9005	0.1717
263.1148	0.1746
263.3291	0.1688
263.5433	0.177
263.7576	0.1756
263.9718	0.1685
264.186	0.1766
264.4002	0.1788
264.6144	0.1833
264.8286	0.1751
265.0427	0.1824
265.2569	0.18
265.471	0.1749
265.6851	0.1767
265.8993	0.1737
266.1134	0.177
266.3275	0.1715
266.5415	0.1768
266.7556	0.1801
266.9697	0.1785
267.1837	0.1725
267.3978	0.1784
267.6118	0.1674
267.8258	0.181
268.0398	0.1786
268.2538	0.1781
268.4677	0.1789
268.6817	0.1721
268.8957	0.1662
269.1096	0.1687
269.3235	0.1712
269.5374	0.1753
269.7514	0.1698
269.9652	0.1705
270.1791	0.1713
270.393	0.1678
270.6068	0.1669
270.8207	0.163
271.0345	0.1655
271.2483	0.161
271.4622	0.1672
271.676	0.1652
271.8897	0.1692
272.1035	0.1701
272.3173	0.1615
272.531	0.1621
272.7448	0.1641
272.9585	0.1604
273.1722	0.1641
273.3859	0.1604
273.5996	0.165
273.8133	0.1666
274.0269	0.1624
274.2406	0.1656
274.4542	0.1641
274.6679	0.1614
274.8815	0.1705
275.0951	0.1723
275.3087	0.1713
275.5223	0.1687
275.7358	0.1675
275.9494	0.1709
276.1629	0.1664
276.3765	0.1665
276.59	0.1636
276.8035	0.1729
277.017	0.1736
277.2305	0.176
277.444	0.1711
277.6574	0.1709
277.8709	0.1735
278.0843	0.1707
278.2978	0.1684
278.5112	0.1717
278.7246	0.1682
278.938	0.1705
279.1513	0.1772
279.3647	0.171
279.5781	0.1693
279.7914	0.1676
280.0047	0.1703
280.2181	0.1725
280.4314	0.1773
280.6447	0.1786
280.8579	0.1707
281.0712	0.1745
281.2845	0.1767
281.4977	0.1779
281.711	0.1777
281.9242	0.1727
282.1374	0.1745
282.3506	0.1767
282.5638	0.1746
282.7769	0.1754
282.9901	0.1827
283.2033	0.1823
283.4164	0.1782
283.6295	0.1777
283.8426	0.1735
284.0557	0.1821
284.2688	0.1821
284.4819	0.174
284.695	0.1833
284.908	0.1797
285.1211	0.1851
285.3341	0.1771
285.5471	0.184
285.7601	0.189
285.9731	0.1795
286.1861	0.1867
286.3991	0.1913
286.612	0.1831
286.825	0.1893
287.0379	0.1899
287.2508	0.1895
287.4637	0.1877
287.6766	0.1854
287.8895	0.1823
288.1024	0.1864
288.3152	0.19
288.5281	0.191
288.7409	0.1914
288.9538	0.1871
289.1666	0.1916
289.3794	0.1855
289.5922	0.189
289.8049	0.1919
290.0177	0.1931
290.2304	0.1902
290.4432	0.1919
290.6559	0.1918
290.8686	0.1936
291.0813	0.1904
291.294	0.1929
291.5067	0.1962
291.7194	0.1924
291.932	0.1868
292.1447	0.1955
292.3573	0.193
292.5699	0.1992
292.7825	0.1911
292.9951	0.1954
293.2077	0.1938
293.4203	0.1939
293.6328	0.1935
293.8454	0.1997
294.0579	0.1901
294.2704	0.1975
294.4829	0.1908
294.6954	0.1952
294.9079	0.1918
295.1204	0.1886
295.3328	0.2024
295.5453	0.1935
295.7577	0.1901
295.9701	0.1978
296.1825	0.1992
296.3949	0.1848
296.6073	0.1897
296.8197	0.1903
297.0321	0.1932
297.2444	0.193
297.4567	0.1943
297.6691	0.1983
297.8814	0.1923
298.0937	0.1967
298.306	0.1939
298.5182	0.1979
298.7305	0.1965
298.9428	0.195
299.155	0.1909
299.3672	0.1985
299.5794	0.1973
299.7916	0.1948
300.0038	0.1923
300.216	0.1902
300.4282	0.1908
300.6403	0.1965
300.8525	0.1975
301.0646	0.1955
301.2767	0.1928
301.4888	0.1943
301.7009	0.1935
301.913	0.1928
302.125	0.1893
302.3371	0.1898
302.5491	0.1935
302.7612	0.2026
302.9732	0.1956
303.1852	0.1892
303.3972	0.1916
303.6092	0.1942
303.8211	0.1913
304.0331	0.1891
304.245	0.1892
304.457	0.1888
304.6689	0.1906
304.8808	0.1891
305.0927	0.1889
305.3046	0.1855
305.5164	0.1818
305.7283	0.1837
305.9401	0.1732
306.152	0.1787
306.3638	0.1813
306.5756	0.177
306.7874	0.1782
306.9992	0.1751
307.2109	0.1721
307.4227	0.1715
307.6344	0.179
307.8462	0.1661
308.0579	0.1712
308.2696	0.1691
308.4813	0.1612
308.693	0.1682
308.9046	0.1665
309.1163	0.159
309.328	0.1608
309.5396	0.1565
309.7512	0.1541
309.9628	0.153
310.1744	0.1437
310.386	0.1418
310.5976	0.1481
310.8091	0.1492
311.0207	0.1415
311.2322	0.1425
311.4437	0.1446
311.6552	0.1379
311.8667	0.1415
312.0782	0.1388
312.2897	0.1412
312.5012	0.1345
312.7126	0.138
312.924	0.1331
313.1355	0.1328
313.3469	0.1307
313.5583	0.1328
313.7696	0.1301
313.981	0.1326
314.1924	0.1268
314.4037	0.1281
314.6151	0.1223
314.8264	0.1317
315.0377	0.129
315.249	0.1281
315.4603	0.122
315.6716	0.1225
315.8828	0.1192
316.0941	0.1244
316.3053	0.1171
316.5165	0.1254
316.7277	0.1195
316.9389	0.1234
317.1501	0.1213
317.3613	0.123
317.5724	0.1237
317.7836	0.1162
317.9947	0.1156
318.2058	0.1248
318.417	0.1175
318.6281	0.1123
318.8391	0.1231
319.0502	0.1186
319.2613	0.1161
319.4723	0.1164
319.6834	0.1243
319.8944	0.1146
320.1054	0.1219
320.3164	0.1138
320.5274	0.1185
320.7383	0.1207
320.9493	0.1181
321.1602	0.1139
321.3712	0.1146
321.5821	0.1092
321.793	0.12
322.0039	0.1197
322.2148	0.118
322.4257	0.1153
322.6365	0.1187
322.8474	0.1208
323.0582	0.1209
323.269	0.119
323.4798	0.1208
323.6906	0.1118
323.9014	0.1164
324.1122	0.1163
324.3229	0.1255
324.5337	0.121
324.7444	0.1276
324.9551	0.1218
325.1658	0.1253
325.3765	0.1226
325.5872	0.1226
325.7979	0.1229
326.0085	0.1209
326.2192	0.1243
326.4298	0.1256
326.6404	0.1287
326.851	0.1238
327.0616	0.1252
327.2722	0.1266
327.4828	0.1228
327.6933	0.1307
327.9039	0.1218
328.1144	0.1192
328.3249	0.1217
328.5354	0.1281
328.7459	0.124
328.9564	0.1249
329.1669	0.1287
329.3773	0.1281
329.5878	0.1251
329.7982	0.1269
330.0086	0.1245
330.219	0.1252
330.4294	0.1239
330.6398	0.1262
330.8502	0.1313
331.0605	0.1291
331.2708	0.126
331.4812	0.1255
331.6915	0.1297
331.9018	0.1248
332.1121	0.1301
332.3224	0.128
332.5326	0.1281
332.7429	0.1276
332.9531	0.1315
333.1633	0.1248
333.3735	0.1243
333.5837	0.1284
333.7939	0.13
334.0041	0.1404
334.2143	0.1302
334.4244	0.1352
334.6346	0.1282
334.8447	0.1321
335.0548	0.1318
335.2649	0.1364
335.475	0.138
335.685	0.1292
335.8951	0.1298
336.1051	0.1348
336.3152	0.1345
336.5252	0.1313
336.7352	0.1318
336.9452	0.1311
337.1552	0.1312
337.3652	0.1312
337.5751	0.1336
337.7851	0.1312
337.995	0.1342
338.2049	0.1294
338.4148	0.1385
338.6247	0.1353
338.8346	0.1355
339.0445	0.1399
339.2543	0.1371
339.4642	0.1336
339.674	0.1371
339.8838	0.1353
340.0936	0.1415
340.3034	0.1349
340.5132	0.1316
340.7229	0.1411
340.9327	0.1416
341.1424	0.1395
341.3522	0.1343
341.5619	0.1416
341.7716	0.1408
341.9813	0.1417
342.1909	0.1482
342.4006	0.1358
342.6102	0.1464
342.8199	0.1408
343.0295	0.1461
343.2391	0.1471
343.4487	0.145
343.6583	0.162
343.8679	0.1477
344.0774	0.1418
344.287	0.1484
344.4965	0.1532
344.706	0.1573
344.9155	0.1433
345.125	0.15
345.3345	0.1536
345.544	0.1521
345.7534	0.1564
345.9629	0.1565
346.1723	0.1596
346.3817	0.16
346.5911	0.1552
346.8005	0.166
347.0099	0.1478
347.2193	0.1623
347.4286	0.1637
347.638	0.1583
347.8473	0.1646
348.0566	0.1619
348.2659	0.1577
348.4752	0.1607
348.6845	0.16
348.8937	0.1584
349.103	0.1656
349.3122	0.1626
349.5214	0.1697
349.7306	0.1722
349.9398	0.1618
350.149	0.1643
350.3582	0.1653
350.5674	0.17
350.7765	0.1762
350.9856	0.1563
351.1948	0.1729
351.4039	0.1702
351.613	0.1728
351.822	0.173
352.0311	0.1735
352.2402	0.1795
352.4492	0.1765
352.6582	0.1782
352.8672	0.1742
353.0762	0.1795
353.2852	0.177
353.4942	0.1812
353.7032	0.1739
353.9121	0.1765
354.1211	0.1783
354.33	0.1871
354.5389	0.1754
354.7478	0.178
354.9567	0.1954
355.1655	0.1832
355.3744	0.176
355.5833	0.1909
355.7921	0.1887
356.0009	0.1909
356.2097	0.1845
356.4185	0.1849
356.6273	0.184
356.8361	0.1977
357.0448	0.1855
357.2536	0.1839
357.4623	0.1911
357.671	0.1863
357.8797	0.1956
358.0884	0.1944
358.2971	0.2013
358.5057	0.1924
358.7144	0.2028
358.923	0.2011
359.1316	0.2019
359.3402	0.2018
359.5488	0.1911
359.7574	0.2079
359.966	0.2008
360.1746	0.2064
360.3831	0.2167
360.5916	0.2078
360.8002	0.2173
361.0087	0.2077
361.2172	0.2099
361.4256	0.2057
361.6341	0.2148
361.8426	0.2207
362.051	0.2185
362.2594	0.2146
362.4678	0.2143
362.6762	0.2146
362.8846	0.2218
363.093	0.2136
363.3014	0.2271
363.5097	0.2133
363.718	0.2251
363.9264	0.2274
364.1347	0.223
364.343	0.2239
364.5513	0.2293
364.7595	0.2366
364.9678	0.215
365.176	0.2319
365.3842	0.231
365.5925	0.2262
365.8007	0.2268
366.0089	0.2408
366.217	0.2352
366.4252	0.2368
366.6333	0.2298
366.8415	0.2408
367.0496	0.2379
367.2577	0.238
367.4658	0.2345
367.6739	0.2398
367.882	0.2475
368.09	0.2369
368.2981	0.2471
368.5061	0.244
368.7141	0.2407
368.9221	0.2551
369.1301	0.2584
369.3381	0.2559
369.5461	0.2518
369.754	0.2557
369.962	0.2559
370.1699	0.2621
370.3778	0.2622
370.5857	0.2561
370.7936	0.2605
371.0015	0.2622
371.2093	0.2595
371.4172	0.2589
371.625	0.2606
371.8328	0.2567
372.0406	0.2703
372.2484	0.2662
372.4562	0.2659
372.664	0.2663
372.8717	0.2728
373.0795	0.2717
373.2872	0.2683
373.4949	0.2775
373.7026	0.2664
373.9103	0.2725
374.118	0.269
374.3256	0.2792
374.5333	0.2691
374.7409	0.2698
374.9485	0.2823
375.1561	0.2861
375.3637	0.2771
375.5713	0.2777
375.7789	0.2845
375.9864	0.2756
376.194	0.2835
376.4015	0.2771
376.609	0.2806
376.8165	0.2781
377.024	0.2812
377.2315	0.2816
377.4389	0.2837
377.6464	0.286
377.8538	0.2849
378.0612	0.2894
378.2686	0.2849
378.476	0.2993
378.6834	0.2915
378.8908	0.2917
379.0981	0.2944
379.3055	0.2917
379.5128	0.2889
379.7201	0.303
379.9274	0.2933
380.1347	0.2995
380.342	0.2979
380.5492	0.3023
380.7565	0.2943
380.9637	0.2986
381.1709	0.2938
381.3781	0.3062
381.5853	0.2998
381.7925	0.2998
381.9997	0.3006
382.2068	0.304
382.4139	0.3085
382.6211	0.3026
382.8282	0.3122
383.0353	0.3114
383.2424	0.305
383.4494	0.3005
383.6565	0.3102
383.8635	0.2993
384.0706	0.3096
384.2776	0.3072
384.4846	0.3158
384.6916	0.3146
384.8986	0.3034
385.1055	0.3177
385.3125	0.3074
385.5194	0.3182
385.7263	0.3127
385.9333	0.3091
386.1402	0.3069
386.347	0.3066
386.5539	0.3168
386.7608	0.3011
386.9676	0.3118
387.1744	0.3148
387.3813	0.3153
387.5881	0.3042
387.7948	0.3194
388.0016	0.3167
388.2084	0.3134
388.4151	0.3161
388.6219	0.3046
388.8286	0.3156
389.0353	0.2997
389.242	0.305
389.4487	0.3058
389.6553	0.3015
389.862	0.2972
390.0686	0.3031
390.2753	0.3045
390.4819	0.3128
390.6885	0.2981
390.8951	0.2977
391.1016	0.3041
391.3082	0.2975
391.5147	0.2963
391.7213	0.302
391.9278	0.301
392.1343	0.3025
392.3408	0.2911
392.5473	0.2971
392.7537	0.2908
392.9602	0.2847
393.1666	0.29
393.373	0.2845
393.5794	0.288
393.7858	0.2882
393.9922	0.2863
394.1986	0.278
394.4049	0.2823
394.6113	0.2811
394.8176	0.2876
395.0239	0.2821
395.2302	0.2825
395.4365	0.2767
395.6428	0.2845
395.8491	0.2724
396.0553	0.2685
396.2615	0.2794
396.4678	0.285
396.674	0.2659
396.8802	0.2746
397.0863	0.2657
397.2925	0.2752
397.4987	0.2673
397.7048	0.283
397.9109	0.271
398.117	0.2661
398.3231	0.2637
398.5292	0.2571
398.7353	0.2672
398.9413	0.2568
399.1474	0.2631
399.3534	0.2677
399.5594	0.2682
399.7654	0.2627
399.9714	0.2616
400.1774	0.2638
400.3833	0.2764
400.5893	0.2669
400.7952	0.2768
401.0011	0.2611
401.207	0.263
401.4129	0.2622
401.6188	0.2645
401.8247	0.2733
402.0305	0.2634
402.2364	0.2649
402.4422	0.2706
402.648	0.2678
402.8538	0.2574
403.0596	0.2643
403.2654	0.2623
403.4711	0.2554
403.6768	0.2637
403.8826	0.2652
404.0883	0.2655
404.294	0.2637
404.4997	0.2586
404.7054	0.263
404.911	0.2613
405.1167	0.2709
405.3223	0.2551
405.5279	0.2624
405.7335	0.2649
405.9391	0.2699
406.1447	0.2695
406.3502	0.2666
406.5558	0.2621
406.7613	0.2677
406.9668	0.258
407.1724	0.2728
407.3778	0.261
407.5833	0.2585
407.7888	0.2715
407.9942	0.2688
408.1997	0.2613
408.4051	0.2592
408.6105	0.273
408.8159	0.263
409.0213	0.2679
409.2267	0.2691
409.432	0.2652
409.6374	0.2682
409.8427	0.2712
410.048	0.2738
410.2533	0.2652
410.4586	0.2612
410.6639	0.2655
410.8691	0.2573
411.0744	0.2584
411.2796	0.2721
411.4848	0.261
411.69	0.2562
411.8952	0.2613
412.1004	0.2759
412.3056	0.2641
412.5107	0.2684
412.7158	0.2703
412.921	0.2708
413.1261	0.2566
413.3312	0.2622
413.5362	0.2668
413.7413	0.259
413.9464	0.2573
414.1514	0.2689
414.3564	0.249
414.5614	0.2564
414.7664	0.2508
414.9714	0.2471
415.1764	0.2582
415.3813	0.2574
415.5863	0.2562
415.7912	0.258
415.9961	0.2668
416.201	0.2624
416.4059	0.2544
416.6108	0.2595
416.8156	0.249
417.0205	0.2671
417.2253	0.2552
417.4301	0.2632
417.6349	0.2551
417.8397	0.2518
418.0445	0.2646
418.2492	0.252
418.454	0.2597
418.6587	0.254
418.8634	0.2563
419.0681	0.2457
419.2728	0.2501
419.4775	0.2429
419.6822	0.2457
419.8868	0.2445
420.0915	0.2425
420.2961	0.234
420.5007	0.2521
420.7053	0.2464
420.9099	0.247
421.1144	0.249
421.319	0.2414
421.5235	0.2347
421.728	0.2497
421.9325	0.2442
422.137	0.2366
422.3415	0.2377
422.546	0.2389
422.7504	0.2334
422.9549	0.2437
423.1593	0.2242
423.3637	0.2293
423.5681	0.2302
423.7725	0.2315
423.9769	0.244
424.1812	0.2203
424.3856	0.2315
424.5899	0.2258
424.7942	0.226
424.9985	0.2211
425.2028	0.2325
425.4071	0.2333
425.6113	0.2282
425.8156	0.2207
426.0198	0.2285
426.224	0.2256
426.4282	0.2181
426.6324	0.2295
