Data from D4ACN5uM460nmA_Absorbance_13-05-41-060.txt Node
Date: Fri Feb 21 13:05:41 GMT 2025
User: LASERRRRR
Spectrometer: FLMT03099
Trigger mode: 0
Integration Time (sec): 1.500000E-2
Scans to average: 1
Electric dark correction enabled: true
Nonlinearity correction enabled: false
Boxcar width: 0
XAxis mode: Wavelengths
Number of Pixels in Spectrum: 3648
>>>>>Begin Spectral Data<<<<<
179.3399	-0.3354
179.5586	-0.3354
179.7771	-0.3354
179.9957	-0.2084
180.2143	-1.5441
180.4329	-0
180.6514	-0.458
180.8699	-0
181.0885	-0
181.307	0.391
181.5255	0.019
181.744	-0
181.9625	0.1461
182.181	-0
182.3994	1.4048
182.6179	-0
182.8363	0.1461
183.0547	-0.3031
183.2732	-0.0442
183.4916	0.2939
183.71	0.2362
183.9284	0.0047
184.1467	0.0068
184.3651	0.1911
184.5835	0.1093
184.8018	0.1066
185.0201	0.0291
185.2385	0.0881
185.4568	0.272
185.6751	0.0859
185.8934	0.2038
186.1117	-0.0582
186.3299	0.0613
186.5482	0.1552
186.7664	0.0357
186.9847	-0.0796
187.2029	0.1954
187.4211	0.0589
187.6393	0.1468
187.8575	0.1201
188.0757	0.3111
188.2939	-0.0108
188.512	0.2206
188.7302	0.0633
188.9483	0.4093
189.1665	0.3698
189.3846	0.2162
189.6027	0.1032
189.8208	0.4724
190.0389	0.176
190.257	0.0103
190.475	0.0084
190.6931	0.0719
190.9111	-0.0035
191.1292	0.1538
191.3472	0.0398
191.5652	0.465
191.7832	0.1374
192.0012	0.0679
192.2192	0.2438
192.4371	0.1038
192.6551	0.0783
192.873	0.0948
193.091	0.0797
193.3089	0.0886
193.5268	0.1907
193.7447	0.2061
193.9626	0.3051
194.1805	0.2295
194.3984	0.1924
194.6162	0.258
194.8341	0.2699
195.0519	0.1793
195.2697	0.1999
195.4875	0.3305
195.7054	0.2388
195.9231	0.2846
196.1409	0.3309
196.3587	0.3048
196.5765	0.3571
196.7942	0.315
197.012	0.3056
197.2297	0.3282
197.4474	0.4127
197.6651	0.312
197.8828	0.3427
198.1005	0.414
198.3182	0.4031
198.5358	0.3614
198.7535	0.3919
198.9711	0.3821
199.1888	0.3835
199.4064	0.3663
199.624	0.3568
199.8416	0.3397
200.0592	0.3788
200.2767	0.4325
200.4943	0.4702
200.7119	0.4199
200.9294	0.4394
201.1469	0.4403
201.3645	0.4095
201.582	0.3969
201.7995	0.4089
202.017	0.4006
202.2344	0.4041
202.4519	0.3878
202.6694	0.4018
202.8868	0.3757
203.1042	0.4092
203.3217	0.4062
203.5391	0.4039
203.7565	0.3639
203.9739	0.3565
204.1913	0.358
204.4086	0.3504
204.626	0.3336
204.8433	0.3869
205.0607	0.3518
205.278	0.3399
205.4953	0.3573
205.7126	0.3312
205.9299	0.335
206.1472	0.326
206.3644	0.3336
206.5817	0.3065
206.7989	0.323
207.0162	0.3228
207.2334	0.3259
207.4506	0.3022
207.6678	0.3224
207.885	0.3089
208.1022	0.3316
208.3194	0.2939
208.5365	0.2864
208.7537	0.3206
208.9708	0.3101
209.1879	0.2846
209.405	0.2832
209.6222	0.2825
209.8392	0.3026
210.0563	0.2908
210.2734	0.2714
210.4905	0.259
210.7075	0.2798
210.9245	0.2747
211.1416	0.2743
211.3586	0.2604
211.5756	0.242
211.7926	0.2582
212.0096	0.2677
212.2265	0.2663
212.4435	0.2601
212.6604	0.2705
212.8774	0.2405
213.0943	0.2553
213.3112	0.2601
213.5281	0.2519
213.745	0.247
213.9619	0.2545
214.1788	0.2713
214.3956	0.2481
214.6125	0.2531
214.8293	0.2462
215.0461	0.2574
215.2629	0.2469
215.4798	0.246
215.6965	0.2506
215.9133	0.2527
216.1301	0.2456
216.3469	0.2454
216.5636	0.2471
216.7803	0.2529
216.9971	0.2678
217.2138	0.244
217.4305	0.2505
217.6472	0.2533
217.8639	0.2414
218.0805	0.2507
218.2972	0.2568
218.5138	0.2626
218.7305	0.2509
218.9471	0.2597
219.1637	0.271
219.3803	0.2503
219.5969	0.257
219.8135	0.2574
220.0301	0.2711
220.2466	0.2583
220.4632	0.2761
220.6797	0.2694
220.8962	0.26
221.1127	0.2699
221.3292	0.2766
221.5457	0.2807
221.7622	0.2807
221.9787	0.2828
222.1951	0.2715
222.4116	0.2807
222.628	0.2805
222.8444	0.275
223.0608	0.2839
223.2772	0.2862
223.4936	0.2897
223.71	0.2977
223.9264	0.2758
224.1427	0.2905
224.3591	0.2917
224.5754	0.2946
224.7917	0.2921
225.008	0.2986
225.2243	0.3077
225.4406	0.2926
225.6569	0.3081
225.8732	0.3132
226.0894	0.3045
226.3057	0.3059
226.5219	0.3173
226.7381	0.3183
226.9543	0.315
227.1705	0.3184
227.3867	0.3141
227.6029	0.319
227.8191	0.3362
228.0352	0.3426
228.2513	0.3519
228.4675	0.3421
228.6836	0.3479
228.8997	0.3456
229.1158	0.3515
229.3319	0.358
229.548	0.3543
229.764	0.3641
229.9801	0.3698
230.1961	0.377
230.4121	0.3646
230.6282	0.376
230.8442	0.3857
231.0602	0.3856
231.2761	0.378
231.4921	0.3826
231.7081	0.3959
231.924	0.4107
232.14	0.3975
232.3559	0.4017
232.5718	0.4071
232.7877	0.4133
233.0036	0.3999
233.2195	0.4138
233.4353	0.4189
233.6512	0.4202
233.867	0.4138
234.0829	0.4329
234.2987	0.4336
234.5145	0.4278
234.7303	0.4404
234.9461	0.4359
235.1619	0.4422
235.3776	0.4355
235.5934	0.4397
235.8091	0.4423
236.0249	0.4434
236.2406	0.44
236.4563	0.4454
236.672	0.4326
236.8877	0.4371
237.1034	0.4476
237.319	0.4514
237.5347	0.4504
237.7503	0.4443
237.966	0.4503
238.1816	0.4561
238.3972	0.4574
238.6128	0.4658
238.8284	0.4627
239.0439	0.4559
239.2595	0.4661
239.475	0.4585
239.6906	0.4655
239.9061	0.4638
240.1216	0.4671
240.3371	0.4647
240.5526	0.4524
240.7681	0.4771
240.9836	0.455
241.199	0.4539
241.4145	0.4364
241.6299	0.4481
241.8453	0.4321
242.0607	0.4272
242.2761	0.4327
242.4915	0.4166
242.7069	0.4188
242.9223	0.4105
243.1376	0.4077
243.353	0.3971
243.5683	0.398
243.7836	0.3854
243.9989	0.3772
244.2142	0.3688
244.4295	0.371
244.6448	0.3619
244.86	0.35
245.0753	0.3357
245.2905	0.3327
245.5057	0.3341
245.721	0.3338
245.9362	0.3236
246.1514	0.3169
246.3665	0.3061
246.5817	0.2927
246.7969	0.2906
247.012	0.2848
247.2271	0.2893
247.4423	0.2801
247.6574	0.2822
247.8725	0.2728
248.0876	0.2653
248.3026	0.2647
248.5177	0.2543
248.7328	0.249
248.9478	0.2467
249.1628	0.2474
249.3779	0.2384
249.5929	0.2326
249.8079	0.24
250.0228	0.2347
250.2378	0.2284
250.4528	0.22
250.6677	0.2166
250.8827	0.2126
251.0976	0.2148
251.3125	0.2106
251.5274	0.2082
251.7423	0.2073
251.9572	0.2068
252.172	0.1996
252.3869	0.2026
252.6017	0.1995
252.8166	0.1997
253.0314	0.1967
253.2462	0.1989
253.461	0.192
253.6758	0.1977
253.8906	0.1954
254.1053	0.1956
254.3201	0.1936
254.5348	0.1839
254.7496	0.1855
254.9643	0.1933
255.179	0.1848
255.3937	0.1835
255.6083	0.1928
255.823	0.1863
256.0377	0.1762
256.2523	0.1815
256.467	0.1821
256.6816	0.1829
256.8962	0.1811
257.1108	0.1839
257.3254	0.1789
257.54	0.1816
257.7545	0.1819
257.9691	0.18
258.1836	0.1696
258.3981	0.1762
258.6127	0.1743
258.8272	0.1828
259.0417	0.1781
259.2561	0.1695
259.4706	0.1703
259.6851	0.1779
259.8995	0.1772
260.114	0.179
260.3284	0.1702
260.5428	0.1754
260.7572	0.1766
260.9716	0.172
261.186	0.1736
261.4003	0.1726
261.6147	0.1741
261.829	0.1714
262.0433	0.1763
262.2577	0.1761
262.472	0.1724
262.6863	0.1769
262.9005	0.1694
263.1148	0.1718
263.3291	0.1714
263.5433	0.177
263.7576	0.1748
263.9718	0.1725
264.186	0.1687
264.4002	0.1755
264.6144	0.1775
264.8286	0.1739
265.0427	0.173
265.2569	0.1784
265.471	0.1778
265.6851	0.1791
265.8993	0.1712
266.1134	0.1809
266.3275	0.1782
266.5415	0.1757
266.7556	0.1776
266.9697	0.1758
267.1837	0.1793
267.3978	0.1781
267.6118	0.1686
267.8258	0.178
268.0398	0.1747
268.2538	0.1724
268.4677	0.1728
268.6817	0.171
268.8957	0.1632
269.1096	0.1666
269.3235	0.1693
269.5374	0.1722
269.7514	0.1666
269.9652	0.1699
270.1791	0.1694
270.393	0.1702
270.6068	0.1725
270.8207	0.1664
271.0345	0.1675
271.2483	0.1596
271.4622	0.1662
271.676	0.1647
271.8897	0.1663
272.1035	0.1709
272.3173	0.168
272.531	0.1665
272.7448	0.1676
272.9585	0.1613
273.1722	0.1603
273.3859	0.1609
273.5996	0.1598
273.8133	0.1649
274.0269	0.1605
274.2406	0.1634
274.4542	0.1694
274.6679	0.1714
274.8815	0.1709
275.0951	0.1683
275.3087	0.1711
275.5223	0.1665
275.7358	0.1677
275.9494	0.1692
276.1629	0.1709
276.3765	0.1624
276.59	0.1626
276.8035	0.1619
277.017	0.1766
277.2305	0.169
277.444	0.1681
277.6574	0.1683
277.8709	0.1749
278.0843	0.1686
278.2978	0.167
278.5112	0.1729
278.7246	0.1749
278.938	0.1686
279.1513	0.1772
279.3647	0.1721
279.5781	0.1657
279.7914	0.1715
280.0047	0.174
280.2181	0.1709
280.4314	0.1759
280.6447	0.1805
280.8579	0.1683
281.0712	0.1701
281.2845	0.1806
281.4977	0.1795
281.711	0.1734
281.9242	0.1783
282.1374	0.1704
282.3506	0.1752
282.5638	0.1807
282.7769	0.1793
282.9901	0.1781
283.2033	0.1817
283.4164	0.1746
283.6295	0.1789
283.8426	0.173
284.0557	0.1821
284.2688	0.1824
284.4819	0.1762
284.695	0.1823
284.908	0.1836
285.1211	0.1875
285.3341	0.1784
285.5471	0.189
285.7601	0.1844
285.9731	0.1845
286.1861	0.185
286.3991	0.1889
286.612	0.1858
286.825	0.1901
287.0379	0.1853
287.2508	0.1861
287.4637	0.1876
287.6766	0.1873
287.8895	0.1853
288.1024	0.1914
288.3152	0.196
288.5281	0.1876
288.7409	0.1914
288.9538	0.1862
289.1666	0.1902
289.3794	0.1926
289.5922	0.1843
289.8049	0.193
290.0177	0.1948
290.2304	0.1934
290.4432	0.1985
290.6559	0.1948
290.8686	0.1957
291.0813	0.1975
291.294	0.1966
291.5067	0.1852
291.7194	0.1986
291.932	0.1889
292.1447	0.1931
292.3573	0.1937
292.5699	0.1992
292.7825	0.1912
292.9951	0.1904
293.2077	0.1873
293.4203	0.1924
293.6328	0.1952
293.8454	0.1955
294.0579	0.1921
294.2704	0.1929
294.4829	0.1897
294.6954	0.1925
294.9079	0.1936
295.1204	0.1861
295.3328	0.1972
295.5453	0.1917
295.7577	0.1945
295.9701	0.1952
296.1825	0.191
296.3949	0.1878
296.6073	0.1877
296.8197	0.1967
297.0321	0.2
297.2444	0.1945
297.4567	0.1917
297.6691	0.1935
297.8814	0.1936
298.0937	0.1932
298.306	0.1902
298.5182	0.1931
298.7305	0.2013
298.9428	0.1919
299.155	0.1938
299.3672	0.1883
299.5794	0.1945
299.7916	0.1924
300.0038	0.1888
300.216	0.1903
300.4282	0.188
300.6403	0.1963
300.8525	0.1898
301.0646	0.1969
301.2767	0.1917
301.4888	0.1935
301.7009	0.193
301.913	0.194
302.125	0.192
302.3371	0.1935
302.5491	0.1907
302.7612	0.2009
302.9732	0.2021
303.1852	0.1919
303.3972	0.189
303.6092	0.1909
303.8211	0.1916
304.0331	0.1896
304.245	0.1884
304.457	0.185
304.6689	0.1909
304.8808	0.188
305.0927	0.1905
305.3046	0.1865
305.5164	0.1822
305.7283	0.185
305.9401	0.17
306.152	0.1781
306.3638	0.18
306.5756	0.1785
306.7874	0.1698
306.9992	0.1752
307.2109	0.1736
307.4227	0.1717
307.6344	0.1745
307.8462	0.1668
308.0579	0.1686
308.2696	0.1671
308.4813	0.167
308.693	0.1605
308.9046	0.1648
309.1163	0.1603
309.328	0.1547
309.5396	0.1483
309.7512	0.1498
309.9628	0.1496
310.1744	0.1482
310.386	0.1398
310.5976	0.1475
310.8091	0.148
311.0207	0.1417
311.2322	0.1365
311.4437	0.1428
311.6552	0.1419
311.8667	0.1452
312.0782	0.1373
312.2897	0.1389
312.5012	0.1357
312.7126	0.1319
312.924	0.1379
313.1355	0.1347
313.3469	0.1258
313.5583	0.1303
313.7696	0.1271
313.981	0.1299
314.1924	0.1299
314.4037	0.127
314.6151	0.1299
314.8264	0.1332
315.0377	0.1274
315.249	0.126
315.4603	0.1234
315.6716	0.1259
315.8828	0.1244
316.0941	0.1263
316.3053	0.1189
316.5165	0.1206
316.7277	0.1148
316.9389	0.1228
317.1501	0.1235
317.3613	0.1186
317.5724	0.1206
317.7836	0.1107
317.9947	0.1184
318.2058	0.119
318.417	0.1178
318.6281	0.1149
318.8391	0.123
319.0502	0.1155
319.2613	0.1178
319.4723	0.1197
319.6834	0.1195
319.8944	0.1162
320.1054	0.1207
320.3164	0.1139
320.5274	0.1124
320.7383	0.1213
320.9493	0.1193
321.1602	0.1173
321.3712	0.1143
321.5821	0.1218
321.793	0.1255
322.0039	0.1174
322.2148	0.1179
322.4257	0.116
322.6365	0.1131
322.8474	0.1211
323.0582	0.1165
323.269	0.1258
323.4798	0.1193
323.6906	0.1194
323.9014	0.1157
324.1122	0.1125
324.3229	0.1214
324.5337	0.1258
324.7444	0.1247
324.9551	0.1206
325.1658	0.1197
325.3765	0.1282
325.5872	0.1261
325.7979	0.12
326.0085	0.1233
326.2192	0.1201
326.4298	0.126
326.6404	0.1248
326.851	0.1172
327.0616	0.1201
327.2722	0.1232
327.4828	0.1234
327.6933	0.1299
327.9039	0.1251
328.1144	0.1274
328.3249	0.1275
328.5354	0.1196
328.7459	0.1243
328.9564	0.1252
329.1669	0.1298
329.3773	0.1262
329.5878	0.1218
329.7982	0.1273
330.0086	0.1302
330.219	0.1244
330.4294	0.1218
330.6398	0.1265
330.8502	0.128
331.0605	0.1258
331.2708	0.1235
331.4812	0.1256
331.6915	0.1241
331.9018	0.1235
332.1121	0.1274
332.3224	0.1277
332.5326	0.1262
332.7429	0.1222
332.9531	0.1292
333.1633	0.1242
333.3735	0.1213
333.5837	0.1251
333.7939	0.1311
334.0041	0.1358
334.2143	0.1355
334.4244	0.1379
334.6346	0.1305
334.8447	0.1268
335.0548	0.1351
335.2649	0.1387
335.475	0.139
335.685	0.1316
335.8951	0.1283
336.1051	0.1345
336.3152	0.1353
336.5252	0.1329
336.7352	0.1314
336.9452	0.1345
337.1552	0.1337
337.3652	0.1293
337.5751	0.135
337.7851	0.1337
337.995	0.1344
338.2049	0.1346
338.4148	0.1366
338.6247	0.1371
338.8346	0.1369
339.0445	0.1296
339.2543	0.1398
339.4642	0.1365
339.674	0.1364
339.8838	0.1358
340.0936	0.1405
340.3034	0.1412
340.5132	0.1368
340.7229	0.1395
340.9327	0.1459
341.1424	0.1379
341.3522	0.1342
341.5619	0.1423
341.7716	0.1404
341.9813	0.1412
342.1909	0.1418
342.4006	0.1445
342.6102	0.1459
342.8199	0.1476
343.0295	0.14
343.2391	0.1517
343.4487	0.1467
343.6583	0.1496
343.8679	0.1447
344.0774	0.1456
344.287	0.1481
344.4965	0.1512
344.706	0.1522
344.9155	0.1554
345.125	0.1506
345.3345	0.1681
345.544	0.1498
345.7534	0.154
345.9629	0.1526
346.1723	0.1566
346.3817	0.1498
346.5911	0.1528
346.8005	0.1546
347.0099	0.158
347.2193	0.1609
347.4286	0.1709
347.638	0.1588
347.8473	0.1653
348.0566	0.1634
348.2659	0.1633
348.4752	0.1629
348.6845	0.1588
348.8937	0.1598
349.103	0.1624
349.3122	0.1673
349.5214	0.1607
349.7306	0.1713
349.9398	0.1693
350.149	0.1648
350.3582	0.1662
350.5674	0.169
350.7765	0.1712
350.9856	0.1658
351.1948	0.1783
351.4039	0.1699
351.613	0.1688
351.822	0.1757
352.0311	0.1708
352.2402	0.1699
352.4492	0.1701
352.6582	0.1792
352.8672	0.1735
353.0762	0.177
353.2852	0.1815
353.4942	0.179
353.7032	0.1772
353.9121	0.1781
354.1211	0.1803
354.33	0.1819
354.5389	0.1775
354.7478	0.1771
354.9567	0.183
355.1655	0.1788
355.3744	0.1793
355.5833	0.1811
355.7921	0.1903
356.0009	0.1833
356.2097	0.1815
356.4185	0.1818
356.6273	0.1855
356.8361	0.1861
357.0448	0.1833
357.2536	0.1909
357.4623	0.1932
357.671	0.1933
357.8797	0.193
358.0884	0.1922
358.2971	0.1908
358.5057	0.1948
358.7144	0.1983
358.923	0.2018
359.1316	0.1981
359.3402	0.2005
359.5488	0.1961
359.7574	0.201
359.966	0.1989
360.1746	0.2009
360.3831	0.2044
360.5916	0.2071
360.8002	0.2094
361.0087	0.2019
361.2172	0.2056
361.4256	0.2088
361.6341	0.2103
361.8426	0.214
362.051	0.2126
362.2594	0.2112
362.4678	0.2154
362.6762	0.2186
362.8846	0.2176
363.093	0.2129
363.3014	0.2225
363.5097	0.224
363.718	0.2254
363.9264	0.2243
364.1347	0.2161
364.343	0.2225
364.5513	0.2257
364.7595	0.2352
364.9678	0.2245
365.176	0.2241
365.3842	0.2326
365.5925	0.228
365.8007	0.2329
366.0089	0.242
366.217	0.2325
366.4252	0.2316
366.6333	0.2395
366.8415	0.2414
367.0496	0.2409
367.2577	0.2422
367.4658	0.2327
367.6739	0.2425
367.882	0.2508
368.09	0.2387
368.2981	0.2487
368.5061	0.2519
368.7141	0.2439
368.9221	0.2562
369.1301	0.2538
369.3381	0.2521
369.5461	0.2536
369.754	0.257
369.962	0.2544
370.1699	0.2618
370.3778	0.2619
370.5857	0.2503
370.7936	0.2633
371.0015	0.251
371.2093	0.2552
371.4172	0.2558
371.625	0.2583
371.8328	0.2563
372.0406	0.2594
372.2484	0.2638
372.4562	0.2706
372.664	0.2602
372.8717	0.2641
373.0795	0.2664
373.2872	0.2745
373.4949	0.272
373.7026	0.2706
373.9103	0.2707
374.118	0.2719
374.3256	0.2691
374.5333	0.2797
374.7409	0.2745
374.9485	0.2723
375.1561	0.281
375.3637	0.2753
375.5713	0.2802
375.7789	0.2744
375.9864	0.2862
376.194	0.2838
376.4015	0.2764
376.609	0.2827
376.8165	0.2862
377.024	0.2825
377.2315	0.2788
377.4389	0.2751
377.6464	0.2839
377.8538	0.2926
378.0612	0.2849
378.2686	0.2853
378.476	0.2961
378.6834	0.2866
378.8908	0.2829
379.0981	0.2965
379.3055	0.2974
379.5128	0.2883
379.7201	0.2982
379.9274	0.2926
380.1347	0.294
380.342	0.2988
380.5492	0.2952
380.7565	0.2927
380.9637	0.3007
381.1709	0.2982
381.3781	0.3066
381.5853	0.3065
381.7925	0.2982
381.9997	0.3109
382.2068	0.3019
382.4139	0.297
382.6211	0.2941
382.8282	0.3102
383.0353	0.3123
383.2424	0.303
383.4494	0.3045
383.6565	0.3057
383.8635	0.2959
384.0706	0.316
384.2776	0.3182
384.4846	0.3126
384.6916	0.3142
384.8986	0.3157
385.1055	0.3183
385.3125	0.3069
385.5194	0.3229
385.7263	0.3059
385.9333	0.318
386.1402	0.3079
386.347	0.3125
386.5539	0.3158
386.7608	0.3127
386.9676	0.311
387.1744	0.3
387.3813	0.3141
387.5881	0.3035
387.7948	0.3104
388.0016	0.3291
388.2084	0.309
388.4151	0.3114
388.6219	0.3064
388.8286	0.313
389.0353	0.3138
389.242	0.318
389.4487	0.3055
389.6553	0.2973
389.862	0.2993
390.0686	0.3137
390.2753	0.3024
390.4819	0.3013
390.6885	0.3057
390.8951	0.2982
391.1016	0.3039
391.3082	0.3032
391.5147	0.2978
391.7213	0.2975
391.9278	0.2943
392.1343	0.3001
392.3408	0.3056
392.5473	0.295
392.7537	0.2892
392.9602	0.2785
393.1666	0.292
393.373	0.2885
393.5794	0.2882
393.7858	0.2854
393.9922	0.2855
394.1986	0.2799
394.4049	0.2808
394.6113	0.2833
394.8176	0.2961
395.0239	0.2734
395.2302	0.2793
395.4365	0.2867
395.6428	0.2864
395.8491	0.2809
396.0553	0.2792
396.2615	0.2824
396.4678	0.2751
396.674	0.2682
396.8802	0.2681
397.0863	0.2673
397.2925	0.2772
397.4987	0.2725
397.7048	0.278
397.9109	0.2653
398.117	0.2679
398.3231	0.2668
398.5292	0.2636
398.7353	0.2639
398.9413	0.2688
399.1474	0.2754
399.3534	0.2675
399.5594	0.268
399.7654	0.2611
399.9714	0.2766
400.1774	0.2681
400.3833	0.2629
400.5893	0.2591
400.7952	0.2685
401.0011	0.2667
401.207	0.2716
401.4129	0.2728
401.6188	0.2689
401.8247	0.2676
402.0305	0.2582
402.2364	0.2763
402.4422	0.2645
402.648	0.2699
402.8538	0.2569
403.0596	0.2757
403.2654	0.2613
403.4711	0.2687
403.6768	0.2602
403.8826	0.2595
404.0883	0.266
404.294	0.2644
404.4997	0.2661
404.7054	0.2764
404.911	0.2553
405.1167	0.263
405.3223	0.2644
405.5279	0.259
405.7335	0.2605
405.9391	0.2571
406.1447	0.2685
406.3502	0.2705
406.5558	0.2666
406.7613	0.2582
406.9668	0.2684
407.1724	0.2614
407.3778	0.265
407.5833	0.2538
407.7888	0.2551
407.9942	0.2531
408.1997	0.2624
408.4051	0.2676
408.6105	0.2768
408.8159	0.2657
409.0213	0.2699
409.2267	0.2773
409.432	0.2734
409.6374	0.2673
409.8427	0.2706
410.048	0.2699
410.2533	0.2652
410.4586	0.2666
410.6639	0.2603
410.8691	0.2564
411.0744	0.2667
411.2796	0.2576
411.4848	0.2775
411.69	0.2568
411.8952	0.2563
412.1004	0.2709
412.3056	0.2668
412.5107	0.2655
412.7158	0.2752
412.921	0.2592
413.1261	0.2643
413.3312	0.264
413.5362	0.2706
413.7413	0.2547
413.9464	0.2487
414.1514	0.2616
414.3564	0.2556
414.5614	0.2553
414.7664	0.2566
414.9714	0.2514
415.1764	0.2597
415.3813	0.2565
415.5863	0.27
415.7912	0.2644
415.9961	0.2663
416.201	0.2626
416.4059	0.2555
416.6108	0.2501
416.8156	0.2513
417.0205	0.2454
417.2253	0.2549
417.4301	0.2624
417.6349	0.2494
417.8397	0.257
418.0445	0.2621
418.2492	0.2415
418.454	0.2503
418.6587	0.2617
418.8634	0.2537
419.0681	0.2569
419.2728	0.2491
419.4775	0.257
419.6822	0.2465
419.8868	0.2424
420.0915	0.2464
420.2961	0.2441
420.5007	0.2496
420.7053	0.247
420.9099	0.2463
421.1144	0.246
421.319	0.2398
421.5235	0.2367
421.728	0.2425
421.9325	0.2457
422.137	0.2499
422.3415	0.2357
422.546	0.2303
422.7504	0.2366
422.9549	0.2493
423.1593	0.2239
423.3637	0.2323
423.5681	0.2323
423.7725	0.2247
423.9769	0.2356
424.1812	0.2216
424.3856	0.2226
424.5899	0.2302
424.7942	0.2207
424.9985	0.2223
425.2028	0.2361
425.4071	0.2269
425.6113	0.2242
425.8156	0.2196
426.0198	0.2175
426.224	0.2287
426.4282	0.2067
426.6324	0.2153
426.8366	0.2165
