Data from MonoPyChalIsomerACN10uM340nmA_Absorbance_14-14-17-365.txt Node
Date: Fri Jul 05 14:14:17 BST 2024
User: LASERRRRR
Spectrometer: FLMT03099
Trigger mode: 0
Integration Time (sec): 1.000000E-1
Scans to average: 1
Electric dark correction enabled: true
Nonlinearity correction enabled: false
Boxcar width: 0
XAxis mode: Wavelengths
Number of Pixels in Spectrum: 3648
>>>>>Begin Spectral Data<<<<<
179.3399	-0.2288
179.5586	-0.2288
179.7771	-0.2288
179.9957	-0
180.2143	-0
180.4329	-0.0653
180.6514	-0
180.8699	-0
181.0885	0.4857
181.307	0.6713
181.5255	-0.9942
181.744	-0.8533
181.9625	-0.4291
182.181	0.9379
182.3994	-0.0919
182.6179	-0
182.8363	0.1186
183.0547	0.254
183.2732	-0.0043
183.4916	0.1643
183.71	0.1695
183.9284	0.06
184.1467	-0.1264
184.3651	0.2854
184.5835	0.0473
184.8018	0.0739
185.0201	0.1036
185.2385	0.0596
185.4568	0.1305
185.6751	-0.0547
185.8934	0.1038
186.1117	-0.1059
186.3299	0.0973
186.5482	0.0831
186.7664	-0.1166
186.9847	-0.0049
187.2029	0.0479
187.4211	0.05
187.6393	0.0268
187.8575	-0.1007
188.0757	0.4113
188.2939	-0.0055
188.512	0.2827
188.7302	0.0975
188.9483	0.2181
189.1665	0.288
189.3846	-0.3252
189.6027	0.1754
189.8208	0.1301
190.0389	-0.0002
190.257	0.1952
190.475	0.2276
190.6931	0.2511
190.9111	0.6817
191.1292	0.2583
191.3472	0.6004
191.5652	0.2949
191.7832	0.223
192.0012	0.4845
192.2192	0.2803
192.4371	0.5539
192.6551	0.6214
192.873	0.3936
193.091	0.6041
193.3089	0.5655
193.5268	0.4443
193.7447	0.5863
193.9626	0.5613
194.1805	0.5758
194.3984	0.7272
194.6162	0.4976
194.8341	0.4899
195.0519	0.4443
195.2697	0.5178
195.4875	0.5009
195.7054	0.4449
195.9231	0.4806
196.1409	0.8108
196.3587	0.5841
196.5765	0.5223
196.7942	0.5344
197.012	0.5457
197.2297	0.5008
197.4474	0.8109
197.6651	0.5844
197.8828	0.5698
198.1005	0.5793
198.3182	0.5972
198.5358	0.7969
198.7535	0.5634
198.9711	0.5233
199.1888	0.6786
199.4064	0.8361
199.624	0.6238
199.8416	0.5555
200.0592	0.7686
200.2767	0.6519
200.4943	0.8454
200.7119	0.9058
200.9294	0.5845
201.1469	0.5314
201.3645	0.6027
201.582	0.6342
201.7995	0.5542
202.017	0.631
202.2344	0.6085
202.4519	0.7313
202.6694	0.6039
202.8868	0.6862
203.1042	0.8761
203.3217	0.6266
203.5391	0.6372
203.7565	0.5412
203.9739	0.6217
204.1913	0.5205
204.4086	0.6031
204.626	0.653
204.8433	0.6401
205.0607	0.6002
205.278	0.6582
205.4953	0.6999
205.7126	0.6104
205.9299	0.7359
206.1472	0.7218
206.3644	0.6886
206.5817	0.6819
206.7989	0.6361
207.0162	0.5986
207.2334	0.5687
207.4506	0.7224
207.6678	0.6172
207.885	0.6735
208.1022	0.7282
208.3194	0.5896
208.5365	0.7244
208.7537	0.5986
208.9708	0.5853
209.1879	0.6308
209.405	0.6371
209.6222	0.7045
209.8392	0.6284
210.0563	0.5926
210.2734	0.7
210.4905	0.6138
210.7075	0.6774
210.9245	0.6343
211.1416	0.6745
211.3586	0.5595
211.5756	0.5189
211.7926	0.6423
212.0096	0.6015
212.2265	0.5971
212.4435	0.5526
212.6604	0.5632
212.8774	0.5718
213.0943	0.6421
213.3112	0.5217
213.5281	0.5197
213.745	0.5086
213.9619	0.4827
214.1788	0.4737
214.3956	0.4553
214.6125	0.4777
214.8293	0.4907
215.0461	0.4741
215.2629	0.4494
215.4798	0.4829
215.6965	0.4129
215.9133	0.4365
216.1301	0.424
216.3469	0.4577
216.5636	0.3793
216.7803	0.3716
216.9971	0.4058
217.2138	0.3415
217.4305	0.3594
217.6472	0.3809
217.8639	0.3743
218.0805	0.3404
218.2972	0.3242
218.5138	0.2924
218.7305	0.3215
218.9471	0.3201
219.1637	0.2897
219.3803	0.3097
219.5969	0.278
219.8135	0.2658
220.0301	0.2864
220.2466	0.2621
220.4632	0.2553
220.6797	0.2391
220.8962	0.2296
221.1127	0.2493
221.3292	0.2657
221.5457	0.2104
221.7622	0.2081
221.9787	0.2575
222.1951	0.2582
222.4116	0.2606
222.628	0.2426
222.8444	0.2285
223.0608	0.2507
223.2772	0.2534
223.4936	0.2527
223.71	0.2559
223.9264	0.2727
224.1427	0.252
224.3591	0.2468
224.5754	0.2681
224.7917	0.2773
225.008	0.2601
225.2243	0.2461
225.4406	0.2832
225.6569	0.2559
225.8732	0.2784
226.0894	0.2744
226.3057	0.2671
226.5219	0.2913
226.7381	0.2616
226.9543	0.2928
227.1705	0.2901
227.3867	0.2607
227.6029	0.3086
227.8191	0.2865
228.0352	0.3018
228.2513	0.3065
228.4675	0.3269
228.6836	0.3089
228.8997	0.2999
229.1158	0.3036
229.3319	0.3117
229.548	0.3192
229.764	0.3252
229.9801	0.3177
230.1961	0.3334
230.4121	0.3425
230.6282	0.3545
230.8442	0.3205
231.0602	0.3279
231.2761	0.3438
231.4921	0.3263
231.7081	0.361
231.924	0.3499
232.14	0.3666
232.3559	0.3446
232.5718	0.3529
232.7877	0.3475
233.0036	0.3397
233.2195	0.3472
233.4353	0.3696
233.6512	0.3872
233.867	0.3867
234.0829	0.3779
234.2987	0.3486
234.5145	0.3789
234.7303	0.3988
234.9461	0.3698
235.1619	0.3903
235.3776	0.402
235.5934	0.3738
235.8091	0.3671
236.0249	0.3736
236.2406	0.3876
236.4563	0.3678
236.672	0.3943
236.8877	0.3978
237.1034	0.4186
237.319	0.3896
237.5347	0.4027
237.7503	0.3908
237.966	0.4072
238.1816	0.3904
238.3972	0.3974
238.6128	0.3837
238.8284	0.4143
239.0439	0.4164
239.2595	0.4158
239.475	0.4301
239.6906	0.4203
239.9061	0.4108
240.1216	0.4008
240.3371	0.4217
240.5526	0.3981
240.7681	0.4072
240.9836	0.3853
241.199	0.3974
241.4145	0.3853
241.6299	0.3773
241.8453	0.3761
242.0607	0.3832
242.2761	0.3517
242.4915	0.3727
242.7069	0.3617
242.9223	0.3379
243.1376	0.352
243.353	0.3537
243.5683	0.3509
243.7836	0.3202
243.9989	0.3179
244.2142	0.2915
244.4295	0.3181
244.6448	0.3138
244.86	0.3022
245.0753	0.2741
245.2905	0.2841
245.5057	0.2721
245.721	0.2687
245.9362	0.2602
246.1514	0.2655
246.3665	0.2521
246.5817	0.2416
246.7969	0.2541
247.012	0.2372
247.2271	0.23
247.4423	0.2326
247.6574	0.2388
247.8725	0.2225
248.0876	0.2337
248.3026	0.2276
248.5177	0.2125
248.7328	0.2006
248.9478	0.203
249.1628	0.212
249.3779	0.2261
249.5929	0.1973
249.8079	0.2027
250.0228	0.1964
250.2378	0.2115
250.4528	0.1929
250.6677	0.1929
250.8827	0.1882
251.0976	0.1917
251.3125	0.1871
251.5274	0.1732
251.7423	0.1781
251.9572	0.1743
252.172	0.1888
252.3869	0.1723
252.6017	0.1791
252.8166	0.159
253.0314	0.1804
253.2462	0.1608
253.461	0.1787
253.6758	0.1695
253.8906	0.1734
254.1053	0.1719
254.3201	0.178
254.5348	0.174
254.7496	0.1779
254.9643	0.1638
255.179	0.1638
255.3937	0.1561
255.6083	0.1618
255.823	0.1648
256.0377	0.1608
256.2523	0.1582
256.467	0.1447
256.6816	0.1648
256.8962	0.1684
257.1108	0.1522
257.3254	0.168
257.54	0.158
257.7545	0.1698
257.9691	0.1758
258.1836	0.1664
258.3981	0.1746
258.6127	0.168
258.8272	0.1612
259.0417	0.1626
259.2561	0.1595
259.4706	0.1565
259.6851	0.1619
259.8995	0.1576
260.114	0.1567
260.3284	0.1592
260.5428	0.1513
260.7572	0.1572
260.9716	0.1695
261.186	0.1688
261.4003	0.157
261.6147	0.1724
261.829	0.152
262.0433	0.1574
262.2577	0.1566
262.472	0.1649
262.6863	0.1555
262.9005	0.1587
263.1148	0.1644
263.3291	0.1484
263.5433	0.1705
263.7576	0.1462
263.9718	0.1658
264.186	0.1526
264.4002	0.1494
264.6144	0.1515
264.8286	0.175
265.0427	0.15
265.2569	0.1533
265.471	0.1475
265.6851	0.1494
265.8993	0.1451
266.1134	0.1529
266.3275	0.1539
266.5415	0.1641
266.7556	0.1631
266.9697	0.156
267.1837	0.165
267.3978	0.1521
267.6118	0.1716
267.8258	0.1654
268.0398	0.1477
268.2538	0.1744
268.4677	0.1647
268.6817	0.1553
268.8957	0.1514
269.1096	0.1633
269.3235	0.1619
269.5374	0.1384
269.7514	0.1484
269.9652	0.1432
270.1791	0.1462
270.393	0.1501
270.6068	0.1519
270.8207	0.1507
271.0345	0.1318
271.2483	0.1531
271.4622	0.1414
271.676	0.1486
271.8897	0.1289
272.1035	0.1395
272.3173	0.1493
272.531	0.1343
272.7448	0.1294
272.9585	0.1186
273.1722	0.1457
273.3859	0.1497
273.5996	0.1288
273.8133	0.1466
274.0269	0.1305
274.2406	0.1418
274.4542	0.1331
274.6679	0.1317
274.8815	0.1371
275.0951	0.1375
275.3087	0.1484
275.5223	0.1434
275.7358	0.1424
275.9494	0.146
276.1629	0.1373
276.3765	0.1196
276.59	0.1363
276.8035	0.1476
277.017	0.1248
277.2305	0.1288
277.444	0.1345
277.6574	0.1373
277.8709	0.1452
278.0843	0.1231
278.2978	0.1343
278.5112	0.1399
278.7246	0.1383
278.938	0.1408
279.1513	0.1314
279.3647	0.1449
279.5781	0.1344
279.7914	0.1264
280.0047	0.153
280.2181	0.1378
280.4314	0.1507
280.6447	0.1483
280.8579	0.1407
281.0712	0.1505
281.2845	0.1455
281.4977	0.1397
281.711	0.1415
281.9242	0.1412
282.1374	0.1568
282.3506	0.1312
282.5638	0.153
282.7769	0.151
282.9901	0.1488
283.2033	0.1518
283.4164	0.1523
283.6295	0.1579
283.8426	0.1395
284.0557	0.1557
284.2688	0.1543
284.4819	0.1497
284.695	0.1551
284.908	0.1527
285.1211	0.1534
285.3341	0.1486
285.5471	0.1605
285.7601	0.1439
285.9731	0.1518
286.1861	0.1575
286.3991	0.1582
286.612	0.1638
286.825	0.1522
287.0379	0.1536
287.2508	0.1602
287.4637	0.1642
287.6766	0.158
287.8895	0.155
288.1024	0.1885
288.3152	0.1623
288.5281	0.1496
288.7409	0.1797
288.9538	0.1563
289.1666	0.158
289.3794	0.1582
289.5922	0.1639
289.8049	0.16
290.0177	0.1577
290.2304	0.167
290.4432	0.1633
290.6559	0.1682
290.8686	0.178
291.0813	0.1752
291.294	0.1573
291.5067	0.1801
291.7194	0.1591
291.932	0.1753
292.1447	0.1705
292.3573	0.1539
292.5699	0.165
292.7825	0.1777
292.9951	0.1718
293.2077	0.1704
293.4203	0.1697
293.6328	0.1528
293.8454	0.1705
294.0579	0.174
294.2704	0.1616
294.4829	0.1596
294.6954	0.1651
294.9079	0.1759
295.1204	0.1747
295.3328	0.1677
295.5453	0.1666
295.7577	0.1648
295.9701	0.1463
296.1825	0.1684
296.3949	0.1671
296.6073	0.1625
296.8197	0.163
297.0321	0.1753
297.2444	0.1445
297.4567	0.1697
297.6691	0.1761
297.8814	0.1675
298.0937	0.1711
298.306	0.1733
298.5182	0.1756
298.7305	0.1752
298.9428	0.167
299.155	0.1703
299.3672	0.1638
299.5794	0.1526
299.7916	0.1572
300.0038	0.1744
300.216	0.1646
300.4282	0.1755
300.6403	0.1645
300.8525	0.1714
301.0646	0.1535
301.2767	0.1692
301.4888	0.163
301.7009	0.1813
301.913	0.1609
302.125	0.1565
302.3371	0.1655
302.5491	0.1649
302.7612	0.1781
302.9732	0.1745
303.1852	0.1757
303.3972	0.1627
303.6092	0.1589
303.8211	0.1649
304.0331	0.1618
304.245	0.1505
304.457	0.1599
304.6689	0.1496
304.8808	0.1718
305.0927	0.153
305.3046	0.1552
305.5164	0.1612
305.7283	0.1475
305.9401	0.1465
306.152	0.1511
306.3638	0.1573
306.5756	0.1571
306.7874	0.1537
306.9992	0.1411
307.2109	0.1447
307.4227	0.1321
307.6344	0.1296
307.8462	0.1263
308.0579	0.1416
308.2696	0.1367
308.4813	0.1284
308.693	0.1427
308.9046	0.1466
309.1163	0.1221
309.328	0.1231
309.5396	0.117
309.7512	0.1098
309.9628	0.1197
310.1744	0.1261
310.386	0.1205
310.5976	0.1127
310.8091	0.1286
311.0207	0.1086
311.2322	0.1182
311.4437	0.106
311.6552	0.1112
311.8667	0.1205
312.0782	0.1028
312.2897	0.1038
312.5012	0.1088
312.7126	0.102
312.924	0.1002
313.1355	0.1137
313.3469	0.0971
313.5583	0.0913
313.7696	0.1121
313.981	0.1118
314.1924	0.1011
314.4037	0.088
314.6151	0.1101
314.8264	0.0899
315.0377	0.0919
315.249	0.0919
315.4603	0.1057
315.6716	0.0914
315.8828	0.0879
316.0941	0.098
316.3053	0.0908
316.5165	0.0883
316.7277	0.0896
316.9389	0.0988
317.1501	0.0952
317.3613	0.0946
317.5724	0.0805
317.7836	0.1018
317.9947	0.0855
318.2058	0.0961
318.417	0.0799
318.6281	0.0815
318.8391	0.0935
319.0502	0.0837
319.2613	0.0955
319.4723	0.092
319.6834	0.094
319.8944	0.0822
320.1054	0.0887
320.3164	0.0983
320.5274	0.0838
320.7383	0.0845
320.9493	0.0936
321.1602	0.1059
321.3712	0.0788
321.5821	0.0999
321.793	0.0866
322.0039	0.0901
322.2148	0.0882
322.4257	0.0869
322.6365	0.0947
322.8474	0.0917
323.0582	0.0933
323.269	0.0861
323.4798	0.1038
323.6906	0.0896
323.9014	0.0931
324.1122	0.0959
324.3229	0.0986
324.5337	0.0966
324.7444	0.0892
324.9551	0.1003
325.1658	0.0987
325.3765	0.0953
325.5872	0.1016
325.7979	0.0915
326.0085	0.0928
326.2192	0.0971
326.4298	0.0903
326.6404	0.0834
326.851	0.0898
327.0616	0.0748
327.2722	0.0983
327.4828	0.1126
327.6933	0.0936
327.9039	0.0986
328.1144	0.1017
328.3249	0.0995
328.5354	0.0854
328.7459	0.1125
328.9564	0.0903
329.1669	0.1028
329.3773	0.0952
329.5878	0.0932
329.7982	0.0945
330.0086	0.0948
330.219	0.0992
330.4294	0.0909
330.6398	0.106
330.8502	0.0928
331.0605	0.0975
331.2708	0.1055
331.4812	0.1079
331.6915	0.1081
331.9018	0.0983
332.1121	0.1041
332.3224	0.1065
332.5326	0.1067
332.7429	0.0933
332.9531	0.1053
333.1633	0.0959
333.3735	0.0954
333.5837	0.1037
333.7939	0.1051
334.0041	0.1059
334.2143	0.1048
334.4244	0.1069
334.6346	0.0871
334.8447	0.1178
335.0548	0.0892
335.2649	0.0893
335.475	0.1091
335.685	0.1043
335.8951	0.1195
336.1051	0.1044
336.3152	0.1134
336.5252	0.1027
336.7352	0.102
336.9452	0.1089
337.1552	0.1056
337.3652	0.0974
337.5751	0.0983
337.7851	0.1103
337.995	0.0938
338.2049	0.1075
338.4148	0.1021
338.6247	0.1106
338.8346	0.107
339.0445	0.0898
339.2543	0.095
339.4642	0.0943
339.674	0.0824
339.8838	0.097
340.0936	0.1008
340.3034	0.1155
340.5132	0.1121
340.7229	0.1168
340.9327	0.1133
341.1424	0.1174
341.3522	0.1163
341.5619	0.1097
341.7716	0.1081
341.9813	0.1117
342.1909	0.1162
342.4006	0.1157
342.6102	0.1171
342.8199	0.1193
343.0295	0.1036
343.2391	0.113
343.4487	0.1218
343.6583	0.1075
343.8679	0.1089
344.0774	0.1212
344.287	0.1131
344.4965	0.1067
344.706	0.1115
344.9155	0.1217
345.125	0.1293
345.3345	0.1253
345.544	0.1165
345.7534	0.1207
345.9629	0.1144
346.1723	0.1201
346.3817	0.1232
346.5911	0.1266
346.8005	0.1282
347.0099	0.1256
347.2193	0.1363
347.4286	0.1214
347.638	0.119
347.8473	0.1436
348.0566	0.1315
348.2659	0.1306
348.4752	0.139
348.6845	0.1198
348.8937	0.1338
349.103	0.1464
349.3122	0.1223
349.5214	0.1234
349.7306	0.1308
349.9398	0.1405
350.149	0.1354
350.3582	0.1302
350.5674	0.1553
350.7765	0.1344
350.9856	0.1357
351.1948	0.1351
351.4039	0.1274
351.613	0.1327
351.822	0.139
352.0311	0.1441
352.2402	0.1358
352.4492	0.1348
352.6582	0.1523
352.8672	0.1486
353.0762	0.1495
353.2852	0.1408
353.4942	0.1442
353.7032	0.144
353.9121	0.1635
354.1211	0.1467
354.33	0.149
354.5389	0.1616
354.7478	0.1426
354.9567	0.142
355.1655	0.1538
355.3744	0.1465
355.5833	0.1521
355.7921	0.1575
356.0009	0.1538
356.2097	0.1799
356.4185	0.1591
356.6273	0.1635
356.8361	0.1695
357.0448	0.1481
357.2536	0.1374
357.4623	0.1575
357.671	0.1606
357.8797	0.1633
358.0884	0.1788
358.2971	0.1609
358.5057	0.1597
358.7144	0.1691
358.923	0.1611
359.1316	0.1605
359.3402	0.1671
359.5488	0.1617
359.7574	0.1699
359.966	0.18
360.1746	0.1722
360.3831	0.1726
360.5916	0.1628
360.8002	0.1622
361.0087	0.166
361.2172	0.1795
361.4256	0.1801
361.6341	0.1819
361.8426	0.1826
362.051	0.1846
362.2594	0.1809
362.4678	0.1683
362.6762	0.1997
362.8846	0.1864
363.093	0.178
363.3014	0.175
363.5097	0.1675
363.718	0.1831
363.9264	0.1812
364.1347	0.1753
364.343	0.1977
364.5513	0.2034
364.7595	0.2001
364.9678	0.1917
365.176	0.2021
365.3842	0.2043
365.5925	0.1848
365.8007	0.1976
366.0089	0.1999
366.217	0.2019
366.4252	0.2063
366.6333	0.2102
366.8415	0.2075
367.0496	0.1925
367.2577	0.2101
367.4658	0.2141
367.6739	0.2058
367.882	0.2401
368.09	0.2134
368.2981	0.2199
368.5061	0.2098
368.7141	0.2159
368.9221	0.2193
369.1301	0.2306
369.3381	0.2055
369.5461	0.2092
369.754	0.2048
369.962	0.2224
370.1699	0.2073
370.3778	0.2214
370.5857	0.2056
370.7936	0.2288
371.0015	0.2263
371.2093	0.2288
371.4172	0.2411
371.625	0.2189
371.8328	0.2264
372.0406	0.2296
372.2484	0.2153
372.4562	0.2447
372.664	0.2562
372.8717	0.2179
373.0795	0.2159
373.2872	0.2258
373.4949	0.2238
373.7026	0.224
373.9103	0.2432
374.118	0.2337
374.3256	0.233
374.5333	0.2421
374.7409	0.2254
374.9485	0.2406
375.1561	0.2476
375.3637	0.2433
375.5713	0.2406
375.7789	0.231
375.9864	0.2308
376.194	0.2366
376.4015	0.2652
376.609	0.2562
376.8165	0.2451
377.024	0.2353
377.2315	0.2339
377.4389	0.2518
377.6464	0.2483
377.8538	0.2521
378.0612	0.2369
378.2686	0.2526
378.476	0.2643
378.6834	0.252
378.8908	0.2541
379.0981	0.2484
379.3055	0.2626
379.5128	0.2376
379.7201	0.2587
379.9274	0.254
380.1347	0.2738
380.342	0.2649
380.5492	0.2659
380.7565	0.2489
380.9637	0.2783
381.1709	0.2523
381.3781	0.2613
381.5853	0.2659
381.7925	0.2692
381.9997	0.2714
382.2068	0.2662
382.4139	0.2772
382.6211	0.256
382.8282	0.2661
383.0353	0.2567
383.2424	0.2537
383.4494	0.2902
383.6565	0.2653
383.8635	0.2548
384.0706	0.2766
384.2776	0.2698
384.4846	0.2685
384.6916	0.2579
384.8986	0.2698
385.1055	0.2696
385.3125	0.2535
385.5194	0.2549
385.7263	0.2833
385.9333	0.2482
386.1402	0.2767
386.347	0.2569
386.5539	0.2601
386.7608	0.2687
386.9676	0.2479
387.1744	0.2515
387.3813	0.2628
387.5881	0.2801
387.7948	0.2652
388.0016	0.2692
388.2084	0.2672
388.4151	0.2648
388.6219	0.2699
388.8286	0.2585
389.0353	0.2963
389.242	0.2598
389.4487	0.2542
389.6553	0.2574
389.862	0.2484
390.0686	0.2679
390.2753	0.2855
390.4819	0.2483
390.6885	0.2545
390.8951	0.257
391.1016	0.265
391.3082	0.2521
391.5147	0.2586
391.7213	0.2351
391.9278	0.2395
392.1343	0.2459
392.3408	0.2676
392.5473	0.2571
392.7537	0.2386
392.9602	0.2423
393.1666	0.2489
393.373	0.2296
393.5794	0.2531
393.7858	0.2387
393.9922	0.2392
394.1986	0.2382
394.4049	0.2469
394.6113	0.2373
394.8176	0.245
395.0239	0.2442
395.2302	0.2131
395.4365	0.231
395.6428	0.2321
395.8491	0.2236
396.0553	0.2363
396.2615	0.2403
396.4678	0.232
396.674	0.2216
396.8802	0.2315
397.0863	0.2511
397.2925	0.2064
397.4987	0.2227
397.7048	0.2179
397.9109	0.23
398.117	0.2178
398.3231	0.2248
398.5292	0.2315
398.7353	0.2292
398.9413	0.2194
399.1474	0.2276
399.3534	0.2281
399.5594	0.2078
399.7654	0.2389
399.9714	0.2255
400.1774	0.2321
400.3833	0.2113
400.5893	0.2312
400.7952	0.2367
401.0011	0.2314
401.207	0.2208
401.4129	0.2255
401.6188	0.2389
401.8247	0.2337
402.0305	0.2286
402.2364	0.2196
402.4422	0.2245
402.648	0.2364
402.8538	0.237
403.0596	0.2322
403.2654	0.2409
403.4711	0.2209
403.6768	0.2277
403.8826	0.237
404.0883	0.2339
404.294	0.2407
404.4997	0.2323
404.7054	0.2377
404.911	0.2019
405.1167	0.2136
405.3223	0.238
405.5279	0.2414
405.7335	0.2268
405.9391	0.2437
406.1447	0.2237
406.3502	0.2517
406.5558	0.2203
406.7613	0.217
406.9668	0.2276
407.1724	0.2198
407.3778	0.2284
407.5833	0.2225
407.7888	0.2216
407.9942	0.2454
408.1997	0.2078
408.4051	0.2293
408.6105	0.2261
408.8159	0.2124
409.0213	0.2214
409.2267	0.2131
409.432	0.2196
409.6374	0.2338
409.8427	0.2181
410.048	0.232
410.2533	0.2346
410.4586	0.2223
410.6639	0.2031
410.8691	0.2151
411.0744	0.2085
411.2796	0.2351
411.4848	0.2128
411.69	0.2138
411.8952	0.2245
412.1004	0.2237
412.3056	0.2414
412.5107	0.2139
412.7158	0.236
412.921	0.2228
413.1261	0.2077
413.3312	0.2203
413.5362	0.2332
413.7413	0.2155
413.9464	0.2394
414.1514	0.2243
414.3564	0.2096
414.5614	0.1916
414.7664	0.2296
414.9714	0.2223
415.1764	0.204
415.3813	0.2276
415.5863	0.2156
415.7912	0.2311
415.9961	0.2174
416.201	0.2129
416.4059	0.2393
416.6108	0.2134
416.8156	0.231
417.0205	0.2181
417.2253	0.2235
417.4301	0.222
417.6349	0.208
417.8397	0.2012
418.0445	0.2196
418.2492	0.2171
418.454	0.2222
418.6587	0.2067
418.8634	0.2257
419.0681	0.2091
419.2728	0.2023
419.4775	0.1963
419.6822	0.2035
419.8868	0.1969
420.0915	0.2017
420.2961	0.205
420.5007	0.2064
420.7053	0.1996
420.9099	0.2107
421.1144	0.2081
421.319	0.1952
421.5235	0.2147
421.728	0.2053
421.9325	0.2184
422.137	0.1982
422.3415	0.2035
422.546	0.2106
422.7504	0.2034
422.9549	0.2176
423.1593	0.2056
423.3637	0.2076
423.5681	0.188
423.7725	0.1989
423.9769	0.1784
424.1812	0.1846
424.3856	0.2092
424.5899	0.2047
424.7942	0.1939
424.9985	0.2033
425.2028	0.1819
425.4071	0.2261
425.6113	0.1613
425.8156	0.1863
426.0198	0.1892
426.224	0.1793
