Data from MonoPyChalIsomerACN10uM340nmA_Absorbance_14-14-18-764.txt Node
Date: Fri Jul 05 14:14:18 BST 2024
User: LASERRRRR
Spectrometer: FLMT03099
Trigger mode: 0
Integration Time (sec): 1.000000E-1
Scans to average: 1
Electric dark correction enabled: true
Nonlinearity correction enabled: false
Boxcar width: 0
XAxis mode: Wavelengths
Number of Pixels in Spectrum: 3648
>>>>>Begin Spectral Data<<<<<
179.3399	-0.2255
179.5586	-0.2255
179.7771	-0.2255
179.9957	-0
180.2143	-0
180.4329	-0
180.6514	0.54
180.8699	-0
181.0885	-0.163
181.307	0.1542
181.5255	-0
181.744	-0.4535
181.9625	-0
182.181	-0
182.3994	-0
182.6179	-0
182.8363	0.6591
183.0547	-0.0864
183.2732	-0.0363
183.4916	-0.0149
183.71	0.0748
183.9284	-0.027
184.1467	-0.1318
184.3651	-0.0993
184.5835	0.0212
184.8018	0.0994
185.0201	-0.0974
185.2385	-0.1987
185.4568	-0.1203
185.6751	0.0335
185.8934	0.3317
186.1117	0.0626
186.3299	0.154
186.5482	-0.0938
186.7664	-0.1391
186.9847	-0.1786
187.2029	-0.0417
187.4211	0.0706
187.6393	0.3758
187.8575	-0.1754
188.0757	0.2342
188.2939	0.0529
188.512	0.3431
188.7302	-0.0519
188.9483	-0.0449
189.1665	0.1131
189.3846	-0.2559
189.6027	0.1344
189.8208	0.2456
190.0389	0.1584
190.257	0.0729
190.475	0.0471
190.6931	0.2214
190.9111	0.2054
191.1292	0.1714
191.3472	0.3669
191.5652	0.2551
191.7832	0.2042
192.0012	1.1419
192.2192	0.3313
192.4371	0.4529
192.6551	0.3607
192.873	0.2894
193.091	0.3506
193.3089	0.5045
193.5268	0.3094
193.7447	0.5569
193.9626	0.518
194.1805	0.5634
194.3984	0.5595
194.6162	0.5574
194.8341	0.6712
195.0519	0.576
195.2697	1.0056
195.4875	0.5821
195.7054	0.7288
195.9231	0.5918
196.1409	0.482
196.3587	0.4154
196.5765	0.5335
196.7942	0.4877
197.012	0.6102
197.2297	0.4875
197.4474	0.7139
197.6651	0.4519
197.8828	0.4986
198.1005	0.5515
198.3182	0.4775
198.5358	0.6343
198.7535	0.5403
198.9711	0.5629
199.1888	0.616
199.4064	0.7874
199.624	0.7714
199.8416	0.5322
200.0592	0.5976
200.2767	0.5005
200.4943	0.5994
200.7119	0.645
200.9294	0.6833
201.1469	0.5224
201.3645	0.5238
201.582	0.5775
201.7995	0.6194
202.017	0.6727
202.2344	0.5215
202.4519	0.6786
202.6694	0.6427
202.8868	0.546
203.1042	0.7036
203.3217	0.6819
203.5391	0.6739
203.7565	0.5906
203.9739	0.5339
204.1913	0.6131
204.4086	0.6292
204.626	0.644
204.8433	0.6122
205.0607	0.5254
205.278	0.5856
205.4953	0.6735
205.7126	0.6485
205.9299	0.8424
206.1472	0.6279
206.3644	0.6378
206.5817	0.7353
206.7989	0.6732
207.0162	0.6436
207.2334	0.5947
207.4506	0.6481
207.6678	0.5608
207.885	0.5731
208.1022	0.7059
208.3194	0.6994
208.5365	0.6858
208.7537	0.5871
208.9708	0.5888
209.1879	0.6287
209.405	0.6886
209.6222	0.6039
209.8392	0.5736
210.0563	0.5731
210.2734	0.6244
210.4905	0.6441
210.7075	0.6576
210.9245	0.586
211.1416	0.7307
211.3586	0.6129
211.5756	0.6048
211.7926	0.5716
212.0096	0.5745
212.2265	0.5194
212.4435	0.5219
212.6604	0.5832
212.8774	0.5867
213.0943	0.5557
213.3112	0.5592
213.5281	0.5032
213.745	0.4821
213.9619	0.5146
214.1788	0.4958
214.3956	0.4597
214.6125	0.432
214.8293	0.4395
215.0461	0.4905
215.2629	0.4423
215.4798	0.4465
215.6965	0.4279
215.9133	0.4466
216.1301	0.3851
216.3469	0.4241
216.5636	0.422
216.7803	0.368
216.9971	0.424
217.2138	0.346
217.4305	0.3556
217.6472	0.3329
217.8639	0.3848
218.0805	0.3263
218.2972	0.32
218.5138	0.317
218.7305	0.3138
218.9471	0.3235
219.1637	0.2663
219.3803	0.2699
219.5969	0.2868
219.8135	0.2589
220.0301	0.2592
220.2466	0.2789
220.4632	0.2524
220.6797	0.2425
220.8962	0.2655
221.1127	0.2458
221.3292	0.2294
221.5457	0.2543
221.7622	0.2192
221.9787	0.2657
222.1951	0.2403
222.4116	0.2567
222.628	0.2572
222.8444	0.2448
223.0608	0.237
223.2772	0.252
223.4936	0.2599
223.71	0.2596
223.9264	0.2508
224.1427	0.2543
224.3591	0.239
224.5754	0.2756
224.7917	0.2503
225.008	0.2586
225.2243	0.2591
225.4406	0.2917
225.6569	0.2733
225.8732	0.2526
226.0894	0.2564
226.3057	0.2812
226.5219	0.3007
226.7381	0.2702
226.9543	0.2817
227.1705	0.2868
227.3867	0.2728
227.6029	0.2983
227.8191	0.3024
228.0352	0.2953
228.2513	0.3072
228.4675	0.2855
228.6836	0.2836
228.8997	0.2782
229.1158	0.314
229.3319	0.3144
229.548	0.312
229.764	0.3201
229.9801	0.3252
230.1961	0.3123
230.4121	0.3524
230.6282	0.3264
230.8442	0.3209
231.0602	0.3512
231.2761	0.3496
231.4921	0.3377
231.7081	0.3569
231.924	0.3672
232.14	0.3687
232.3559	0.3403
232.5718	0.3545
232.7877	0.3527
233.0036	0.3576
233.2195	0.3458
233.4353	0.357
233.6512	0.3554
233.867	0.3698
234.0829	0.3661
234.2987	0.3659
234.5145	0.3755
234.7303	0.3618
234.9461	0.388
235.1619	0.3722
235.3776	0.3789
235.5934	0.3826
235.8091	0.3755
236.0249	0.4018
236.2406	0.3979
236.4563	0.388
236.672	0.4022
236.8877	0.3826
237.1034	0.3955
237.319	0.3801
237.5347	0.4013
237.7503	0.4012
237.966	0.3971
238.1816	0.404
238.3972	0.42
238.6128	0.3796
238.8284	0.4104
239.0439	0.4152
239.2595	0.3992
239.475	0.403
239.6906	0.4185
239.9061	0.4043
240.1216	0.3972
240.3371	0.406
240.5526	0.3983
240.7681	0.4018
240.9836	0.3882
241.199	0.379
241.4145	0.388
241.6299	0.3794
241.8453	0.3778
242.0607	0.3895
242.2761	0.3397
242.4915	0.3656
242.7069	0.3518
242.9223	0.352
243.1376	0.3361
243.353	0.3341
243.5683	0.3458
243.7836	0.3189
243.9989	0.3378
244.2142	0.3031
244.4295	0.3122
244.6448	0.3087
244.86	0.2995
245.0753	0.2757
245.2905	0.2832
245.5057	0.2724
245.721	0.2779
245.9362	0.2623
246.1514	0.2732
246.3665	0.2571
246.5817	0.2633
246.7969	0.2541
247.012	0.2419
247.2271	0.2213
247.4423	0.2469
247.6574	0.2384
247.8725	0.235
248.0876	0.2174
248.3026	0.226
248.5177	0.2234
248.7328	0.2125
248.9478	0.1911
249.1628	0.2145
249.3779	0.2115
249.5929	0.1959
249.8079	0.212
250.0228	0.1994
250.2378	0.1866
250.4528	0.1965
250.6677	0.1823
250.8827	0.1797
251.0976	0.1801
251.3125	0.1827
251.5274	0.1785
251.7423	0.1897
251.9572	0.1788
252.172	0.1808
252.3869	0.1821
252.6017	0.1715
252.8166	0.16
253.0314	0.172
253.2462	0.1667
253.461	0.1728
253.6758	0.165
253.8906	0.1819
254.1053	0.1664
254.3201	0.1576
254.5348	0.1861
254.7496	0.1784
254.9643	0.1683
255.179	0.166
255.3937	0.1759
255.6083	0.1666
255.823	0.1636
256.0377	0.1598
256.2523	0.1696
256.467	0.1489
256.6816	0.1753
256.8962	0.1573
257.1108	0.1587
257.3254	0.1624
257.54	0.1634
257.7545	0.1722
257.9691	0.1727
258.1836	0.1692
258.3981	0.167
258.6127	0.1755
258.8272	0.1588
259.0417	0.1655
259.2561	0.154
259.4706	0.1606
259.6851	0.1624
259.8995	0.1589
260.114	0.1542
260.3284	0.1612
260.5428	0.1483
260.7572	0.1651
260.9716	0.1681
261.186	0.174
261.4003	0.1675
261.6147	0.1617
261.829	0.1514
262.0433	0.1589
262.2577	0.154
262.472	0.1715
262.6863	0.1485
262.9005	0.1697
263.1148	0.1612
263.3291	0.1523
263.5433	0.1678
263.7576	0.1657
263.9718	0.169
264.186	0.1601
264.4002	0.1594
264.6144	0.1582
264.8286	0.1687
265.0427	0.158
265.2569	0.1587
265.471	0.163
265.6851	0.1556
265.8993	0.1577
266.1134	0.1562
266.3275	0.1476
266.5415	0.1668
266.7556	0.1733
266.9697	0.1765
267.1837	0.1602
267.3978	0.1553
267.6118	0.1668
267.8258	0.1652
268.0398	0.1598
268.2538	0.1567
268.4677	0.1581
268.6817	0.1453
268.8957	0.1649
269.1096	0.1663
269.3235	0.1684
269.5374	0.1463
269.7514	0.1524
269.9652	0.1501
270.1791	0.1392
270.393	0.1488
270.6068	0.1475
270.8207	0.1448
271.0345	0.1316
271.2483	0.1532
271.4622	0.1335
271.676	0.15
271.8897	0.1321
272.1035	0.1364
272.3173	0.1476
272.531	0.1395
272.7448	0.1352
272.9585	0.1391
273.1722	0.1268
273.3859	0.1431
273.5996	0.1347
273.8133	0.1443
274.0269	0.13
274.2406	0.1236
274.4542	0.135
274.6679	0.1362
274.8815	0.1323
275.0951	0.1459
275.3087	0.1366
275.5223	0.132
275.7358	0.1288
275.9494	0.1356
276.1629	0.1251
276.3765	0.1272
276.59	0.145
276.8035	0.1372
277.017	0.1312
277.2305	0.1305
277.444	0.138
277.6574	0.1333
277.8709	0.1295
278.0843	0.1318
278.2978	0.147
278.5112	0.1369
278.7246	0.1508
278.938	0.1265
279.1513	0.1534
279.3647	0.1557
279.5781	0.1356
279.7914	0.1451
280.0047	0.1482
280.2181	0.1514
280.4314	0.1392
280.6447	0.1449
280.8579	0.1449
281.0712	0.145
281.2845	0.148
281.4977	0.1505
281.711	0.1387
281.9242	0.1477
282.1374	0.144
282.3506	0.1425
282.5638	0.1491
282.7769	0.1475
282.9901	0.149
283.2033	0.162
283.4164	0.16
283.6295	0.1416
283.8426	0.1492
284.0557	0.157
284.2688	0.1798
284.4819	0.1631
284.695	0.1551
284.908	0.157
285.1211	0.1494
285.3341	0.1526
285.5471	0.1665
285.7601	0.1621
285.9731	0.1434
286.1861	0.1452
286.3991	0.1568
286.612	0.1599
286.825	0.1531
287.0379	0.1645
287.2508	0.1452
287.4637	0.1644
287.6766	0.145
287.8895	0.1605
288.1024	0.1778
288.3152	0.1631
288.5281	0.1421
288.7409	0.1652
288.9538	0.1567
289.1666	0.1458
289.3794	0.1504
289.5922	0.1544
289.8049	0.1692
290.0177	0.1586
290.2304	0.172
290.4432	0.1662
290.6559	0.1639
290.8686	0.1687
291.0813	0.158
291.294	0.1633
291.5067	0.1747
291.7194	0.1623
291.932	0.1734
292.1447	0.1627
292.3573	0.1529
292.5699	0.1677
292.7825	0.1714
292.9951	0.1639
293.2077	0.1691
293.4203	0.1689
293.6328	0.1575
293.8454	0.1824
294.0579	0.1691
294.2704	0.1635
294.4829	0.1646
294.6954	0.1671
294.9079	0.1632
295.1204	0.1725
295.3328	0.1635
295.5453	0.1621
295.7577	0.168
295.9701	0.1532
296.1825	0.1615
296.3949	0.1547
296.6073	0.1634
296.8197	0.1585
297.0321	0.1722
297.2444	0.1565
297.4567	0.1607
297.6691	0.1708
297.8814	0.158
298.0937	0.166
298.306	0.176
298.5182	0.1561
298.7305	0.1631
298.9428	0.1702
299.155	0.1587
299.3672	0.163
299.5794	0.1563
299.7916	0.1663
300.0038	0.1711
300.216	0.1744
300.4282	0.1652
300.6403	0.167
300.8525	0.1657
301.0646	0.1515
301.2767	0.1675
301.4888	0.1646
301.7009	0.1651
301.913	0.1624
302.125	0.1668
302.3371	0.1568
302.5491	0.1599
302.7612	0.1715
302.9732	0.1652
303.1852	0.1633
303.3972	0.1605
303.6092	0.1544
303.8211	0.1541
304.0331	0.1562
304.245	0.1455
304.457	0.1529
304.6689	0.1555
304.8808	0.1601
305.0927	0.1487
305.3046	0.1527
305.5164	0.1572
305.7283	0.1486
305.9401	0.1446
306.152	0.1585
306.3638	0.147
306.5756	0.1408
306.7874	0.1482
306.9992	0.1532
307.2109	0.1333
307.4227	0.1349
307.6344	0.1358
307.8462	0.1392
308.0579	0.1312
308.2696	0.1264
308.4813	0.1183
308.693	0.1298
308.9046	0.1386
309.1163	0.1369
309.328	0.1217
309.5396	0.1082
309.7512	0.1165
309.9628	0.1171
310.1744	0.1185
310.386	0.1144
310.5976	0.1317
310.8091	0.1209
311.0207	0.121
311.2322	0.1055
311.4437	0.1062
311.6552	0.1084
311.8667	0.1131
312.0782	0.0921
312.2897	0.0882
312.5012	0.1194
312.7126	0.0977
312.924	0.0966
313.1355	0.108
313.3469	0.1044
313.5583	0.1063
313.7696	0.0951
313.981	0.1043
314.1924	0.0851
314.4037	0.0983
314.6151	0.1048
314.8264	0.093
315.0377	0.096
315.249	0.0952
315.4603	0.1105
315.6716	0.0948
315.8828	0.0868
316.0941	0.0943
316.3053	0.0905
316.5165	0.0861
316.7277	0.0896
316.9389	0.101
317.1501	0.0919
317.3613	0.0889
317.5724	0.0826
317.7836	0.0882
317.9947	0.099
318.2058	0.0967
318.417	0.0873
318.6281	0.0772
318.8391	0.0882
319.0502	0.0939
319.2613	0.095
319.4723	0.0958
319.6834	0.0936
319.8944	0.0762
320.1054	0.0879
320.3164	0.0936
320.5274	0.0985
320.7383	0.0981
320.9493	0.0886
321.1602	0.0942
321.3712	0.0798
321.5821	0.0987
321.793	0.0867
322.0039	0.0884
322.2148	0.0887
322.4257	0.09
322.6365	0.1084
322.8474	0.0933
323.0582	0.0979
323.269	0.0905
323.4798	0.1034
323.6906	0.0999
323.9014	0.0919
324.1122	0.0886
324.3229	0.0846
324.5337	0.106
324.7444	0.0769
324.9551	0.1104
325.1658	0.0952
325.3765	0.1084
325.5872	0.0983
325.7979	0.0826
326.0085	0.0896
326.2192	0.0963
326.4298	0.0978
326.6404	0.0855
326.851	0.0963
327.0616	0.0967
327.2722	0.1032
327.4828	0.0987
327.6933	0.0925
327.9039	0.0926
328.1144	0.1049
328.3249	0.0936
328.5354	0.0784
328.7459	0.0956
328.9564	0.0863
329.1669	0.0889
329.3773	0.0874
329.5878	0.1057
329.7982	0.1018
330.0086	0.0984
330.219	0.0996
330.4294	0.0962
330.6398	0.0949
330.8502	0.0926
331.0605	0.0973
331.2708	0.1071
331.4812	0.0975
331.6915	0.0988
331.9018	0.1141
332.1121	0.1011
332.3224	0.1044
332.5326	0.1036
332.7429	0.1101
332.9531	0.1167
333.1633	0.0995
333.3735	0.0983
333.5837	0.1069
333.7939	0.0908
334.0041	0.1102
334.2143	0.1053
334.4244	0.0958
334.6346	0.0908
334.8447	0.1175
335.0548	0.1023
335.2649	0.0813
335.475	0.1166
335.685	0.1017
335.8951	0.1071
336.1051	0.1138
336.3152	0.1122
336.5252	0.0922
336.7352	0.1169
336.9452	0.1024
337.1552	0.1112
337.3652	0.0966
337.5751	0.0957
337.7851	0.1076
337.995	0.0826
338.2049	0.1112
338.4148	0.0862
338.6247	0.1077
338.8346	0.1056
339.0445	0.0962
339.2543	0.0979
339.4642	0.0989
339.674	0.0869
339.8838	0.1042
340.0936	0.0961
340.3034	0.1207
340.5132	0.106
340.7229	0.1044
340.9327	0.1014
341.1424	0.1058
341.3522	0.1074
341.5619	0.1224
341.7716	0.1137
341.9813	0.1149
342.1909	0.1165
342.4006	0.1274
342.6102	0.115
342.8199	0.1004
343.0295	0.1146
343.2391	0.1231
343.4487	0.116
343.6583	0.1153
343.8679	0.12
344.0774	0.119
344.287	0.1274
344.4965	0.12
344.706	0.116
344.9155	0.1231
345.125	0.1082
345.3345	0.121
345.544	0.1208
345.7534	0.1164
345.9629	0.1046
346.1723	0.1344
346.3817	0.1191
346.5911	0.1225
346.8005	0.126
347.0099	0.1221
347.2193	0.115
347.4286	0.1233
347.638	0.1262
347.8473	0.1326
348.0566	0.141
348.2659	0.1283
348.4752	0.1288
348.6845	0.1287
348.8937	0.1323
349.103	0.1432
349.3122	0.1284
349.5214	0.1259
349.7306	0.1306
349.9398	0.1286
350.149	0.1354
350.3582	0.1304
350.5674	0.1463
350.7765	0.1326
350.9856	0.1348
351.1948	0.1392
351.4039	0.1333
351.613	0.1239
351.822	0.1255
352.0311	0.1639
352.2402	0.132
352.4492	0.1277
352.6582	0.1552
352.8672	0.1397
353.0762	0.149
353.2852	0.1555
353.4942	0.1386
353.7032	0.1419
353.9121	0.1453
354.1211	0.1444
354.33	0.1468
354.5389	0.157
354.7478	0.1554
354.9567	0.1398
355.1655	0.1499
355.3744	0.1435
355.5833	0.155
355.7921	0.1657
356.0009	0.1534
356.2097	0.1459
356.4185	0.1704
356.6273	0.1664
356.8361	0.1691
357.0448	0.1369
357.2536	0.1411
357.4623	0.1553
357.671	0.1686
357.8797	0.1782
358.0884	0.15
358.2971	0.1612
358.5057	0.1551
358.7144	0.1662
358.923	0.1789
359.1316	0.1478
359.3402	0.1591
359.5488	0.1753
359.7574	0.1527
359.966	0.1678
360.1746	0.1752
360.3831	0.1721
360.5916	0.1624
360.8002	0.1414
361.0087	0.1779
361.2172	0.1694
361.4256	0.1765
361.6341	0.1834
361.8426	0.1849
362.051	0.1828
362.2594	0.1624
362.4678	0.1642
362.6762	0.1966
362.8846	0.1736
363.093	0.1715
363.3014	0.1974
363.5097	0.1692
363.718	0.1808
363.9264	0.1955
364.1347	0.1694
364.343	0.1995
364.5513	0.2123
364.7595	0.202
364.9678	0.1931
365.176	0.1983
365.3842	0.1967
365.5925	0.1941
365.8007	0.1904
366.0089	0.1913
366.217	0.1858
366.4252	0.213
366.6333	0.2174
366.8415	0.2022
367.0496	0.1848
367.2577	0.2056
367.4658	0.1954
367.6739	0.2018
367.882	0.2007
368.09	0.1893
368.2981	0.2021
368.5061	0.2023
368.7141	0.2259
368.9221	0.2082
369.1301	0.2007
369.3381	0.2144
369.5461	0.2034
369.754	0.2235
369.962	0.2163
370.1699	0.2131
370.3778	0.2113
370.5857	0.2003
370.7936	0.212
371.0015	0.2131
371.2093	0.2136
371.4172	0.2273
371.625	0.2147
371.8328	0.2231
372.0406	0.2044
372.2484	0.2279
372.4562	0.2124
372.664	0.2138
372.8717	0.2359
373.0795	0.2176
373.2872	0.2218
373.4949	0.2127
373.7026	0.2277
373.9103	0.2369
374.118	0.2348
374.3256	0.2335
374.5333	0.2204
374.7409	0.237
374.9485	0.2307
375.1561	0.2336
375.3637	0.2294
375.5713	0.2444
375.7789	0.2263
375.9864	0.2418
376.194	0.2342
376.4015	0.2346
376.609	0.2474
376.8165	0.2241
377.024	0.2295
377.2315	0.2254
377.4389	0.2303
377.6464	0.2404
377.8538	0.236
378.0612	0.2414
378.2686	0.241
378.476	0.2632
378.6834	0.2496
378.8908	0.2633
379.0981	0.258
379.3055	0.2539
379.5128	0.2446
379.7201	0.2523
379.9274	0.252
380.1347	0.2577
380.342	0.2745
380.5492	0.2461
380.7565	0.2548
380.9637	0.2472
381.1709	0.243
381.3781	0.2513
381.5853	0.2483
381.7925	0.264
381.9997	0.2649
382.2068	0.2621
382.4139	0.2621
382.6211	0.2494
382.8282	0.2518
383.0353	0.2559
383.2424	0.2548
383.4494	0.2568
383.6565	0.2482
383.8635	0.2412
384.0706	0.2442
384.2776	0.2667
384.4846	0.2515
384.6916	0.2721
384.8986	0.2561
385.1055	0.2693
385.3125	0.2539
385.5194	0.2604
385.7263	0.2701
385.9333	0.2588
386.1402	0.2623
386.347	0.2479
386.5539	0.2516
386.7608	0.2652
386.9676	0.2388
387.1744	0.2604
387.3813	0.2556
387.5881	0.2658
387.7948	0.2521
388.0016	0.257
388.2084	0.2641
388.4151	0.2409
388.6219	0.2637
388.8286	0.2657
389.0353	0.2661
389.242	0.247
389.4487	0.2488
389.6553	0.2609
389.862	0.2273
390.0686	0.2427
390.2753	0.2647
390.4819	0.2581
390.6885	0.2549
390.8951	0.2588
391.1016	0.2598
391.3082	0.238
391.5147	0.2511
391.7213	0.2401
391.9278	0.2276
392.1343	0.2169
392.3408	0.246
392.5473	0.2359
392.7537	0.2354
392.9602	0.2445
393.1666	0.2256
393.373	0.238
393.5794	0.2403
393.7858	0.2217
393.9922	0.2315
394.1986	0.2354
394.4049	0.2286
394.6113	0.2329
394.8176	0.2126
395.0239	0.2249
395.2302	0.2233
395.4365	0.217
395.6428	0.2176
395.8491	0.2114
396.0553	0.2124
396.2615	0.1994
396.4678	0.2162
396.674	0.2033
396.8802	0.2216
397.0863	0.214
397.2925	0.2103
397.4987	0.2153
397.7048	0.2279
397.9109	0.2255
398.117	0.224
398.3231	0.1993
398.5292	0.2427
398.7353	0.2251
398.9413	0.2348
399.1474	0.2213
399.3534	0.2165
399.5594	0.2022
399.7654	0.228
399.9714	0.2204
400.1774	0.2193
400.3833	0.2
400.5893	0.2268
400.7952	0.2114
401.0011	0.221
401.207	0.2286
401.4129	0.2329
401.6188	0.2266
401.8247	0.2213
402.0305	0.2091
402.2364	0.2038
402.4422	0.2333
402.648	0.2024
402.8538	0.2164
403.0596	0.1997
403.2654	0.2278
403.4711	0.2172
403.6768	0.2168
403.8826	0.2338
404.0883	0.2209
404.294	0.2198
404.4997	0.2205
404.7054	0.2325
404.911	0.2299
405.1167	0.2068
405.3223	0.2333
405.5279	0.2037
405.7335	0.2278
405.9391	0.2153
406.1447	0.2204
406.3502	0.2297
406.5558	0.2224
406.7613	0.2225
406.9668	0.2223
407.1724	0.2041
407.3778	0.2056
407.5833	0.2267
407.7888	0.203
407.9942	0.2327
408.1997	0.2233
408.4051	0.2241
408.6105	0.2075
408.8159	0.1998
409.0213	0.1988
409.2267	0.2168
409.432	0.2132
409.6374	0.2314
409.8427	0.2048
410.048	0.2301
410.2533	0.2077
410.4586	0.2227
410.6639	0.1889
410.8691	0.2005
411.0744	0.2214
411.2796	0.1891
411.4848	0.2276
411.69	0.2122
411.8952	0.2317
412.1004	0.1987
412.3056	0.2215
412.5107	0.2019
412.7158	0.2201
412.921	0.2043
413.1261	0.2146
413.3312	0.214
413.5362	0.2225
413.7413	0.214
413.9464	0.2121
414.1514	0.2197
414.3564	0.2061
414.5614	0.198
414.7664	0.1957
414.9714	0.2028
415.1764	0.2079
415.3813	0.1968
415.5863	0.1982
415.7912	0.2183
415.9961	0.2193
416.201	0.2113
416.4059	0.2067
416.6108	0.1875
416.8156	0.2114
417.0205	0.1886
417.2253	0.1846
417.4301	0.2131
417.6349	0.2027
417.8397	0.2182
418.0445	0.2257
418.2492	0.198
418.454	0.2055
418.6587	0.1987
418.8634	0.2062
419.0681	0.2064
419.2728	0.1983
419.4775	0.2029
419.6822	0.1984
419.8868	0.1798
420.0915	0.2005
420.2961	0.1926
420.5007	0.1808
420.7053	0.2071
420.9099	0.2089
421.1144	0.2026
421.319	0.1874
421.5235	0.21
421.728	0.1965
421.9325	0.1941
422.137	0.2044
422.3415	0.1805
422.546	0.2004
422.7504	0.1693
422.9549	0.1882
423.1593	0.2021
423.3637	0.1839
423.5681	0.2031
423.7725	0.1751
423.9769	0.1658
424.1812	0.1795
424.3856	0.1761
424.5899	0.1766
424.7942	0.1938
424.9985	0.1815
425.2028	0.1699
425.4071	0.1969
425.6113	0.1688
425.8156	0.1814
426.0198	0.1919
426.224	0.1691
426.4282	0.1582
426.6324	0.1783
426.8366	0.1805
