Data from MonoPyChalIsomerACN10uM340nmA_Absorbance_14-14-19-365.txt Node
Date: Fri Jul 05 14:14:19 BST 2024
User: LASERRRRR
Spectrometer: FLMT03099
Trigger mode: 0
Integration Time (sec): 1.000000E-1
Scans to average: 1
Electric dark correction enabled: true
Nonlinearity correction enabled: false
Boxcar width: 0
XAxis mode: Wavelengths
Number of Pixels in Spectrum: 3648
>>>>>Begin Spectral Data<<<<<
179.3399	-0.3599
179.5586	-0.3599
179.7771	-0.3599
179.9957	-0
180.2143	-0
180.4329	-0.2508
180.6514	1.3406
180.8699	-0.083
181.0885	-0.1503
181.307	0.1138
181.5255	-0.6403
181.744	-0
181.9625	0.0894
182.181	-1.0228
182.3994	-0
182.6179	-0.5576
182.8363	-0.1058
183.0547	-0.2413
183.2732	-0.1053
183.4916	-0.0793
183.71	-0.0398
183.9284	0.1096
184.1467	-0.0953
184.3651	0.0016
184.5835	0.0344
184.8018	0.0315
185.0201	0.032
185.2385	-0.0232
185.4568	0.4756
185.6751	-0.0676
185.8934	0.2706
186.1117	0.0088
186.3299	0.0557
186.5482	-0.0074
186.7664	0.0064
186.9847	0.0818
187.2029	0.0422
187.4211	0.1695
187.6393	-0.0087
187.8575	-0.1644
188.0757	0.1165
188.2939	0.009
188.512	-0.0359
188.7302	0.0933
188.9483	-0.0347
189.1665	0.1579
189.3846	-0.137
189.6027	0.2154
189.8208	0.0614
190.0389	0.0128
190.257	0.101
190.475	0.2709
190.6931	0.1507
190.9111	0.3924
191.1292	0.1624
191.3472	0.3523
191.5652	0.2347
191.7832	0.0953
192.0012	0.6842
192.2192	0.2985
192.4371	0.5373
192.6551	0.2513
192.873	0.4373
193.091	0.2495
193.3089	0.8332
193.5268	0.533
193.7447	0.4817
193.9626	0.5549
194.1805	0.5727
194.3984	1.0615
194.6162	0.5118
194.8341	0.5923
195.0519	0.4949
195.2697	0.4716
195.4875	0.4912
195.7054	0.7274
195.9231	0.5277
196.1409	0.5086
196.3587	0.6779
196.5765	0.4591
196.7942	0.7558
197.012	0.487
197.2297	0.6325
197.4474	0.5469
197.6651	0.53
197.8828	0.5626
198.1005	0.5738
198.3182	0.7537
198.5358	0.7103
198.7535	0.5646
198.9711	0.5801
199.1888	0.7039
199.4064	0.7019
199.624	0.5987
199.8416	0.5439
200.0592	0.6582
200.2767	0.7487
200.4943	0.6532
200.7119	0.7213
200.9294	0.7914
201.1469	0.572
201.3645	0.5471
201.582	0.6547
201.7995	0.4855
202.017	0.5439
202.2344	0.6142
202.4519	0.6917
202.6694	0.6344
202.8868	0.581
203.1042	0.7143
203.3217	0.6065
203.5391	0.5862
203.7565	0.5367
203.9739	0.6084
204.1913	0.5324
204.4086	0.6
204.626	0.6645
204.8433	0.6043
205.0607	0.6145
205.278	0.6459
205.4953	0.6468
205.7126	0.7325
205.9299	0.7764
206.1472	0.642
206.3644	0.7025
206.5817	0.6609
206.7989	0.649
207.0162	0.6087
207.2334	0.6771
207.4506	0.6183
207.6678	0.613
207.885	0.5758
208.1022	0.6317
208.3194	0.6245
208.5365	0.6149
208.7537	0.5708
208.9708	0.5539
209.1879	0.6345
209.405	0.6394
209.6222	0.6815
209.8392	0.632
210.0563	0.656
210.2734	0.6113
210.4905	0.5818
210.7075	0.6619
210.9245	0.631
211.1416	0.7077
211.3586	0.645
211.5756	0.5923
211.7926	0.5475
212.0096	0.5686
212.2265	0.5231
212.4435	0.5904
212.6604	0.5498
212.8774	0.5411
213.0943	0.5554
213.3112	0.5541
213.5281	0.5486
213.745	0.4969
213.9619	0.5061
214.1788	0.4669
214.3956	0.469
214.6125	0.4325
214.8293	0.4394
215.0461	0.4133
215.2629	0.4581
215.4798	0.4244
215.6965	0.422
215.9133	0.4222
216.1301	0.4294
216.3469	0.454
216.5636	0.4169
216.7803	0.3961
216.9971	0.4085
217.2138	0.387
217.4305	0.3682
217.6472	0.3366
217.8639	0.3825
218.0805	0.3281
218.2972	0.3221
218.5138	0.3292
218.7305	0.3159
218.9471	0.3044
219.1637	0.2626
219.3803	0.2758
219.5969	0.2836
219.8135	0.2394
220.0301	0.2688
220.2466	0.2727
220.4632	0.2638
220.6797	0.2452
220.8962	0.2459
221.1127	0.2671
221.3292	0.2749
221.5457	0.2396
221.7622	0.2517
221.9787	0.256
222.1951	0.2387
222.4116	0.2522
222.628	0.2574
222.8444	0.2653
223.0608	0.2582
223.2772	0.2405
223.4936	0.2912
223.71	0.2536
223.9264	0.2618
224.1427	0.2385
224.3591	0.2383
224.5754	0.2858
224.7917	0.246
225.008	0.2547
225.2243	0.2557
225.4406	0.2653
225.6569	0.283
225.8732	0.2474
226.0894	0.2643
226.3057	0.251
226.5219	0.2894
226.7381	0.2784
226.9543	0.2847
227.1705	0.298
227.3867	0.2691
227.6029	0.2911
227.8191	0.2823
228.0352	0.3076
228.2513	0.3034
228.4675	0.3165
228.6836	0.2947
228.8997	0.2857
229.1158	0.2976
229.3319	0.3378
229.548	0.3171
229.764	0.3019
229.9801	0.3418
230.1961	0.3278
230.4121	0.3143
230.6282	0.3394
230.8442	0.3136
231.0602	0.349
231.2761	0.3624
231.4921	0.3495
231.7081	0.358
231.924	0.3519
232.14	0.3661
232.3559	0.3494
232.5718	0.3592
232.7877	0.3369
233.0036	0.3357
233.2195	0.3592
233.4353	0.365
233.6512	0.3572
233.867	0.3629
234.0829	0.353
234.2987	0.389
234.5145	0.36
234.7303	0.3845
234.9461	0.3814
235.1619	0.3835
235.3776	0.3934
235.5934	0.3655
235.8091	0.3712
236.0249	0.3663
236.2406	0.383
236.4563	0.3676
236.672	0.3898
236.8877	0.3825
237.1034	0.3932
237.319	0.3988
237.5347	0.4039
237.7503	0.4017
237.966	0.4238
238.1816	0.4209
238.3972	0.4038
238.6128	0.3974
238.8284	0.4163
239.0439	0.4342
239.2595	0.413
239.475	0.4032
239.6906	0.413
239.9061	0.4018
240.1216	0.3812
240.3371	0.4184
240.5526	0.3902
240.7681	0.3943
240.9836	0.3728
241.199	0.4091
241.4145	0.4006
241.6299	0.3772
241.8453	0.3787
242.0607	0.3781
242.2761	0.3555
242.4915	0.3704
242.7069	0.3645
242.9223	0.3508
243.1376	0.341
243.353	0.354
243.5683	0.3438
243.7836	0.3405
243.9989	0.3407
244.2142	0.2994
244.4295	0.3149
244.6448	0.3075
244.86	0.301
245.0753	0.2917
245.2905	0.2905
245.5057	0.2704
245.721	0.2769
245.9362	0.2598
246.1514	0.2668
246.3665	0.266
246.5817	0.262
246.7969	0.248
247.012	0.2491
247.2271	0.2274
247.4423	0.2462
247.6574	0.2305
247.8725	0.231
248.0876	0.2293
248.3026	0.2165
248.5177	0.2303
248.7328	0.21
248.9478	0.2038
249.1628	0.2048
249.3779	0.2196
249.5929	0.196
249.8079	0.2084
250.0228	0.2123
250.2378	0.2046
250.4528	0.2095
250.6677	0.1835
250.8827	0.1897
251.0976	0.1813
251.3125	0.1812
251.5274	0.1739
251.7423	0.179
251.9572	0.1891
252.172	0.1741
252.3869	0.1839
252.6017	0.183
252.8166	0.1642
253.0314	0.1662
253.2462	0.1704
253.461	0.1802
253.6758	0.1745
253.8906	0.1739
254.1053	0.1752
254.3201	0.1796
254.5348	0.1721
254.7496	0.1657
254.9643	0.1589
255.179	0.1711
255.3937	0.1634
255.6083	0.1797
255.823	0.17
256.0377	0.1514
256.2523	0.1699
256.467	0.1603
256.6816	0.1678
256.8962	0.1779
257.1108	0.1518
257.3254	0.1724
257.54	0.1535
257.7545	0.1635
257.9691	0.1675
258.1836	0.1562
258.3981	0.1634
258.6127	0.1657
258.8272	0.1566
259.0417	0.164
259.2561	0.1685
259.4706	0.168
259.6851	0.1559
259.8995	0.1655
260.114	0.1627
260.3284	0.1548
260.5428	0.1619
260.7572	0.1613
260.9716	0.1742
261.186	0.1554
261.4003	0.1669
261.6147	0.1706
261.829	0.1526
262.0433	0.1544
262.2577	0.1529
262.472	0.166
262.6863	0.1625
262.9005	0.1704
263.1148	0.1525
263.3291	0.1395
263.5433	0.1624
263.7576	0.1686
263.9718	0.1653
264.186	0.1565
264.4002	0.1565
264.6144	0.1572
264.8286	0.1654
265.0427	0.1598
265.2569	0.1653
265.471	0.1605
265.6851	0.1527
265.8993	0.1494
266.1134	0.1557
266.3275	0.1533
266.5415	0.1448
266.7556	0.1679
266.9697	0.166
267.1837	0.1563
267.3978	0.1566
267.6118	0.1574
267.8258	0.1679
268.0398	0.1444
268.2538	0.1599
268.4677	0.1687
268.6817	0.1589
268.8957	0.1646
269.1096	0.1509
269.3235	0.1647
269.5374	0.1485
269.7514	0.1347
269.9652	0.1414
270.1791	0.1462
270.393	0.1497
270.6068	0.1449
270.8207	0.1476
271.0345	0.1337
271.2483	0.1572
271.4622	0.1349
271.676	0.1462
271.8897	0.1433
272.1035	0.1292
272.3173	0.1407
272.531	0.1336
272.7448	0.1426
272.9585	0.1407
273.1722	0.1458
273.3859	0.1389
273.5996	0.1343
273.8133	0.1438
274.0269	0.1345
274.2406	0.1367
274.4542	0.1313
274.6679	0.1338
274.8815	0.1366
275.0951	0.145
275.3087	0.147
275.5223	0.147
275.7358	0.1513
275.9494	0.1463
276.1629	0.136
276.3765	0.1437
276.59	0.1411
276.8035	0.137
277.017	0.1414
277.2305	0.1333
277.444	0.1458
277.6574	0.1356
277.8709	0.1418
278.0843	0.1347
278.2978	0.1481
278.5112	0.1377
278.7246	0.1495
278.938	0.1395
279.1513	0.147
279.3647	0.1485
279.5781	0.1428
279.7914	0.1358
280.0047	0.1409
280.2181	0.1401
280.4314	0.1535
280.6447	0.147
280.8579	0.1476
281.0712	0.1507
281.2845	0.1465
281.4977	0.1538
281.711	0.1395
281.9242	0.1383
282.1374	0.1466
282.3506	0.1417
282.5638	0.1548
282.7769	0.1513
282.9901	0.1498
283.2033	0.1504
283.4164	0.1608
283.6295	0.1449
283.8426	0.1476
284.0557	0.1572
284.2688	0.158
284.4819	0.1578
284.695	0.1577
284.908	0.1628
285.1211	0.1425
285.3341	0.1587
285.5471	0.1586
285.7601	0.1582
285.9731	0.1535
286.1861	0.1455
286.3991	0.1549
286.612	0.1622
286.825	0.1539
287.0379	0.1623
287.2508	0.1508
287.4637	0.155
287.6766	0.1563
287.8895	0.1605
288.1024	0.1865
288.3152	0.1678
288.5281	0.1528
288.7409	0.1667
288.9538	0.1588
289.1666	0.1509
289.3794	0.1642
289.5922	0.1635
289.8049	0.17
290.0177	0.1721
290.2304	0.1695
290.4432	0.1725
290.6559	0.1594
290.8686	0.1732
291.0813	0.1567
291.294	0.1658
291.5067	0.171
291.7194	0.174
291.932	0.1765
292.1447	0.1599
292.3573	0.1595
292.5699	0.1662
292.7825	0.1665
292.9951	0.1557
293.2077	0.1735
293.4203	0.1641
293.6328	0.1531
293.8454	0.1663
294.0579	0.1636
294.2704	0.1616
294.4829	0.1619
294.6954	0.1636
294.9079	0.1639
295.1204	0.1728
295.3328	0.1608
295.5453	0.1691
295.7577	0.1703
295.9701	0.1589
296.1825	0.168
296.3949	0.1643
296.6073	0.1654
296.8197	0.1596
297.0321	0.1743
297.2444	0.1611
297.4567	0.1594
297.6691	0.1719
297.8814	0.1539
298.0937	0.1657
298.306	0.1721
298.5182	0.1668
298.7305	0.1681
298.9428	0.1607
299.155	0.1748
299.3672	0.1684
299.5794	0.1506
299.7916	0.1581
300.0038	0.1677
300.216	0.1701
300.4282	0.1694
300.6403	0.1549
300.8525	0.1758
301.0646	0.1544
301.2767	0.1643
301.4888	0.1537
301.7009	0.1617
301.913	0.1661
302.125	0.1624
302.3371	0.1629
302.5491	0.1593
302.7612	0.1698
302.9732	0.1739
303.1852	0.1681
303.3972	0.1569
303.6092	0.1579
303.8211	0.1598
304.0331	0.1584
304.245	0.1567
304.457	0.1533
304.6689	0.1448
304.8808	0.176
305.0927	0.1519
305.3046	0.1558
305.5164	0.1546
305.7283	0.1593
305.9401	0.1576
306.152	0.1472
306.3638	0.1511
306.5756	0.1476
306.7874	0.141
306.9992	0.1562
307.2109	0.1361
307.4227	0.1208
307.6344	0.1449
307.8462	0.1306
308.0579	0.1365
308.2696	0.1288
308.4813	0.1304
308.693	0.1306
308.9046	0.1326
309.1163	0.1291
309.328	0.1188
309.5396	0.1194
309.7512	0.1227
309.9628	0.1238
310.1744	0.1171
310.386	0.1152
310.5976	0.1172
310.8091	0.1203
311.0207	0.1156
311.2322	0.1125
311.4437	0.1076
311.6552	0.1148
311.8667	0.1091
312.0782	0.0922
312.2897	0.1012
312.5012	0.0988
312.7126	0.1031
312.924	0.0964
313.1355	0.1165
313.3469	0.1005
313.5583	0.1094
313.7696	0.1015
313.981	0.1094
314.1924	0.1065
314.4037	0.0939
314.6151	0.1087
314.8264	0.0913
315.0377	0.0937
315.249	0.104
315.4603	0.0965
315.6716	0.0897
315.8828	0.0813
316.0941	0.0874
316.3053	0.0903
316.5165	0.0902
316.7277	0.0916
316.9389	0.0994
317.1501	0.0909
317.3613	0.088
317.5724	0.0858
317.7836	0.0942
317.9947	0.0908
318.2058	0.0862
318.417	0.0808
318.6281	0.0827
318.8391	0.0965
319.0502	0.0913
319.2613	0.0846
319.4723	0.0969
319.6834	0.0966
319.8944	0.0918
320.1054	0.0897
320.3164	0.0918
320.5274	0.0908
320.7383	0.0814
320.9493	0.0942
321.1602	0.0992
321.3712	0.0853
321.5821	0.0936
321.793	0.0939
322.0039	0.0911
322.2148	0.0886
322.4257	0.0933
322.6365	0.1028
322.8474	0.0897
323.0582	0.0914
323.269	0.0993
323.4798	0.1081
323.6906	0.0966
323.9014	0.0991
324.1122	0.0967
324.3229	0.0852
324.5337	0.0932
324.7444	0.0832
324.9551	0.1108
325.1658	0.1045
325.3765	0.1011
325.5872	0.0917
325.7979	0.0939
326.0085	0.1049
326.2192	0.1068
326.4298	0.1095
326.6404	0.0961
326.851	0.0937
327.0616	0.092
327.2722	0.0974
327.4828	0.1042
327.6933	0.0971
327.9039	0.1047
328.1144	0.1059
328.3249	0.0993
328.5354	0.084
328.7459	0.1001
328.9564	0.0883
329.1669	0.0913
329.3773	0.0916
329.5878	0.0924
329.7982	0.0864
330.0086	0.1083
330.219	0.112
330.4294	0.1007
330.6398	0.0988
330.8502	0.0952
331.0605	0.0974
331.2708	0.0959
331.4812	0.0965
331.6915	0.1027
331.9018	0.1033
332.1121	0.0971
332.3224	0.0995
332.5326	0.1075
332.7429	0.101
332.9531	0.1051
333.1633	0.1048
333.3735	0.103
333.5837	0.1073
333.7939	0.0968
334.0041	0.106
334.2143	0.1049
334.4244	0.0985
334.6346	0.0857
334.8447	0.1076
335.0548	0.1026
335.2649	0.0922
335.475	0.1075
335.685	0.0965
335.8951	0.1107
336.1051	0.1171
336.3152	0.1007
336.5252	0.0974
336.7352	0.1016
336.9452	0.1076
337.1552	0.114
337.3652	0.1083
337.5751	0.1136
337.7851	0.1103
337.995	0.1027
338.2049	0.1228
338.4148	0.1164
338.6247	0.1147
338.8346	0.114
339.0445	0.099
339.2543	0.0936
339.4642	0.0974
339.674	0.0915
339.8838	0.1062
340.0936	0.0965
340.3034	0.1137
340.5132	0.1131
340.7229	0.1093
340.9327	0.1034
341.1424	0.0966
341.3522	0.1117
341.5619	0.1159
341.7716	0.119
341.9813	0.1146
342.1909	0.1127
342.4006	0.1102
342.6102	0.1162
342.8199	0.1215
343.0295	0.1168
343.2391	0.1201
343.4487	0.1335
343.6583	0.1066
343.8679	0.1239
344.0774	0.1332
344.287	0.1306
344.4965	0.1192
344.706	0.1133
344.9155	0.1137
345.125	0.1103
345.3345	0.1267
345.544	0.1145
345.7534	0.1008
345.9629	0.1113
346.1723	0.1239
346.3817	0.1217
346.5911	0.1167
346.8005	0.1335
347.0099	0.1306
347.2193	0.1346
347.4286	0.123
347.638	0.1329
347.8473	0.133
348.0566	0.1319
348.2659	0.1329
348.4752	0.1219
348.6845	0.1268
348.8937	0.1266
349.103	0.1341
349.3122	0.1223
349.5214	0.1287
349.7306	0.1372
349.9398	0.1331
350.149	0.1385
350.3582	0.121
350.5674	0.1507
350.7765	0.1343
350.9856	0.1317
351.1948	0.1353
351.4039	0.1285
351.613	0.1243
351.822	0.1364
352.0311	0.1392
352.2402	0.1494
352.4492	0.1357
352.6582	0.1432
352.8672	0.1379
353.0762	0.1427
353.2852	0.141
353.4942	0.1361
353.7032	0.1563
353.9121	0.1492
354.1211	0.1457
354.33	0.1431
354.5389	0.1568
354.7478	0.1403
354.9567	0.1429
355.1655	0.135
355.3744	0.1496
355.5833	0.1467
355.7921	0.1622
356.0009	0.1623
356.2097	0.1723
356.4185	0.1675
356.6273	0.1584
356.8361	0.1727
357.0448	0.1528
357.2536	0.1457
357.4623	0.1434
357.671	0.1642
357.8797	0.1597
358.0884	0.176
358.2971	0.1613
358.5057	0.1652
358.7144	0.1641
358.923	0.1614
359.1316	0.1745
359.3402	0.1701
359.5488	0.1702
359.7574	0.1522
359.966	0.1629
360.1746	0.1835
360.3831	0.1722
360.5916	0.1721
360.8002	0.1643
361.0087	0.1831
361.2172	0.184
361.4256	0.1681
361.6341	0.1788
361.8426	0.1669
362.051	0.1699
362.2594	0.1775
362.4678	0.1793
362.6762	0.2046
362.8846	0.177
363.093	0.1854
363.3014	0.183
363.5097	0.1737
363.718	0.1766
363.9264	0.1782
364.1347	0.1791
364.343	0.1921
364.5513	0.1983
364.7595	0.1846
364.9678	0.194
365.176	0.1994
365.3842	0.1874
365.5925	0.1904
365.8007	0.1915
366.0089	0.1871
366.217	0.1949
366.4252	0.1974
366.6333	0.2078
366.8415	0.1939
367.0496	0.1897
367.2577	0.2074
367.4658	0.2145
367.6739	0.2176
367.882	0.2037
368.09	0.1972
368.2981	0.1919
368.5061	0.1894
368.7141	0.2128
368.9221	0.207
369.1301	0.2163
369.3381	0.1952
369.5461	0.214
369.754	0.2148
369.962	0.2295
370.1699	0.2064
370.3778	0.223
370.5857	0.2081
370.7936	0.2119
371.0015	0.2133
371.2093	0.2357
371.4172	0.236
371.625	0.2081
371.8328	0.2137
372.0406	0.2273
372.2484	0.2159
372.4562	0.2235
372.664	0.2265
372.8717	0.2319
373.0795	0.2232
373.2872	0.221
373.4949	0.2353
373.7026	0.2297
373.9103	0.2231
374.118	0.234
374.3256	0.2311
374.5333	0.2215
374.7409	0.2082
374.9485	0.234
375.1561	0.2282
375.3637	0.2421
375.5713	0.2402
375.7789	0.2296
375.9864	0.2418
376.194	0.235
376.4015	0.2454
376.609	0.2427
376.8165	0.2385
377.024	0.233
377.2315	0.2301
377.4389	0.2439
377.6464	0.2456
377.8538	0.2444
378.0612	0.2432
378.2686	0.2507
378.476	0.2491
378.6834	0.2614
378.8908	0.2315
379.0981	0.2325
379.3055	0.2494
379.5128	0.2482
379.7201	0.225
379.9274	0.2418
380.1347	0.2411
380.342	0.2844
380.5492	0.2412
380.7565	0.2557
380.9637	0.2501
381.1709	0.2607
381.3781	0.2409
381.5853	0.2563
381.7925	0.2649
381.9997	0.2682
382.2068	0.2544
382.4139	0.2607
382.6211	0.2528
382.8282	0.242
383.0353	0.2778
383.2424	0.2562
383.4494	0.2581
383.6565	0.2569
383.8635	0.2765
384.0706	0.2618
384.2776	0.2566
384.4846	0.2605
384.6916	0.2506
384.8986	0.242
385.1055	0.2672
385.3125	0.256
385.5194	0.2429
385.7263	0.2761
385.9333	0.257
386.1402	0.2678
386.347	0.2546
386.5539	0.2516
386.7608	0.2619
386.9676	0.2456
387.1744	0.2452
387.3813	0.25
387.5881	0.2577
387.7948	0.2613
388.0016	0.2465
388.2084	0.2559
388.4151	0.2489
388.6219	0.2722
388.8286	0.24
389.0353	0.2783
389.242	0.2644
389.4487	0.2355
389.6553	0.2452
389.862	0.234
390.0686	0.2464
390.2753	0.2502
390.4819	0.2534
390.6885	0.242
390.8951	0.2533
391.1016	0.2422
391.3082	0.2379
391.5147	0.2532
391.7213	0.2382
391.9278	0.2326
392.1343	0.2492
392.3408	0.2484
392.5473	0.2347
392.7537	0.2267
392.9602	0.2298
393.1666	0.2309
393.373	0.2314
393.5794	0.2341
393.7858	0.2177
393.9922	0.2251
394.1986	0.2474
394.4049	0.2354
394.6113	0.2279
394.8176	0.2161
395.0239	0.2141
395.2302	0.2215
395.4365	0.2248
395.6428	0.2273
395.8491	0.2442
396.0553	0.2144
396.2615	0.2346
396.4678	0.2171
396.674	0.2049
396.8802	0.2062
397.0863	0.237
397.2925	0.2017
397.4987	0.2159
397.7048	0.2093
397.9109	0.2327
398.117	0.2017
398.3231	0.2057
398.5292	0.2465
398.7353	0.2182
398.9413	0.2117
399.1474	0.236
399.3534	0.2188
399.5594	0.2079
399.7654	0.2215
399.9714	0.2161
400.1774	0.2261
400.3833	0.2194
400.5893	0.2109
400.7952	0.2266
401.0011	0.2193
401.207	0.2254
401.4129	0.2169
401.6188	0.2237
401.8247	0.222
402.0305	0.212
402.2364	0.1919
402.4422	0.2243
402.648	0.2159
402.8538	0.2196
403.0596	0.2089
403.2654	0.2263
403.4711	0.2181
403.6768	0.2223
403.8826	0.2121
404.0883	0.2227
404.294	0.2264
404.4997	0.2052
404.7054	0.2128
404.911	0.2103
405.1167	0.2179
405.3223	0.219
405.5279	0.2342
405.7335	0.2236
405.9391	0.2328
406.1447	0.2208
406.3502	0.2319
406.5558	0.2182
406.7613	0.2115
406.9668	0.2025
407.1724	0.2052
407.3778	0.2047
407.5833	0.2211
407.7888	0.2064
407.9942	0.2448
408.1997	0.2102
408.4051	0.2294
408.6105	0.228
408.8159	0.2041
409.0213	0.2272
409.2267	0.2302
409.432	0.2012
409.6374	0.2259
409.8427	0.2081
410.048	0.2209
410.2533	0.1991
410.4586	0.2037
410.6639	0.2052
410.8691	0.1985
411.0744	0.2081
411.2796	0.2039
411.4848	0.2265
411.69	0.219
411.8952	0.2234
412.1004	0.206
412.3056	0.2304
412.5107	0.2021
412.7158	0.2272
412.921	0.2104
413.1261	0.2241
413.3312	0.2059
413.5362	0.2055
413.7413	0.1994
413.9464	0.2063
414.1514	0.1978
414.3564	0.1972
414.5614	0.1912
414.7664	0.2124
414.9714	0.204
415.1764	0.2053
415.3813	0.2179
415.5863	0.2038
415.7912	0.2304
415.9961	0.1998
416.201	0.2098
416.4059	0.2302
416.6108	0.1998
416.8156	0.2139
417.0205	0.2031
417.2253	0.2064
417.4301	0.2081
417.6349	0.1994
417.8397	0.2144
418.0445	0.2262
418.2492	0.1926
418.454	0.2191
418.6587	0.2002
418.8634	0.2087
419.0681	0.178
419.2728	0.1885
419.4775	0.1964
419.6822	0.2021
419.8868	0.1868
420.0915	0.2059
420.2961	0.1843
420.5007	0.1949
420.7053	0.2011
420.9099	0.198
421.1144	0.1919
421.319	0.1893
421.5235	0.1858
421.728	0.1992
421.9325	0.1908
422.137	0.1848
422.3415	0.1894
422.546	0.1995
422.7504	0.2076
422.9549	0.2005
423.1593	0.2018
423.3637	0.1975
423.5681	0.1784
423.7725	0.1779
423.9769	0.1774
424.1812	0.1764
424.3856	0.1798
424.5899	0.187
424.7942	0.1834
424.9985	0.1865
425.2028	0.1898
425.4071	0.1957
425.6113	0.1673
425.8156	0.1755
426.0198	0.1876
426.224	0.1602
426.4282	0.1791
