Data from MonoPyChalIsomerACN10uM340nmA_Absorbance_14-14-20-465.txt Node
Date: Fri Jul 05 14:14:20 BST 2024
User: LASERRRRR
Spectrometer: FLMT03099
Trigger mode: 0
Integration Time (sec): 1.000000E-1
Scans to average: 1
Electric dark correction enabled: true
Nonlinearity correction enabled: false
Boxcar width: 0
XAxis mode: Wavelengths
Number of Pixels in Spectrum: 3648
>>>>>Begin Spectral Data<<<<<
179.3399	0.1671
179.5586	0.1671
179.7771	0.1671
179.9957	-0
180.2143	-0
180.4329	-0.0211
180.6514	-0
180.8699	-0
181.0885	-0.2293
181.307	0.424
181.5255	-0
181.744	-0
181.9625	-0
182.181	-0.7919
182.3994	0.0518
182.6179	-0
182.8363	0.1756
183.0547	-0.0182
183.2732	0.0545
183.4916	-0.0959
183.71	0.2794
183.9284	-0.0462
184.1467	-0.1064
184.3651	0.0036
184.5835	-0.0904
184.8018	0.053
185.0201	0.2652
185.2385	-0.0308
185.4568	0.1907
185.6751	0.2589
185.8934	0.3331
186.1117	0.0422
186.3299	0.0177
186.5482	0.2064
186.7664	0.0283
186.9847	-0.1901
187.2029	0.0774
187.4211	0.1022
187.6393	0.2575
187.8575	0.076
188.0757	0.2822
188.2939	0.0385
188.512	-0.0099
188.7302	0.0545
188.9483	0.0048
189.1665	0.2421
189.3846	0.2236
189.6027	0.1643
189.8208	0.2992
190.0389	0.2577
190.257	0.4372
190.475	0.3121
190.6931	0.3054
190.9111	0.2991
191.1292	0.3514
191.3472	0.3198
191.5652	0.4162
191.7832	0.1419
192.0012	0.2787
192.2192	0.3509
192.4371	0.4976
192.6551	0.3251
192.873	0.4996
193.091	0.4052
193.3089	0.8107
193.5268	0.3998
193.7447	0.4069
193.9626	0.5334
194.1805	0.5436
194.3984	0.5463
194.6162	0.5011
194.8341	0.471
195.0519	0.5034
195.2697	0.7094
195.4875	0.5921
195.7054	0.5819
195.9231	0.5362
196.1409	0.6925
196.3587	0.5079
196.5765	0.5762
196.7942	0.527
197.012	0.4826
197.2297	0.8094
197.4474	0.7201
197.6651	0.5908
197.8828	0.5289
198.1005	0.6414
198.3182	0.5584
198.5358	0.8453
198.7535	0.634
198.9711	0.5415
199.1888	0.6223
199.4064	0.7458
199.624	0.557
199.8416	0.5815
200.0592	0.5952
200.2767	0.7066
200.4943	0.6515
200.7119	0.6599
200.9294	0.6933
201.1469	0.7078
201.3645	0.5541
201.582	0.6419
201.7995	0.6977
202.017	0.5516
202.2344	0.5453
202.4519	0.6657
202.6694	0.6229
202.8868	0.488
203.1042	0.7156
203.3217	0.6743
203.5391	0.6876
203.7565	0.5551
203.9739	0.6133
204.1913	0.6418
204.4086	0.5278
204.626	0.7354
204.8433	0.6358
205.0607	0.6232
205.278	0.6318
205.4953	0.7141
205.7126	0.6738
205.9299	0.6274
206.1472	0.7083
206.3644	0.5765
206.5817	0.7176
206.7989	0.7066
207.0162	0.6614
207.2334	0.6283
207.4506	0.7141
207.6678	0.7326
207.885	0.608
208.1022	0.714
208.3194	0.648
208.5365	0.6346
208.7537	0.6862
208.9708	0.5811
209.1879	0.5994
209.405	0.6638
209.6222	0.7254
209.8392	0.6065
210.0563	0.5924
210.2734	0.6482
210.4905	0.6591
210.7075	0.6594
210.9245	0.5897
211.1416	0.644
211.3586	0.6373
211.5756	0.6188
211.7926	0.5586
212.0096	0.6234
212.2265	0.5459
212.4435	0.5556
212.6604	0.5797
212.8774	0.5993
213.0943	0.5802
213.3112	0.5153
213.5281	0.5461
213.745	0.5145
213.9619	0.501
214.1788	0.4858
214.3956	0.4757
214.6125	0.4956
214.8293	0.4535
215.0461	0.4891
215.2629	0.4698
215.4798	0.4646
215.6965	0.4203
215.9133	0.4644
216.1301	0.4284
216.3469	0.4312
216.5636	0.4327
216.7803	0.3535
216.9971	0.3858
217.2138	0.3896
217.4305	0.3407
217.6472	0.3595
217.8639	0.3971
218.0805	0.3378
218.2972	0.3265
218.5138	0.3248
218.7305	0.3426
218.9471	0.3195
219.1637	0.2867
219.3803	0.299
219.5969	0.2822
219.8135	0.2801
220.0301	0.2935
220.2466	0.2632
220.4632	0.2564
220.6797	0.2471
220.8962	0.2382
221.1127	0.263
221.3292	0.2508
221.5457	0.2377
221.7622	0.258
221.9787	0.25
222.1951	0.2491
222.4116	0.285
222.628	0.2538
222.8444	0.2445
223.0608	0.2688
223.2772	0.2388
223.4936	0.2659
223.71	0.2634
223.9264	0.2662
224.1427	0.2504
224.3591	0.259
224.5754	0.259
224.7917	0.2791
225.008	0.2618
225.2243	0.2704
225.4406	0.3025
225.6569	0.2774
225.8732	0.2717
226.0894	0.274
226.3057	0.2697
226.5219	0.2772
226.7381	0.2811
226.9543	0.2817
227.1705	0.2801
227.3867	0.2935
227.6029	0.3124
227.8191	0.2922
228.0352	0.2758
228.2513	0.3373
228.4675	0.3071
228.6836	0.3052
228.8997	0.2976
229.1158	0.3195
229.3319	0.3024
229.548	0.3189
229.764	0.3315
229.9801	0.3233
230.1961	0.3138
230.4121	0.3277
230.6282	0.3242
230.8442	0.3148
231.0602	0.3464
231.2761	0.3451
231.4921	0.3647
231.7081	0.3469
231.924	0.3434
232.14	0.3838
232.3559	0.3479
232.5718	0.3573
232.7877	0.3594
233.0036	0.3394
233.2195	0.3648
233.4353	0.353
233.6512	0.3617
233.867	0.3815
234.0829	0.3618
234.2987	0.3566
234.5145	0.3739
234.7303	0.381
234.9461	0.3877
235.1619	0.3779
235.3776	0.3747
235.5934	0.3994
235.8091	0.378
236.0249	0.3976
236.2406	0.3826
236.4563	0.3782
236.672	0.3777
236.8877	0.3879
237.1034	0.3773
237.319	0.3804
237.5347	0.4162
237.7503	0.4013
237.966	0.4117
238.1816	0.4213
238.3972	0.4039
238.6128	0.3905
238.8284	0.4148
239.0439	0.4071
239.2595	0.398
239.475	0.4116
239.6906	0.4303
239.9061	0.4029
240.1216	0.3992
240.3371	0.4121
240.5526	0.3919
240.7681	0.4019
240.9836	0.4009
241.199	0.3911
241.4145	0.3908
241.6299	0.3753
241.8453	0.3682
242.0607	0.3864
242.2761	0.3567
242.4915	0.3762
242.7069	0.3556
242.9223	0.3455
243.1376	0.3533
243.353	0.3706
243.5683	0.3502
243.7836	0.3255
243.9989	0.3267
244.2142	0.3025
244.4295	0.3044
244.6448	0.3099
244.86	0.2948
245.0753	0.2834
245.2905	0.2854
245.5057	0.2872
245.721	0.2761
245.9362	0.2604
246.1514	0.2789
246.3665	0.2565
246.5817	0.2539
246.7969	0.2526
247.012	0.248
247.2271	0.2334
247.4423	0.2399
247.6574	0.2314
247.8725	0.2327
248.0876	0.2238
248.3026	0.2282
248.5177	0.2131
248.7328	0.205
248.9478	0.2091
249.1628	0.2109
249.3779	0.2053
249.5929	0.2076
249.8079	0.2057
250.0228	0.1993
250.2378	0.1998
250.4528	0.21
250.6677	0.2047
250.8827	0.2003
251.0976	0.195
251.3125	0.185
251.5274	0.1845
251.7423	0.196
251.9572	0.1798
252.172	0.1776
252.3869	0.178
252.6017	0.1774
252.8166	0.1704
253.0314	0.1649
253.2462	0.1493
253.461	0.1797
253.6758	0.17
253.8906	0.1728
254.1053	0.175
254.3201	0.1758
254.5348	0.18
254.7496	0.1833
254.9643	0.1681
255.179	0.1722
255.3937	0.1558
255.6083	0.1682
255.823	0.1736
256.0377	0.1732
256.2523	0.1602
256.467	0.1628
256.6816	0.1819
256.8962	0.1632
257.1108	0.1613
257.3254	0.1701
257.54	0.1555
257.7545	0.168
257.9691	0.1663
258.1836	0.157
258.3981	0.1685
258.6127	0.1733
258.8272	0.1509
259.0417	0.162
259.2561	0.1452
259.4706	0.1615
259.6851	0.1566
259.8995	0.1596
260.114	0.1611
260.3284	0.1524
260.5428	0.1532
260.7572	0.1659
260.9716	0.1545
261.186	0.1554
261.4003	0.165
261.6147	0.1721
261.829	0.1681
262.0433	0.1524
262.2577	0.1626
262.472	0.1674
262.6863	0.1586
262.9005	0.1658
263.1148	0.1624
263.3291	0.1461
263.5433	0.1667
263.7576	0.1501
263.9718	0.163
264.186	0.1599
264.4002	0.1542
264.6144	0.1499
264.8286	0.1699
265.0427	0.1617
265.2569	0.1522
265.471	0.1665
265.6851	0.1595
265.8993	0.1557
266.1134	0.1497
266.3275	0.1574
266.5415	0.1539
266.7556	0.1668
266.9697	0.153
267.1837	0.1691
267.3978	0.1616
267.6118	0.1642
267.8258	0.176
268.0398	0.1482
268.2538	0.168
268.4677	0.1597
268.6817	0.1493
268.8957	0.1555
269.1096	0.1668
269.3235	0.1602
269.5374	0.1458
269.7514	0.1594
269.9652	0.1494
270.1791	0.1408
270.393	0.149
270.6068	0.1584
270.8207	0.1336
271.0345	0.149
271.2483	0.1528
271.4622	0.1448
271.676	0.1462
271.8897	0.1371
272.1035	0.1411
272.3173	0.1437
272.531	0.1342
272.7448	0.1347
272.9585	0.1359
273.1722	0.1412
273.3859	0.1471
273.5996	0.1335
273.8133	0.1457
274.0269	0.1319
274.2406	0.1357
274.4542	0.1417
274.6679	0.1306
274.8815	0.1363
275.0951	0.1316
275.3087	0.1491
275.5223	0.1399
275.7358	0.1338
275.9494	0.1535
276.1629	0.1368
276.3765	0.1463
276.59	0.1451
276.8035	0.1346
277.017	0.1405
277.2305	0.1247
277.444	0.1364
277.6574	0.1291
277.8709	0.1379
278.0843	0.1363
278.2978	0.1409
278.5112	0.1258
278.7246	0.1367
278.938	0.1409
279.1513	0.1467
279.3647	0.1468
279.5781	0.1451
279.7914	0.1497
280.0047	0.1504
280.2181	0.1533
280.4314	0.1499
280.6447	0.1535
280.8579	0.1536
281.0712	0.144
281.2845	0.1531
281.4977	0.1476
281.711	0.1378
281.9242	0.1519
282.1374	0.1396
282.3506	0.145
282.5638	0.1511
282.7769	0.1502
282.9901	0.1545
283.2033	0.1526
283.4164	0.1595
283.6295	0.1586
283.8426	0.1479
284.0557	0.161
284.2688	0.1714
284.4819	0.154
284.695	0.1473
284.908	0.1653
285.1211	0.1501
285.3341	0.1447
285.5471	0.1545
285.7601	0.1476
285.9731	0.1506
286.1861	0.1433
286.3991	0.1606
286.612	0.1607
286.825	0.1597
287.0379	0.1652
287.2508	0.1591
287.4637	0.1637
287.6766	0.1467
287.8895	0.1623
288.1024	0.1698
288.3152	0.1647
288.5281	0.1634
288.7409	0.1521
288.9538	0.164
289.1666	0.1704
289.3794	0.1639
289.5922	0.1482
289.8049	0.164
290.0177	0.1616
290.2304	0.1662
290.4432	0.1637
290.6559	0.1601
290.8686	0.1676
291.0813	0.1701
291.294	0.1649
291.5067	0.1746
291.7194	0.1615
291.932	0.1731
292.1447	0.1636
292.3573	0.1618
292.5699	0.1656
292.7825	0.163
292.9951	0.1533
293.2077	0.1681
293.4203	0.1565
293.6328	0.1619
293.8454	0.1765
294.0579	0.163
294.2704	0.1668
294.4829	0.1461
294.6954	0.167
294.9079	0.1743
295.1204	0.1703
295.3328	0.1608
295.5453	0.1569
295.7577	0.1495
295.9701	0.1519
296.1825	0.1705
296.3949	0.1593
296.6073	0.1567
296.8197	0.1549
297.0321	0.1783
297.2444	0.1466
297.4567	0.1635
297.6691	0.1665
297.8814	0.1595
298.0937	0.1606
298.306	0.1665
298.5182	0.161
298.7305	0.161
298.9428	0.1577
299.155	0.16
299.3672	0.1659
299.5794	0.1597
299.7916	0.1577
300.0038	0.172
300.216	0.1717
300.4282	0.1662
300.6403	0.1621
300.8525	0.1721
301.0646	0.1598
301.2767	0.1774
301.4888	0.1624
301.7009	0.1659
301.913	0.1617
302.125	0.1572
302.3371	0.1592
302.5491	0.1562
302.7612	0.1783
302.9732	0.1564
303.1852	0.1676
303.3972	0.164
303.6092	0.1598
303.8211	0.1527
304.0331	0.1542
304.245	0.1427
304.457	0.1482
304.6689	0.1517
304.8808	0.1566
305.0927	0.1489
305.3046	0.1506
305.5164	0.1543
305.7283	0.1423
305.9401	0.1486
306.152	0.1472
306.3638	0.1565
306.5756	0.1442
306.7874	0.1481
306.9992	0.1613
307.2109	0.149
307.4227	0.1337
307.6344	0.1363
307.8462	0.1284
308.0579	0.1367
308.2696	0.12
308.4813	0.1284
308.693	0.1263
308.9046	0.131
309.1163	0.1296
309.328	0.1204
309.5396	0.12
309.7512	0.1282
309.9628	0.1161
310.1744	0.1256
310.386	0.1175
310.5976	0.11
310.8091	0.1216
311.0207	0.1191
311.2322	0.1126
311.4437	0.1055
311.6552	0.1089
311.8667	0.1174
312.0782	0.0913
312.2897	0.1055
312.5012	0.1075
312.7126	0.1058
312.924	0.0977
313.1355	0.1133
313.3469	0.1031
313.5583	0.1097
313.7696	0.1029
313.981	0.1073
314.1924	0.0935
314.4037	0.1006
314.6151	0.1079
314.8264	0.0926
315.0377	0.0929
315.249	0.0971
315.4603	0.1032
315.6716	0.0892
315.8828	0.0887
316.0941	0.0981
316.3053	0.0936
316.5165	0.0904
316.7277	0.0805
316.9389	0.1015
317.1501	0.0994
317.3613	0.096
317.5724	0.09
317.7836	0.1005
317.9947	0.0906
318.2058	0.0927
318.417	0.0716
318.6281	0.0761
318.8391	0.0849
319.0502	0.0837
319.2613	0.0944
319.4723	0.0929
319.6834	0.0921
319.8944	0.0858
320.1054	0.0913
320.3164	0.0957
320.5274	0.0883
320.7383	0.0932
320.9493	0.0917
321.1602	0.1084
321.3712	0.0824
321.5821	0.1018
321.793	0.0904
322.0039	0.0915
322.2148	0.0958
322.4257	0.1006
322.6365	0.1021
322.8474	0.1022
323.0582	0.0925
323.269	0.1045
323.4798	0.0991
323.6906	0.105
323.9014	0.1013
324.1122	0.1024
324.3229	0.1009
324.5337	0.089
324.7444	0.1023
324.9551	0.1062
325.1658	0.1022
325.3765	0.1076
325.5872	0.1037
325.7979	0.0901
326.0085	0.1024
326.2192	0.1003
326.4298	0.1085
326.6404	0.0972
326.851	0.0986
327.0616	0.0953
327.2722	0.1109
327.4828	0.1045
327.6933	0.1055
327.9039	0.1051
328.1144	0.1056
328.3249	0.1005
328.5354	0.0937
328.7459	0.0951
328.9564	0.0929
329.1669	0.0999
329.3773	0.1
329.5878	0.1029
329.7982	0.0974
330.0086	0.1052
330.219	0.0996
330.4294	0.1015
330.6398	0.099
330.8502	0.0895
331.0605	0.1008
331.2708	0.0986
331.4812	0.1015
331.6915	0.1007
331.9018	0.1009
332.1121	0.0937
332.3224	0.1093
332.5326	0.1151
332.7429	0.0967
332.9531	0.1198
333.1633	0.1111
333.3735	0.0945
333.5837	0.1087
333.7939	0.0887
334.0041	0.1023
334.2143	0.1069
334.4244	0.1044
334.6346	0.0862
334.8447	0.1246
335.0548	0.0939
335.2649	0.0981
335.475	0.1103
335.685	0.1036
335.8951	0.1019
336.1051	0.1138
336.3152	0.1104
336.5252	0.0952
336.7352	0.1087
336.9452	0.105
337.1552	0.1204
337.3652	0.1071
337.5751	0.1004
337.7851	0.1107
337.995	0.0968
338.2049	0.1121
338.4148	0.111
338.6247	0.1131
338.8346	0.1039
339.0445	0.1019
339.2543	0.1001
339.4642	0.1126
339.674	0.098
339.8838	0.1108
340.0936	0.1102
340.3034	0.13
340.5132	0.1223
340.7229	0.1019
340.9327	0.1094
341.1424	0.1109
341.3522	0.1148
341.5619	0.1201
341.7716	0.1143
341.9813	0.1228
342.1909	0.1055
342.4006	0.1265
342.6102	0.1271
342.8199	0.1124
343.0295	0.1157
343.2391	0.117
343.4487	0.1201
343.6583	0.1064
343.8679	0.1156
344.0774	0.1304
344.287	0.1264
344.4965	0.124
344.706	0.1291
344.9155	0.1192
345.125	0.1153
345.3345	0.1172
345.544	0.1235
345.7534	0.1331
345.9629	0.1251
346.1723	0.1271
346.3817	0.1182
346.5911	0.1149
346.8005	0.1311
347.0099	0.1221
347.2193	0.1427
347.4286	0.1279
347.638	0.1312
347.8473	0.1302
348.0566	0.121
348.2659	0.1219
348.4752	0.1324
348.6845	0.129
348.8937	0.126
349.103	0.1423
349.3122	0.1247
349.5214	0.1272
349.7306	0.1457
349.9398	0.1457
350.149	0.1386
350.3582	0.1319
350.5674	0.1556
350.7765	0.1469
350.9856	0.1403
351.1948	0.1465
351.4039	0.1313
351.613	0.1277
351.822	0.1411
352.0311	0.1458
352.2402	0.1485
352.4492	0.1565
352.6582	0.1472
352.8672	0.1378
353.0762	0.1495
353.2852	0.1458
353.4942	0.138
353.7032	0.1431
353.9121	0.151
354.1211	0.1489
354.33	0.1427
354.5389	0.1421
354.7478	0.1446
354.9567	0.1487
355.1655	0.1395
355.3744	0.1451
355.5833	0.1518
355.7921	0.1709
356.0009	0.1479
356.2097	0.1715
356.4185	0.1531
356.6273	0.1697
356.8361	0.1477
357.0448	0.1543
357.2536	0.1585
357.4623	0.1535
357.671	0.1548
357.8797	0.155
358.0884	0.1636
358.2971	0.1699
358.5057	0.162
358.7144	0.1771
358.923	0.1606
359.1316	0.1677
359.3402	0.1676
359.5488	0.1608
359.7574	0.1546
359.966	0.167
360.1746	0.1742
360.3831	0.173
360.5916	0.1654
360.8002	0.162
361.0087	0.1942
361.2172	0.1773
361.4256	0.1786
361.6341	0.1836
361.8426	0.1764
362.051	0.1889
362.2594	0.174
362.4678	0.1748
362.6762	0.1952
362.8846	0.1919
363.093	0.1868
363.3014	0.1707
363.5097	0.1827
363.718	0.1735
363.9264	0.1991
364.1347	0.1788
364.343	0.2055
364.5513	0.1921
364.7595	0.1962
364.9678	0.1956
365.176	0.1984
365.3842	0.2072
365.5925	0.1962
365.8007	0.1968
366.0089	0.1848
366.217	0.18
366.4252	0.2031
366.6333	0.2089
366.8415	0.1971
367.0496	0.2012
367.2577	0.2007
367.4658	0.2076
367.6739	0.2122
367.882	0.2011
368.09	0.1992
368.2981	0.2093
368.5061	0.1921
368.7141	0.2027
368.9221	0.2101
369.1301	0.2085
369.3381	0.2033
369.5461	0.2145
369.754	0.217
369.962	0.2179
370.1699	0.2157
370.3778	0.2165
370.5857	0.207
370.7936	0.2185
371.0015	0.2158
371.2093	0.2315
371.4172	0.2128
371.625	0.2176
371.8328	0.1981
372.0406	0.2188
372.2484	0.2094
372.4562	0.2254
372.664	0.2202
372.8717	0.235
373.0795	0.2072
373.2872	0.2252
373.4949	0.2138
373.7026	0.229
373.9103	0.2216
374.118	0.2315
374.3256	0.2242
374.5333	0.2115
374.7409	0.2378
374.9485	0.2343
375.1561	0.2341
375.3637	0.2339
375.5713	0.2347
375.7789	0.24
375.9864	0.2303
376.194	0.2264
376.4015	0.2316
376.609	0.2554
376.8165	0.238
377.024	0.238
377.2315	0.233
377.4389	0.2424
377.6464	0.2543
377.8538	0.2428
378.0612	0.2311
378.2686	0.2361
378.476	0.2595
378.6834	0.2337
378.8908	0.2585
379.0981	0.252
379.3055	0.2604
379.5128	0.256
379.7201	0.2439
379.9274	0.2472
380.1347	0.243
380.342	0.2651
380.5492	0.2386
380.7565	0.2475
380.9637	0.2507
381.1709	0.252
381.3781	0.2567
381.5853	0.2463
381.7925	0.2657
381.9997	0.2706
382.2068	0.274
382.4139	0.2628
382.6211	0.2501
382.8282	0.2594
383.0353	0.2431
383.2424	0.2458
383.4494	0.2695
383.6565	0.2439
383.8635	0.261
384.0706	0.2573
384.2776	0.2537
384.4846	0.2514
384.6916	0.277
384.8986	0.25
385.1055	0.2546
385.3125	0.2772
385.5194	0.2475
385.7263	0.2665
385.9333	0.2584
386.1402	0.2406
386.347	0.265
386.5539	0.2658
386.7608	0.2717
386.9676	0.251
387.1744	0.251
387.3813	0.238
387.5881	0.2693
387.7948	0.2591
388.0016	0.2352
388.2084	0.2356
388.4151	0.2384
388.6219	0.261
388.8286	0.2572
389.0353	0.2749
389.242	0.2488
389.4487	0.2483
389.6553	0.232
389.862	0.2322
390.0686	0.2334
390.2753	0.2553
390.4819	0.2393
390.6885	0.2479
390.8951	0.2527
391.1016	0.234
391.3082	0.2261
391.5147	0.2412
391.7213	0.2372
391.9278	0.2357
392.1343	0.2334
392.3408	0.2377
392.5473	0.2317
392.7537	0.2314
392.9602	0.2286
393.1666	0.2302
393.373	0.2335
393.5794	0.2462
393.7858	0.2322
393.9922	0.2191
394.1986	0.24
394.4049	0.2211
394.6113	0.224
394.8176	0.2232
395.0239	0.2275
395.2302	0.2197
395.4365	0.2144
395.6428	0.206
395.8491	0.2065
396.0553	0.2281
396.2615	0.2259
396.4678	0.2324
396.674	0.1985
396.8802	0.2331
397.0863	0.2378
397.2925	0.2086
397.4987	0.2034
397.7048	0.2207
397.9109	0.224
398.117	0.2102
398.3231	0.2129
398.5292	0.2154
398.7353	0.227
398.9413	0.1983
399.1474	0.2027
399.3534	0.2026
399.5594	0.2041
399.7654	0.2139
399.9714	0.2166
400.1774	0.223
400.3833	0.1983
400.5893	0.2251
400.7952	0.2117
401.0011	0.2033
401.207	0.2298
401.4129	0.2079
401.6188	0.2198
401.8247	0.2295
402.0305	0.1972
402.2364	0.2008
402.4422	0.2185
402.648	0.2209
402.8538	0.226
403.0596	0.2094
403.2654	0.221
403.4711	0.2221
403.6768	0.2149
403.8826	0.2264
404.0883	0.2298
404.294	0.2246
404.4997	0.2097
404.7054	0.2215
404.911	0.1993
405.1167	0.2127
405.3223	0.2412
405.5279	0.2161
405.7335	0.2119
405.9391	0.2215
406.1447	0.2158
406.3502	0.2259
406.5558	0.1968
406.7613	0.2226
406.9668	0.1975
407.1724	0.2051
407.3778	0.2141
407.5833	0.2227
407.7888	0.2213
407.9942	0.223
408.1997	0.1972
408.4051	0.2025
408.6105	0.2063
408.8159	0.1912
409.0213	0.1852
409.2267	0.2104
409.432	0.2195
409.6374	0.2092
409.8427	0.2056
410.048	0.196
410.2533	0.2098
410.4586	0.2043
410.6639	0.1964
410.8691	0.1974
411.0744	0.2033
411.2796	0.2025
411.4848	0.2048
411.69	0.2059
411.8952	0.2391
412.1004	0.2023
412.3056	0.2086
412.5107	0.2104
412.7158	0.2032
412.921	0.2133
413.1261	0.2122
413.3312	0.1861
413.5362	0.208
413.7413	0.1918
413.9464	0.194
414.1514	0.192
414.3564	0.2064
414.5614	0.2024
414.7664	0.1924
414.9714	0.2254
415.1764	0.2254
415.3813	0.2209
415.5863	0.1865
415.7912	0.1904
415.9961	0.2054
416.201	0.2007
416.4059	0.2088
416.6108	0.2149
416.8156	0.2283
417.0205	0.2007
417.2253	0.2155
417.4301	0.2284
417.6349	0.2067
417.8397	0.2065
418.0445	0.19
418.2492	0.1965
418.454	0.2098
418.6587	0.1931
418.8634	0.207
419.0681	0.2005
419.2728	0.1701
419.4775	0.1881
419.6822	0.21
419.8868	0.1938
420.0915	0.2106
420.2961	0.1858
420.5007	0.1936
420.7053	0.1922
420.9099	0.194
421.1144	0.1776
421.319	0.1795
421.5235	0.1997
421.728	0.1927
421.9325	0.1997
422.137	0.1914
422.3415	0.1872
422.546	0.1833
422.7504	0.2004
422.9549	0.1911
423.1593	0.1869
423.3637	0.1852
423.5681	0.1756
423.7725	0.1835
423.9769	0.1746
424.1812	0.1862
424.3856	0.1792
424.5899	0.1917
424.7942	0.186
424.9985	0.1804
425.2028	0.1814
425.4071	0.1877
425.6113	0.1656
425.8156	0.1628
426.0198	0.1678
426.224	0.1481
426.4282	0.1691
426.6324	0.1666
426.8366	0.1683
427.0407	0.166
