Data from MonoPyChalIsomerACN10uM340nmA_Absorbance_14-14-19-565.txt Node
Date: Fri Jul 05 14:14:19 BST 2024
User: LASERRRRR
Spectrometer: FLMT03099
Trigger mode: 0
Integration Time (sec): 1.000000E-1
Scans to average: 1
Electric dark correction enabled: true
Nonlinearity correction enabled: false
Boxcar width: 0
XAxis mode: Wavelengths
Number of Pixels in Spectrum: 3648
>>>>>Begin Spectral Data<<<<<
179.3399	0.29
179.5586	0.29
179.7771	0.29
179.9957	0.1903
180.2143	0.3882
180.4329	-0.1644
180.6514	-0
180.8699	-0.0113
181.0885	0.6144
181.307	0.4179
181.5255	-0
181.744	-0.3192
181.9625	-0
182.181	-0.4935
182.3994	-0
182.6179	-0
182.8363	0.2681
183.0547	-0.3187
183.2732	0.0811
183.4916	0.2084
183.71	0.3076
183.9284	0.1635
184.1467	0.216
184.3651	0.3497
184.5835	0.1094
184.8018	0.8928
185.0201	0.0119
185.2385	0.1919
185.4568	0.3336
185.6751	0.1971
185.8934	0.2576
186.1117	0.1973
186.3299	0.2583
186.5482	0.4106
186.7664	0.0117
186.9847	0.0019
187.2029	0.1343
187.4211	0.1213
187.6393	-0.0286
187.8575	0.1421
188.0757	0.2235
188.2939	0.154
188.512	0.3064
188.7302	0.1398
188.9483	0.1113
189.1665	0.3838
189.3846	0.2606
189.6027	0.2216
189.8208	0.2301
190.0389	0.2255
190.257	0.4345
190.475	0.3305
190.6931	0.254
190.9111	0.2641
191.1292	0.1707
191.3472	0.3268
191.5652	0.3775
191.7832	0.3974
192.0012	1.0817
192.2192	0.4787
192.4371	0.4318
192.6551	0.561
192.873	0.5419
193.091	0.502
193.3089	0.7669
193.5268	0.6073
193.7447	0.7373
193.9626	0.4472
194.1805	0.6624
194.3984	0.7598
194.6162	0.6867
194.8341	0.6817
195.0519	0.5795
195.2697	0.8713
195.4875	0.7649
195.7054	0.6952
195.9231	0.8231
196.1409	0.7543
196.3587	0.9211
196.5765	0.6031
196.7942	0.6367
197.012	0.5604
197.2297	0.6414
197.4474	0.7348
197.6651	0.5396
197.8828	0.5799
198.1005	0.8369
198.3182	0.6755
198.5358	0.759
198.7535	0.6862
198.9711	0.5961
199.1888	0.6361
199.4064	0.7096
199.624	0.643
199.8416	0.768
200.0592	0.7623
200.2767	0.5777
200.4943	0.7057
200.7119	0.8112
200.9294	0.6954
201.1469	0.5887
201.3645	0.6531
201.582	0.5965
201.7995	0.8915
202.017	0.5763
202.2344	0.6834
202.4519	0.7516
202.6694	0.7094
202.8868	0.5915
203.1042	0.7446
203.3217	0.6475
203.5391	0.7144
203.7565	0.6814
203.9739	0.5968
204.1913	0.6432
204.4086	0.6688
204.626	0.7606
204.8433	0.7504
205.0607	0.5479
205.278	0.556
205.4953	0.6202
205.7126	0.6667
205.9299	0.6807
206.1472	0.7076
206.3644	0.6375
206.5817	0.6365
206.7989	0.708
207.0162	0.6922
207.2334	0.6091
207.4506	0.6216
207.6678	0.6918
207.885	0.6123
208.1022	0.7037
208.3194	0.7099
208.5365	0.6573
208.7537	0.615
208.9708	0.6104
209.1879	0.6472
209.405	0.6939
209.6222	0.715
209.8392	0.606
210.0563	0.6578
210.2734	0.6759
210.4905	0.6945
210.7075	0.6169
210.9245	0.6222
211.1416	0.6912
211.3586	0.6088
211.5756	0.5984
211.7926	0.6124
212.0096	0.6057
212.2265	0.5849
212.4435	0.5792
212.6604	0.5781
212.8774	0.6298
213.0943	0.6549
213.3112	0.5503
213.5281	0.5467
213.745	0.5004
213.9619	0.5182
214.1788	0.4654
214.3956	0.458
214.6125	0.465
214.8293	0.4518
215.0461	0.5069
215.2629	0.4739
215.4798	0.526
215.6965	0.4252
215.9133	0.462
216.1301	0.4218
216.3469	0.4642
216.5636	0.4133
216.7803	0.3806
216.9971	0.3671
217.2138	0.4122
217.4305	0.372
217.6472	0.3817
217.8639	0.393
218.0805	0.3668
218.2972	0.3272
218.5138	0.3278
218.7305	0.3186
218.9471	0.3225
219.1637	0.3087
219.3803	0.2993
219.5969	0.3099
219.8135	0.2718
220.0301	0.2746
220.2466	0.2668
220.4632	0.2834
220.6797	0.2386
220.8962	0.2469
221.1127	0.2604
221.3292	0.2496
221.5457	0.2508
221.7622	0.2293
221.9787	0.273
222.1951	0.2456
222.4116	0.2406
222.628	0.2568
222.8444	0.2289
223.0608	0.2475
223.2772	0.2554
223.4936	0.2737
223.71	0.2442
223.9264	0.2788
224.1427	0.257
224.3591	0.2449
224.5754	0.27
224.7917	0.2657
225.008	0.277
225.2243	0.2631
225.4406	0.3045
225.6569	0.2712
225.8732	0.2685
226.0894	0.2745
226.3057	0.2649
226.5219	0.2782
226.7381	0.2799
226.9543	0.295
227.1705	0.2914
227.3867	0.2879
227.6029	0.3043
227.8191	0.3027
228.0352	0.3099
228.2513	0.3137
228.4675	0.2953
228.6836	0.3161
228.8997	0.2892
229.1158	0.3111
229.3319	0.2993
229.548	0.3213
229.764	0.3161
229.9801	0.3331
230.1961	0.3231
230.4121	0.3412
230.6282	0.3328
230.8442	0.3212
231.0602	0.3325
231.2761	0.3428
231.4921	0.3243
231.7081	0.3666
231.924	0.3721
232.14	0.3557
232.3559	0.332
232.5718	0.374
232.7877	0.354
233.0036	0.3567
233.2195	0.3603
233.4353	0.3655
233.6512	0.3722
233.867	0.3646
234.0829	0.368
234.2987	0.3608
234.5145	0.3889
234.7303	0.3795
234.9461	0.3943
235.1619	0.3634
235.3776	0.3696
235.5934	0.3656
235.8091	0.3946
236.0249	0.3761
236.2406	0.3935
236.4563	0.3826
236.672	0.3947
236.8877	0.381
237.1034	0.3793
237.319	0.3905
237.5347	0.4039
237.7503	0.3838
237.966	0.4197
238.1816	0.3887
238.3972	0.4033
238.6128	0.3838
238.8284	0.393
239.0439	0.4114
239.2595	0.4114
239.475	0.4385
239.6906	0.4331
239.9061	0.4138
240.1216	0.4123
240.3371	0.4052
240.5526	0.388
240.7681	0.413
240.9836	0.3937
241.199	0.4162
241.4145	0.3904
241.6299	0.3839
241.8453	0.393
242.0607	0.3724
242.2761	0.3509
242.4915	0.3719
242.7069	0.3503
242.9223	0.3685
243.1376	0.3542
243.353	0.3543
243.5683	0.3441
243.7836	0.3424
243.9989	0.3231
244.2142	0.3257
244.4295	0.3133
244.6448	0.3139
244.86	0.3014
245.0753	0.2853
245.2905	0.2888
245.5057	0.2798
245.721	0.278
245.9362	0.2533
246.1514	0.2673
246.3665	0.2633
246.5817	0.2634
246.7969	0.2539
247.012	0.2323
247.2271	0.2453
247.4423	0.2539
247.6574	0.2364
247.8725	0.2334
248.0876	0.22
248.3026	0.2278
248.5177	0.2165
248.7328	0.2203
248.9478	0.1992
249.1628	0.2253
249.3779	0.2146
249.5929	0.2023
249.8079	0.2186
250.0228	0.2008
250.2378	0.2053
250.4528	0.2071
250.6677	0.1899
250.8827	0.2046
251.0976	0.1958
251.3125	0.1931
251.5274	0.1789
251.7423	0.1894
251.9572	0.1843
252.172	0.1761
252.3869	0.1893
252.6017	0.1767
252.8166	0.1762
253.0314	0.1675
253.2462	0.1693
253.461	0.1782
253.6758	0.1686
253.8906	0.183
254.1053	0.1564
254.3201	0.1749
254.5348	0.1837
254.7496	0.1818
254.9643	0.1732
255.179	0.1728
255.3937	0.1713
255.6083	0.1709
255.823	0.169
256.0377	0.1499
256.2523	0.1677
256.467	0.1423
256.6816	0.1769
256.8962	0.1658
257.1108	0.1475
257.3254	0.171
257.54	0.1521
257.7545	0.1633
257.9691	0.1763
258.1836	0.1633
258.3981	0.1695
258.6127	0.1711
258.8272	0.1584
259.0417	0.1562
259.2561	0.1509
259.4706	0.1589
259.6851	0.1616
259.8995	0.1647
260.114	0.1668
260.3284	0.1554
260.5428	0.1611
260.7572	0.1705
260.9716	0.1582
261.186	0.1502
261.4003	0.1597
261.6147	0.1641
261.829	0.1664
262.0433	0.1725
262.2577	0.1642
262.472	0.1766
262.6863	0.1687
262.9005	0.1654
263.1148	0.1656
263.3291	0.1586
263.5433	0.1586
263.7576	0.159
263.9718	0.1604
264.186	0.1564
264.4002	0.1464
264.6144	0.1636
264.8286	0.1737
265.0427	0.1648
265.2569	0.1657
265.471	0.1538
265.6851	0.1569
265.8993	0.1577
266.1134	0.1445
266.3275	0.1726
266.5415	0.1516
266.7556	0.1759
266.9697	0.1623
267.1837	0.1636
267.3978	0.1593
267.6118	0.179
267.8258	0.1705
268.0398	0.1553
268.2538	0.163
268.4677	0.1544
268.6817	0.168
268.8957	0.1596
269.1096	0.1688
269.3235	0.1636
269.5374	0.1481
269.7514	0.1401
269.9652	0.1623
270.1791	0.1627
270.393	0.1504
270.6068	0.1475
270.8207	0.1509
271.0345	0.1436
271.2483	0.149
271.4622	0.1554
271.676	0.1443
271.8897	0.1383
272.1035	0.1345
272.3173	0.134
272.531	0.1434
272.7448	0.1434
272.9585	0.1367
273.1722	0.1468
273.3859	0.146
273.5996	0.1327
273.8133	0.1527
274.0269	0.1239
274.2406	0.1429
274.4542	0.134
274.6679	0.1337
274.8815	0.1377
275.0951	0.1455
275.3087	0.1517
275.5223	0.1498
275.7358	0.1407
275.9494	0.1443
276.1629	0.1161
276.3765	0.1492
276.59	0.1456
276.8035	0.1388
277.017	0.1269
277.2305	0.1264
277.444	0.1409
277.6574	0.1396
277.8709	0.1332
278.0843	0.1347
278.2978	0.1405
278.5112	0.1426
278.7246	0.1411
278.938	0.1372
279.1513	0.1496
279.3647	0.155
279.5781	0.1393
279.7914	0.1493
280.0047	0.1463
280.2181	0.1449
280.4314	0.1513
280.6447	0.1416
280.8579	0.1471
281.0712	0.1557
281.2845	0.1501
281.4977	0.1549
281.711	0.1487
281.9242	0.1511
282.1374	0.1562
282.3506	0.158
282.5638	0.1649
282.7769	0.1494
282.9901	0.1561
283.2033	0.1613
283.4164	0.1627
283.6295	0.1478
283.8426	0.154
284.0557	0.1545
284.2688	0.1715
284.4819	0.1668
284.695	0.1567
284.908	0.1587
285.1211	0.1477
285.3341	0.1568
285.5471	0.1637
285.7601	0.1506
285.9731	0.1479
286.1861	0.1479
286.3991	0.1689
286.612	0.1644
286.825	0.1673
287.0379	0.1608
287.2508	0.1591
287.4637	0.1628
287.6766	0.1579
287.8895	0.1628
288.1024	0.175
288.3152	0.169
288.5281	0.1576
288.7409	0.164
288.9538	0.1612
289.1666	0.1598
289.3794	0.1663
289.5922	0.1609
289.8049	0.1647
290.0177	0.1603
290.2304	0.1627
290.4432	0.163
290.6559	0.1623
290.8686	0.1728
291.0813	0.1657
291.294	0.157
291.5067	0.1717
291.7194	0.1624
291.932	0.1901
292.1447	0.159
292.3573	0.1743
292.5699	0.1642
292.7825	0.173
292.9951	0.1641
293.2077	0.1647
293.4203	0.162
293.6328	0.1596
293.8454	0.1653
294.0579	0.1676
294.2704	0.1606
294.4829	0.1559
294.6954	0.1647
294.9079	0.1606
295.1204	0.1601
295.3328	0.1576
295.5453	0.1683
295.7577	0.177
295.9701	0.1639
296.1825	0.1659
296.3949	0.1611
296.6073	0.1573
296.8197	0.163
297.0321	0.1765
297.2444	0.1586
297.4567	0.1716
297.6691	0.1659
297.8814	0.1683
298.0937	0.1628
298.306	0.1741
298.5182	0.1695
298.7305	0.1691
298.9428	0.1477
299.155	0.1643
299.3672	0.1538
299.5794	0.1604
299.7916	0.1525
300.0038	0.1781
300.216	0.1749
300.4282	0.1684
300.6403	0.1651
300.8525	0.1757
301.0646	0.1595
301.2767	0.1734
301.4888	0.1551
301.7009	0.1652
301.913	0.1598
302.125	0.1678
302.3371	0.1573
302.5491	0.1571
302.7612	0.1549
302.9732	0.1689
303.1852	0.1631
303.3972	0.1566
303.6092	0.159
303.8211	0.1469
304.0331	0.1633
304.245	0.1443
304.457	0.1528
304.6689	0.1507
304.8808	0.1599
305.0927	0.1519
305.3046	0.1449
305.5164	0.1567
305.7283	0.1398
305.9401	0.1547
306.152	0.1526
306.3638	0.1574
306.5756	0.1415
306.7874	0.1564
306.9992	0.1513
307.2109	0.1501
307.4227	0.1327
307.6344	0.1417
307.8462	0.1358
308.0579	0.1299
308.2696	0.1319
308.4813	0.1309
308.693	0.1371
308.9046	0.1326
309.1163	0.1311
309.328	0.1306
309.5396	0.1155
309.7512	0.1266
309.9628	0.1148
310.1744	0.1253
310.386	0.1186
310.5976	0.1264
310.8091	0.1171
311.0207	0.1045
311.2322	0.1201
311.4437	0.1085
311.6552	0.1113
311.8667	0.1115
312.0782	0.0924
312.2897	0.1082
312.5012	0.1076
312.7126	0.093
312.924	0.0988
313.1355	0.1022
313.3469	0.1091
313.5583	0.111
313.7696	0.1055
313.981	0.106
314.1924	0.101
314.4037	0.1001
314.6151	0.0968
314.8264	0.1016
315.0377	0.1043
315.249	0.1001
315.4603	0.0964
315.6716	0.0977
315.8828	0.099
316.0941	0.1033
316.3053	0.0943
316.5165	0.0972
316.7277	0.0977
316.9389	0.0957
317.1501	0.0954
317.3613	0.0941
317.5724	0.0871
317.7836	0.1054
317.9947	0.0892
318.2058	0.082
318.417	0.0882
318.6281	0.0878
318.8391	0.1007
319.0502	0.0933
319.2613	0.0995
319.4723	0.1051
319.6834	0.1109
319.8944	0.0912
320.1054	0.0921
320.3164	0.093
320.5274	0.084
320.7383	0.0905
320.9493	0.0918
321.1602	0.0914
321.3712	0.0844
321.5821	0.0906
321.793	0.0974
322.0039	0.1006
322.2148	0.089
322.4257	0.103
322.6365	0.1022
322.8474	0.0946
323.0582	0.094
323.269	0.1008
323.4798	0.0952
323.6906	0.0909
323.9014	0.0988
324.1122	0.1056
324.3229	0.0904
324.5337	0.1038
324.7444	0.1006
324.9551	0.1074
325.1658	0.096
325.3765	0.1047
325.5872	0.0968
325.7979	0.0953
326.0085	0.097
326.2192	0.1071
326.4298	0.1003
326.6404	0.0895
326.851	0.1003
327.0616	0.0982
327.2722	0.1017
327.4828	0.1143
327.6933	0.1032
327.9039	0.1076
328.1144	0.1087
328.3249	0.114
328.5354	0.0939
328.7459	0.0941
328.9564	0.1001
329.1669	0.1003
329.3773	0.1099
329.5878	0.1107
329.7982	0.0922
330.0086	0.105
330.219	0.0966
330.4294	0.0909
330.6398	0.0973
330.8502	0.0898
331.0605	0.1125
331.2708	0.0936
331.4812	0.1094
331.6915	0.1073
331.9018	0.1041
332.1121	0.0896
332.3224	0.1056
332.5326	0.1119
332.7429	0.1012
332.9531	0.111
333.1633	0.1078
333.3735	0.095
333.5837	0.1081
333.7939	0.1026
334.0041	0.1098
334.2143	0.103
334.4244	0.1062
334.6346	0.0922
334.8447	0.122
335.0548	0.1026
335.2649	0.0942
335.475	0.112
335.685	0.0971
335.8951	0.1277
336.1051	0.1147
336.3152	0.114
336.5252	0.1035
336.7352	0.1127
336.9452	0.1079
337.1552	0.1054
337.3652	0.1052
337.5751	0.1002
337.7851	0.1214
337.995	0.0996
338.2049	0.1169
338.4148	0.1113
338.6247	0.1196
338.8346	0.098
339.0445	0.1123
339.2543	0.1032
339.4642	0.1055
339.674	0.1087
339.8838	0.115
340.0936	0.0999
340.3034	0.1114
340.5132	0.1122
340.7229	0.1233
340.9327	0.1092
341.1424	0.1085
341.3522	0.1327
341.5619	0.1159
341.7716	0.1175
341.9813	0.1141
342.1909	0.1261
342.4006	0.1254
342.6102	0.1193
342.8199	0.1199
343.0295	0.1236
343.2391	0.1274
343.4487	0.1299
343.6583	0.1257
343.8679	0.1185
344.0774	0.1351
344.287	0.1252
344.4965	0.1246
344.706	0.1258
344.9155	0.1215
345.125	0.1124
345.3345	0.1327
345.544	0.1117
345.7534	0.1276
345.9629	0.1277
346.1723	0.1285
346.3817	0.1224
346.5911	0.1202
346.8005	0.123
347.0099	0.1199
347.2193	0.1191
347.4286	0.1353
347.638	0.1368
347.8473	0.1377
348.0566	0.1395
348.2659	0.1379
348.4752	0.1354
348.6845	0.1269
348.8937	0.1323
349.103	0.1442
349.3122	0.1225
349.5214	0.1333
349.7306	0.1527
349.9398	0.1352
350.149	0.1329
350.3582	0.1386
350.5674	0.1434
350.7765	0.1315
350.9856	0.1304
351.1948	0.1332
351.4039	0.1307
351.613	0.1406
351.822	0.1427
352.0311	0.1472
352.2402	0.1401
352.4492	0.1449
352.6582	0.1554
352.8672	0.1271
353.0762	0.1425
353.2852	0.139
353.4942	0.1449
353.7032	0.1486
353.9121	0.1497
354.1211	0.1493
354.33	0.1592
354.5389	0.144
354.7478	0.1565
354.9567	0.145
355.1655	0.1379
355.3744	0.152
355.5833	0.1715
355.7921	0.1709
356.0009	0.1452
356.2097	0.1698
356.4185	0.1671
356.6273	0.1647
356.8361	0.1645
357.0448	0.154
357.2536	0.1489
357.4623	0.1502
357.671	0.1661
357.8797	0.1614
358.0884	0.1728
358.2971	0.1463
358.5057	0.1611
358.7144	0.1698
358.923	0.1571
359.1316	0.1653
359.3402	0.1768
359.5488	0.1739
359.7574	0.1659
359.966	0.1693
360.1746	0.1825
360.3831	0.1683
360.5916	0.1654
360.8002	0.1633
361.0087	0.1781
361.2172	0.167
361.4256	0.1766
361.6341	0.1933
361.8426	0.1755
362.051	0.1861
362.2594	0.1716
362.4678	0.1774
362.6762	0.1971
362.8846	0.1749
363.093	0.1839
363.3014	0.1899
363.5097	0.1676
363.718	0.1928
363.9264	0.1782
364.1347	0.1733
364.343	0.1985
364.5513	0.1882
364.7595	0.2098
364.9678	0.2043
365.176	0.1818
365.3842	0.1955
365.5925	0.1965
365.8007	0.2055
366.0089	0.1913
366.217	0.1943
366.4252	0.1998
366.6333	0.2135
366.8415	0.2096
367.0496	0.1998
367.2577	0.21
367.4658	0.2213
367.6739	0.2066
367.882	0.2139
368.09	0.2083
368.2981	0.2017
368.5061	0.1994
368.7141	0.2184
368.9221	0.2093
369.1301	0.2147
369.3381	0.2178
369.5461	0.2104
369.754	0.2076
369.962	0.2184
370.1699	0.2068
370.3778	0.2289
370.5857	0.2211
370.7936	0.2193
371.0015	0.2219
371.2093	0.2302
371.4172	0.2306
371.625	0.2132
371.8328	0.2131
372.0406	0.2214
372.2484	0.2115
372.4562	0.2254
372.664	0.233
372.8717	0.2419
373.0795	0.2091
373.2872	0.2297
373.4949	0.2274
373.7026	0.2237
373.9103	0.2275
374.118	0.2317
374.3256	0.2411
374.5333	0.2445
374.7409	0.2311
374.9485	0.251
375.1561	0.2304
375.3637	0.2461
375.5713	0.2302
375.7789	0.2456
375.9864	0.2398
376.194	0.2319
376.4015	0.2441
376.609	0.2627
376.8165	0.2441
377.024	0.2502
377.2315	0.2369
377.4389	0.2363
377.6464	0.2485
377.8538	0.2554
378.0612	0.237
378.2686	0.2611
378.476	0.2569
378.6834	0.2351
378.8908	0.2519
379.0981	0.2537
379.3055	0.2434
379.5128	0.2475
379.7201	0.268
379.9274	0.2338
380.1347	0.2501
380.342	0.2564
380.5492	0.2443
380.7565	0.2585
380.9637	0.254
381.1709	0.2551
381.3781	0.2524
381.5853	0.26
381.7925	0.2461
381.9997	0.2752
382.2068	0.2719
382.4139	0.2555
382.6211	0.2559
382.8282	0.252
383.0353	0.2489
383.2424	0.2659
383.4494	0.2609
383.6565	0.2495
383.8635	0.2514
384.0706	0.2599
384.2776	0.2627
384.4846	0.2377
384.6916	0.2791
384.8986	0.2529
385.1055	0.2598
385.3125	0.2606
385.5194	0.245
385.7263	0.2824
385.9333	0.259
386.1402	0.247
386.347	0.2649
386.5539	0.257
386.7608	0.2664
386.9676	0.2343
387.1744	0.2635
387.3813	0.2527
387.5881	0.2616
387.7948	0.2599
388.0016	0.2539
388.2084	0.2668
388.4151	0.2552
388.6219	0.2574
388.8286	0.2559
389.0353	0.2756
389.242	0.2602
389.4487	0.2528
389.6553	0.2355
389.862	0.2445
390.0686	0.2415
390.2753	0.2528
390.4819	0.2612
390.6885	0.2595
390.8951	0.2452
391.1016	0.2485
391.3082	0.2475
391.5147	0.2518
391.7213	0.2385
391.9278	0.2441
392.1343	0.2422
392.3408	0.2533
392.5473	0.2438
392.7537	0.2347
392.9602	0.2278
393.1666	0.2326
393.373	0.2404
393.5794	0.2532
393.7858	0.2364
393.9922	0.2165
394.1986	0.2429
394.4049	0.2398
394.6113	0.2429
394.8176	0.226
395.0239	0.2367
395.2302	0.2204
395.4365	0.225
395.6428	0.2251
395.8491	0.2369
396.0553	0.2313
396.2615	0.2282
396.4678	0.2267
396.674	0.213
396.8802	0.227
397.0863	0.2418
397.2925	0.2172
397.4987	0.2202
397.7048	0.2295
397.9109	0.2297
398.117	0.2085
398.3231	0.22
398.5292	0.2307
398.7353	0.2149
398.9413	0.2218
399.1474	0.2271
399.3534	0.2191
399.5594	0.1985
399.7654	0.2368
399.9714	0.2291
400.1774	0.2006
400.3833	0.2107
400.5893	0.2206
400.7952	0.2318
401.0011	0.207
401.207	0.2271
401.4129	0.2225
401.6188	0.242
401.8247	0.2165
402.0305	0.224
402.2364	0.2346
402.4422	0.226
402.648	0.23
402.8538	0.2155
403.0596	0.2132
403.2654	0.2233
403.4711	0.2184
403.6768	0.216
403.8826	0.2309
404.0883	0.2196
404.294	0.2198
404.4997	0.2281
404.7054	0.2221
404.911	0.2059
405.1167	0.2076
405.3223	0.2179
405.5279	0.2237
405.7335	0.2301
405.9391	0.2324
406.1447	0.2179
406.3502	0.2472
406.5558	0.2143
406.7613	0.2262
406.9668	0.2261
407.1724	0.2067
407.3778	0.2143
407.5833	0.1979
407.7888	0.2096
407.9942	0.2443
408.1997	0.2063
408.4051	0.2193
408.6105	0.2152
408.8159	0.2009
409.0213	0.2053
409.2267	0.2284
409.432	0.2182
409.6374	0.2344
409.8427	0.2151
410.048	0.2194
410.2533	0.2236
410.4586	0.2131
410.6639	0.204
410.8691	0.2112
411.0744	0.2114
411.2796	0.2072
411.4848	0.2059
411.69	0.2131
411.8952	0.2197
412.1004	0.2127
412.3056	0.223
412.5107	0.225
412.7158	0.2191
412.921	0.2142
413.1261	0.21
413.3312	0.2112
413.5362	0.2065
413.7413	0.208
413.9464	0.2138
414.1514	0.2135
414.3564	0.2148
414.5614	0.2004
414.7664	0.2121
414.9714	0.2173
415.1764	0.2014
415.3813	0.2261
415.5863	0.2198
415.7912	0.2159
415.9961	0.2226
416.201	0.2255
416.4059	0.2049
416.6108	0.2024
416.8156	0.22
417.0205	0.2039
417.2253	0.2077
417.4301	0.2152
417.6349	0.2029
417.8397	0.2008
418.0445	0.2095
418.2492	0.2194
418.454	0.2065
418.6587	0.2235
418.8634	0.2105
419.0681	0.1958
419.2728	0.1957
419.4775	0.1944
419.6822	0.1994
419.8868	0.1721
420.0915	0.1952
420.2961	0.1961
420.5007	0.1913
420.7053	0.2011
420.9099	0.1965
421.1144	0.1929
421.319	0.1909
421.5235	0.2102
421.728	0.2082
421.9325	0.1979
422.137	0.2037
422.3415	0.206
422.546	0.1984
422.7504	0.1933
422.9549	0.1947
423.1593	0.1924
423.3637	0.1865
423.5681	0.1973
423.7725	0.1766
423.9769	0.1869
424.1812	0.181
424.3856	0.171
424.5899	0.18
424.7942	0.1762
424.9985	0.1712
425.2028	0.1628
425.4071	0.1916
425.6113	0.1641
425.8156	0.1757
426.0198	0.1768
426.224	0.1743
426.4282	0.1807
426.6324	0.1713
426.8366	0.1673
