Data from MonoPyChalIsomerACN10uM340nmA_Absorbance_14-14-17-565.txt Node
Date: Fri Jul 05 14:14:17 BST 2024
User: LASERRRRR
Spectrometer: FLMT03099
Trigger mode: 0
Integration Time (sec): 1.000000E-1
Scans to average: 1
Electric dark correction enabled: true
Nonlinearity correction enabled: false
Boxcar width: 0
XAxis mode: Wavelengths
Number of Pixels in Spectrum: 3648
>>>>>Begin Spectral Data<<<<<
179.3399	-0.2213
179.5586	-0.2213
179.7771	-0.2213
179.9957	0.1323
180.2143	-0
180.4329	-0.3067
180.6514	0.2421
180.8699	-0
181.0885	-0.1051
181.307	0.2621
181.5255	-0
181.744	-0.8186
181.9625	-0
182.181	-0
182.3994	0.8789
182.6179	13.8531
182.8363	1.0522
183.0547	0.1032
183.2732	-0.019
183.4916	-0.0292
183.71	0.0637
183.9284	0.0007
184.1467	-0.055
184.3651	0.3801
184.5835	-0.0662
184.8018	0.0689
185.0201	0.1177
185.2385	0.206
185.4568	0.4331
185.6751	1.1771
185.8934	0.0688
186.1117	0.092
186.3299	0.1124
186.5482	0.0954
186.7664	0.0056
186.9847	0.2226
187.2029	0.1467
187.4211	0.0438
187.6393	-0.0347
187.8575	-0.0548
188.0757	0.1943
188.2939	0.2143
188.512	0.0903
188.7302	-0.0106
188.9483	0.3151
189.1665	0.1316
189.3846	0.2114
189.6027	0.1925
189.8208	0.3129
190.0389	0.1737
190.257	0.1395
190.475	0.229
190.6931	0.1832
190.9111	0.3637
191.1292	0.1738
191.3472	0.4451
191.5652	0.3223
191.7832	0.2153
192.0012	0.4606
192.2192	0.3974
192.4371	0.4355
192.6551	0.2772
192.873	0.5207
193.091	0.4897
193.3089	0.6644
193.5268	0.8275
193.7447	0.555
193.9626	0.4196
194.1805	0.7321
194.3984	0.6237
194.6162	0.4709
194.8341	0.4619
195.0519	0.4451
195.2697	0.6286
195.4875	0.6434
195.7054	0.6044
195.9231	0.5822
196.1409	0.526
196.3587	0.6222
196.5765	0.48
196.7942	0.5712
197.012	0.5799
197.2297	0.6623
197.4474	0.8931
197.6651	0.5614
197.8828	0.4788
198.1005	0.5102
198.3182	0.6292
198.5358	0.6627
198.7535	0.6632
198.9711	0.5308
199.1888	0.6353
199.4064	0.7856
199.624	0.5671
199.8416	0.5435
200.0592	0.6849
200.2767	0.6844
200.4943	0.6858
200.7119	0.6611
200.9294	0.7142
201.1469	0.6257
201.3645	0.5941
201.582	0.4642
201.7995	0.4872
202.017	0.6157
202.2344	0.5462
202.4519	0.6668
202.6694	0.6795
202.8868	0.5665
203.1042	0.6831
203.3217	0.7235
203.5391	0.708
203.7565	0.5416
203.9739	0.6182
204.1913	0.5504
204.4086	0.7148
204.626	0.6907
204.8433	0.6152
205.0607	0.597
205.278	0.6632
205.4953	0.6726
205.7126	0.6127
205.9299	0.6243
206.1472	0.6842
206.3644	0.6724
206.5817	0.6529
206.7989	0.7826
207.0162	0.7113
207.2334	0.7069
207.4506	0.6276
207.6678	0.6408
207.885	0.6392
208.1022	0.633
208.3194	0.6363
208.5365	0.607
208.7537	0.6219
208.9708	0.5977
209.1879	0.5943
209.405	0.6769
209.6222	0.6848
209.8392	0.6775
210.0563	0.6028
210.2734	0.6659
210.4905	0.6021
210.7075	0.5769
210.9245	0.6506
211.1416	0.686
211.3586	0.6059
211.5756	0.5849
211.7926	0.6614
212.0096	0.5618
212.2265	0.558
212.4435	0.6113
212.6604	0.579
212.8774	0.5808
213.0943	0.601
213.3112	0.5832
213.5281	0.5227
213.745	0.4993
213.9619	0.4978
214.1788	0.4481
214.3956	0.4129
214.6125	0.4304
214.8293	0.4494
215.0461	0.462
215.2629	0.4482
215.4798	0.4544
215.6965	0.4474
215.9133	0.4156
216.1301	0.389
216.3469	0.4226
216.5636	0.4054
216.7803	0.377
216.9971	0.3786
217.2138	0.372
217.4305	0.3768
217.6472	0.3487
217.8639	0.3734
218.0805	0.3365
218.2972	0.3202
218.5138	0.312
218.7305	0.3154
218.9471	0.3139
219.1637	0.2989
219.3803	0.2883
219.5969	0.287
219.8135	0.2495
220.0301	0.2573
220.2466	0.2727
220.4632	0.2712
220.6797	0.2256
220.8962	0.2664
221.1127	0.2699
221.3292	0.2478
221.5457	0.2355
221.7622	0.2489
221.9787	0.2356
222.1951	0.242
222.4116	0.2562
222.628	0.2574
222.8444	0.2588
223.0608	0.2483
223.2772	0.2663
223.4936	0.2564
223.71	0.2632
223.9264	0.2691
224.1427	0.2628
224.3591	0.2564
224.5754	0.2618
224.7917	0.2814
225.008	0.2646
225.2243	0.2508
225.4406	0.2946
225.6569	0.258
225.8732	0.2636
226.0894	0.2759
226.3057	0.2537
226.5219	0.2846
226.7381	0.2578
226.9543	0.2735
227.1705	0.3086
227.3867	0.2869
227.6029	0.2899
227.8191	0.3227
228.0352	0.2927
228.2513	0.3109
228.4675	0.3343
228.6836	0.3026
228.8997	0.2985
229.1158	0.3162
229.3319	0.3182
229.548	0.3105
229.764	0.3462
229.9801	0.3217
230.1961	0.306
230.4121	0.3313
230.6282	0.3385
230.8442	0.3197
231.0602	0.3726
231.2761	0.3626
231.4921	0.346
231.7081	0.3605
231.924	0.3496
232.14	0.3437
232.3559	0.3352
232.5718	0.3645
232.7877	0.3747
233.0036	0.3518
233.2195	0.3567
233.4353	0.3569
233.6512	0.3401
233.867	0.3702
234.0829	0.3565
234.2987	0.3668
234.5145	0.3558
234.7303	0.3767
234.9461	0.4081
235.1619	0.3821
235.3776	0.3627
235.5934	0.408
235.8091	0.3906
236.0249	0.3814
236.2406	0.3924
236.4563	0.3825
236.672	0.3812
236.8877	0.392
237.1034	0.3891
237.319	0.3976
237.5347	0.403
237.7503	0.3826
237.966	0.3983
238.1816	0.3894
238.3972	0.4017
238.6128	0.405
238.8284	0.4259
239.0439	0.417
239.2595	0.3994
239.475	0.4221
239.6906	0.422
239.9061	0.3972
240.1216	0.4107
240.3371	0.4141
240.5526	0.3997
240.7681	0.3967
240.9836	0.3924
241.199	0.4026
241.4145	0.3904
241.6299	0.3759
241.8453	0.3771
242.0607	0.3778
242.2761	0.3782
242.4915	0.3669
242.7069	0.3614
242.9223	0.3478
243.1376	0.3418
243.353	0.3427
243.5683	0.3296
243.7836	0.3186
243.9989	0.3351
244.2142	0.2969
244.4295	0.3154
244.6448	0.306
244.86	0.286
245.0753	0.2879
245.2905	0.2927
245.5057	0.2633
245.721	0.2774
245.9362	0.2674
246.1514	0.2697
246.3665	0.2624
246.5817	0.2494
246.7969	0.2527
247.012	0.2305
247.2271	0.2308
247.4423	0.2465
247.6574	0.2401
247.8725	0.2269
248.0876	0.2264
248.3026	0.229
248.5177	0.2115
248.7328	0.2134
248.9478	0.1922
249.1628	0.2066
249.3779	0.2104
249.5929	0.2006
249.8079	0.2072
250.0228	0.2028
250.2378	0.1853
250.4528	0.2043
250.6677	0.1806
250.8827	0.194
251.0976	0.1998
251.3125	0.1906
251.5274	0.181
251.7423	0.1842
251.9572	0.1789
252.172	0.1768
252.3869	0.1772
252.6017	0.1734
252.8166	0.1724
253.0314	0.1659
253.2462	0.1629
253.461	0.1702
253.6758	0.1734
253.8906	0.1718
254.1053	0.1682
254.3201	0.1787
254.5348	0.1813
254.7496	0.1732
254.9643	0.1692
255.179	0.1733
255.3937	0.1584
255.6083	0.1788
255.823	0.1766
256.0377	0.1611
256.2523	0.1586
256.467	0.1614
256.6816	0.1687
256.8962	0.168
257.1108	0.1622
257.3254	0.1729
257.54	0.1661
257.7545	0.1553
257.9691	0.172
258.1836	0.1667
258.3981	0.1745
258.6127	0.1824
258.8272	0.1626
259.0417	0.1533
259.2561	0.1577
259.4706	0.1687
259.6851	0.1624
259.8995	0.1579
260.114	0.1567
260.3284	0.1619
260.5428	0.1515
260.7572	0.1597
260.9716	0.1695
261.186	0.1603
261.4003	0.1514
261.6147	0.1652
261.829	0.1756
262.0433	0.1595
262.2577	0.1574
262.472	0.1631
262.6863	0.1564
262.9005	0.1642
263.1148	0.163
263.3291	0.1409
263.5433	0.1596
263.7576	0.1682
263.9718	0.1629
264.186	0.1674
264.4002	0.1538
264.6144	0.167
264.8286	0.1631
265.0427	0.1492
265.2569	0.1557
265.471	0.148
265.6851	0.1476
265.8993	0.1614
266.1134	0.1537
266.3275	0.1481
266.5415	0.1499
266.7556	0.1578
266.9697	0.1663
267.1837	0.1554
267.3978	0.1528
267.6118	0.1741
267.8258	0.1774
268.0398	0.1477
268.2538	0.1605
268.4677	0.1632
268.6817	0.1494
268.8957	0.1586
269.1096	0.1524
269.3235	0.1622
269.5374	0.1514
269.7514	0.1511
269.9652	0.1399
270.1791	0.1451
270.393	0.1366
270.6068	0.1531
270.8207	0.142
271.0345	0.1472
271.2483	0.1546
271.4622	0.1389
271.676	0.1521
271.8897	0.135
272.1035	0.1361
272.3173	0.1461
272.531	0.144
272.7448	0.1363
272.9585	0.1311
273.1722	0.144
273.3859	0.139
273.5996	0.1159
273.8133	0.1416
274.0269	0.1286
274.2406	0.1299
274.4542	0.1236
274.6679	0.134
274.8815	0.1378
275.0951	0.1396
275.3087	0.1481
275.5223	0.1504
275.7358	0.1504
275.9494	0.1367
276.1629	0.1362
276.3765	0.1284
276.59	0.1379
276.8035	0.1457
277.017	0.1304
277.2305	0.1337
277.444	0.1517
277.6574	0.132
277.8709	0.1392
278.0843	0.1216
278.2978	0.1321
278.5112	0.135
278.7246	0.1374
278.938	0.1403
279.1513	0.141
279.3647	0.1552
279.5781	0.1327
279.7914	0.1453
280.0047	0.1529
280.2181	0.1346
280.4314	0.1503
280.6447	0.141
280.8579	0.1406
281.0712	0.1558
281.2845	0.1486
281.4977	0.1412
281.711	0.1414
281.9242	0.1449
282.1374	0.1504
282.3506	0.1495
282.5638	0.1711
282.7769	0.1412
282.9901	0.1429
283.2033	0.1545
283.4164	0.163
283.6295	0.1412
283.8426	0.1431
284.0557	0.1536
284.2688	0.1616
284.4819	0.154
284.695	0.1425
284.908	0.1544
285.1211	0.1516
285.3341	0.1475
285.5471	0.1653
285.7601	0.157
285.9731	0.1402
286.1861	0.139
286.3991	0.1638
286.612	0.1581
286.825	0.1505
287.0379	0.1578
287.2508	0.161
287.4637	0.1628
287.6766	0.1581
287.8895	0.1628
288.1024	0.1739
288.3152	0.1532
288.5281	0.1558
288.7409	0.172
288.9538	0.1552
289.1666	0.1607
289.3794	0.1599
289.5922	0.1625
289.8049	0.1629
290.0177	0.151
290.2304	0.1582
290.4432	0.1658
290.6559	0.1662
290.8686	0.1651
291.0813	0.1607
291.294	0.1608
291.5067	0.177
291.7194	0.1631
291.932	0.1821
292.1447	0.1608
292.3573	0.164
292.5699	0.168
292.7825	0.1757
292.9951	0.1608
293.2077	0.1747
293.4203	0.1673
293.6328	0.1638
293.8454	0.1781
294.0579	0.1661
294.2704	0.1644
294.4829	0.1521
294.6954	0.168
294.9079	0.1672
295.1204	0.1788
295.3328	0.1752
295.5453	0.1635
295.7577	0.1732
295.9701	0.1527
296.1825	0.1657
296.3949	0.1508
296.6073	0.1577
296.8197	0.1616
297.0321	0.1817
297.2444	0.1613
297.4567	0.1679
297.6691	0.1675
297.8814	0.165
298.0937	0.1539
298.306	0.1729
298.5182	0.1719
298.7305	0.1692
298.9428	0.1655
299.155	0.1618
299.3672	0.173
299.5794	0.1606
299.7916	0.1578
300.0038	0.1687
300.216	0.1795
300.4282	0.1711
300.6403	0.1577
300.8525	0.1591
301.0646	0.1534
301.2767	0.1655
301.4888	0.1619
301.7009	0.1692
301.913	0.1516
302.125	0.1615
302.3371	0.1667
302.5491	0.1691
302.7612	0.1768
302.9732	0.1609
303.1852	0.1701
303.3972	0.1725
303.6092	0.1672
303.8211	0.1481
304.0331	0.1501
304.245	0.1518
304.457	0.1548
304.6689	0.1591
304.8808	0.1669
305.0927	0.1536
305.3046	0.1481
305.5164	0.1555
305.7283	0.1425
305.9401	0.1457
306.152	0.1582
306.3638	0.1532
306.5756	0.1415
306.7874	0.1432
306.9992	0.1573
307.2109	0.1504
307.4227	0.1367
307.6344	0.1462
307.8462	0.1379
308.0579	0.1308
308.2696	0.1183
308.4813	0.137
308.693	0.1281
308.9046	0.1336
309.1163	0.1321
309.328	0.1158
309.5396	0.1244
309.7512	0.128
309.9628	0.1113
310.1744	0.117
310.386	0.1166
310.5976	0.1183
310.8091	0.1233
311.0207	0.1204
311.2322	0.125
311.4437	0.1076
311.6552	0.1057
311.8667	0.1215
312.0782	0.1048
312.2897	0.095
312.5012	0.1077
312.7126	0.1081
312.924	0.1034
313.1355	0.1114
313.3469	0.0997
313.5583	0.1008
313.7696	0.1089
313.981	0.0993
314.1924	0.1062
314.4037	0.0924
314.6151	0.1026
314.8264	0.0928
315.0377	0.0936
315.249	0.0971
315.4603	0.1162
315.6716	0.0975
315.8828	0.0867
316.0941	0.0942
316.3053	0.082
316.5165	0.0902
316.7277	0.0927
316.9389	0.0969
317.1501	0.0808
317.3613	0.0979
317.5724	0.0806
317.7836	0.0944
317.9947	0.0941
318.2058	0.0907
318.417	0.0865
318.6281	0.0889
318.8391	0.0947
319.0502	0.0794
319.2613	0.0838
319.4723	0.0951
319.6834	0.1031
319.8944	0.0881
320.1054	0.0902
320.3164	0.0909
320.5274	0.0865
320.7383	0.0938
320.9493	0.0921
321.1602	0.0924
321.3712	0.0949
321.5821	0.081
321.793	0.0983
322.0039	0.1047
322.2148	0.0875
322.4257	0.0942
322.6365	0.1029
322.8474	0.1104
323.0582	0.0908
323.269	0.0926
323.4798	0.1004
323.6906	0.0994
323.9014	0.0991
324.1122	0.0931
324.3229	0.0885
324.5337	0.0941
324.7444	0.0923
324.9551	0.1091
325.1658	0.0899
325.3765	0.0985
325.5872	0.0902
325.7979	0.0962
326.0085	0.0972
326.2192	0.1033
326.4298	0.1049
326.6404	0.0804
326.851	0.0934
327.0616	0.0961
327.2722	0.0963
327.4828	0.0944
327.6933	0.0862
327.9039	0.1046
328.1144	0.1038
328.3249	0.107
328.5354	0.0921
328.7459	0.1045
328.9564	0.0881
329.1669	0.1039
329.3773	0.0965
329.5878	0.1069
329.7982	0.0987
330.0086	0.0985
330.219	0.099
330.4294	0.0926
330.6398	0.0961
330.8502	0.1027
331.0605	0.0965
331.2708	0.0952
331.4812	0.1081
331.6915	0.0994
331.9018	0.0909
332.1121	0.1066
332.3224	0.0977
332.5326	0.1016
332.7429	0.098
332.9531	0.1093
333.1633	0.1058
333.3735	0.0989
333.5837	0.0994
333.7939	0.0968
334.0041	0.1094
334.2143	0.1034
334.4244	0.0981
334.6346	0.0873
334.8447	0.1091
335.0548	0.0974
335.2649	0.0921
335.475	0.1169
335.685	0.1012
335.8951	0.1037
336.1051	0.1021
336.3152	0.1074
336.5252	0.0957
336.7352	0.1227
336.9452	0.1068
337.1552	0.0952
337.3652	0.103
337.5751	0.1046
337.7851	0.0976
337.995	0.0974
338.2049	0.1111
338.4148	0.1056
338.6247	0.1106
338.8346	0.0912
339.0445	0.1101
339.2543	0.1003
339.4642	0.1015
339.674	0.0936
339.8838	0.1025
340.0936	0.1104
340.3034	0.1008
340.5132	0.1065
340.7229	0.118
340.9327	0.1107
341.1424	0.104
341.3522	0.1223
341.5619	0.1207
341.7716	0.1098
341.9813	0.1188
342.1909	0.1068
342.4006	0.1118
342.6102	0.1311
342.8199	0.1075
343.0295	0.1355
343.2391	0.1185
343.4487	0.1162
343.6583	0.1042
343.8679	0.1149
344.0774	0.1174
344.287	0.1213
344.4965	0.1147
344.706	0.1086
344.9155	0.1266
345.125	0.1155
345.3345	0.1178
345.544	0.1158
345.7534	0.126
345.9629	0.1215
346.1723	0.1211
346.3817	0.1154
346.5911	0.1148
346.8005	0.1243
347.0099	0.1192
347.2193	0.1415
347.4286	0.1223
347.638	0.1306
347.8473	0.1308
348.0566	0.1383
348.2659	0.1259
348.4752	0.1229
348.6845	0.1215
348.8937	0.1319
349.103	0.1291
349.3122	0.114
349.5214	0.1225
349.7306	0.1356
349.9398	0.1215
350.149	0.1476
350.3582	0.1304
350.5674	0.1426
350.7765	0.1406
350.9856	0.1359
351.1948	0.1402
351.4039	0.1309
351.613	0.1303
351.822	0.1343
352.0311	0.1478
352.2402	0.1324
352.4492	0.1345
352.6582	0.1418
352.8672	0.1334
353.0762	0.1438
353.2852	0.1386
353.4942	0.1381
353.7032	0.1457
353.9121	0.1409
354.1211	0.1547
354.33	0.1503
354.5389	0.1547
354.7478	0.1442
354.9567	0.1472
355.1655	0.1331
355.3744	0.1477
355.5833	0.1522
355.7921	0.1611
356.0009	0.1537
356.2097	0.161
356.4185	0.1616
356.6273	0.162
356.8361	0.1686
357.0448	0.1424
357.2536	0.1461
357.4623	0.1485
357.671	0.1662
357.8797	0.1593
358.0884	0.1617
358.2971	0.1524
358.5057	0.1607
358.7144	0.1791
358.923	0.1613
359.1316	0.1596
359.3402	0.1715
359.5488	0.1703
359.7574	0.1616
359.966	0.1726
360.1746	0.1632
360.3831	0.1727
360.5916	0.1665
360.8002	0.1733
361.0087	0.183
361.2172	0.1774
361.4256	0.1731
361.6341	0.1858
361.8426	0.1631
362.051	0.173
362.2594	0.1888
362.4678	0.1796
362.6762	0.1987
362.8846	0.1912
363.093	0.178
363.3014	0.1884
363.5097	0.1673
363.718	0.1865
363.9264	0.1856
364.1347	0.1896
364.343	0.1848
364.5513	0.2053
364.7595	0.1923
364.9678	0.1991
365.176	0.1957
365.3842	0.1926
365.5925	0.206
365.8007	0.2037
366.0089	0.1962
366.217	0.191
366.4252	0.2022
366.6333	0.2202
366.8415	0.1999
367.0496	0.1957
367.2577	0.2263
367.4658	0.21
367.6739	0.219
367.882	0.2156
368.09	0.202
368.2981	0.2046
368.5061	0.2094
368.7141	0.2322
368.9221	0.2148
369.1301	0.2105
369.3381	0.1996
369.5461	0.2203
369.754	0.2136
369.962	0.2226
370.1699	0.2158
370.3778	0.2234
370.5857	0.2062
370.7936	0.2228
371.0015	0.2239
371.2093	0.2234
371.4172	0.2435
371.625	0.2158
371.8328	0.2187
372.0406	0.2226
372.2484	0.2339
372.4562	0.2231
372.664	0.2179
372.8717	0.2149
373.0795	0.2099
373.2872	0.2326
373.4949	0.2267
373.7026	0.2358
373.9103	0.234
374.118	0.2451
374.3256	0.2349
374.5333	0.2421
374.7409	0.2364
374.9485	0.2398
375.1561	0.2432
375.3637	0.252
375.5713	0.2505
375.7789	0.2486
375.9864	0.2377
376.194	0.2282
376.4015	0.2474
376.609	0.2608
376.8165	0.2419
377.024	0.2462
377.2315	0.2409
377.4389	0.2406
377.6464	0.2558
377.8538	0.2407
378.0612	0.2413
378.2686	0.2566
378.476	0.2612
378.6834	0.2593
378.8908	0.2552
379.0981	0.2555
379.3055	0.2635
379.5128	0.23
379.7201	0.2673
379.9274	0.2642
380.1347	0.2689
380.342	0.2796
380.5492	0.2523
380.7565	0.2434
380.9637	0.2635
381.1709	0.2458
381.3781	0.2623
381.5853	0.2686
381.7925	0.2653
381.9997	0.2854
382.2068	0.2716
382.4139	0.2659
382.6211	0.2563
382.8282	0.2645
383.0353	0.2664
383.2424	0.2703
383.4494	0.2668
383.6565	0.2814
383.8635	0.2615
384.0706	0.2567
384.2776	0.2584
384.4846	0.2686
384.6916	0.282
384.8986	0.256
385.1055	0.2806
385.3125	0.289
385.5194	0.2431
385.7263	0.2892
385.9333	0.2555
386.1402	0.2582
386.347	0.2527
386.5539	0.2586
386.7608	0.2738
386.9676	0.2641
387.1744	0.2595
387.3813	0.2555
387.5881	0.2731
387.7948	0.2707
388.0016	0.2611
388.2084	0.2554
388.4151	0.2474
388.6219	0.2789
388.8286	0.2715
389.0353	0.2807
389.242	0.2689
389.4487	0.2591
389.6553	0.2559
389.862	0.2439
390.0686	0.2483
390.2753	0.2678
390.4819	0.2467
390.6885	0.2507
390.8951	0.2401
391.1016	0.2407
391.3082	0.2391
391.5147	0.2411
391.7213	0.2447
391.9278	0.2351
392.1343	0.2487
392.3408	0.2431
392.5473	0.2444
392.7537	0.2622
392.9602	0.2468
393.1666	0.2321
393.373	0.2393
393.5794	0.2518
393.7858	0.2408
393.9922	0.2271
394.1986	0.2657
394.4049	0.2391
394.6113	0.2319
394.8176	0.2301
395.0239	0.2463
395.2302	0.2285
395.4365	0.2357
395.6428	0.2397
395.8491	0.2113
396.0553	0.2296
396.2615	0.2207
396.4678	0.2276
396.674	0.2236
396.8802	0.2464
397.0863	0.2189
397.2925	0.2321
397.4987	0.2217
397.7048	0.2248
397.9109	0.2398
398.117	0.2087
398.3231	0.2168
398.5292	0.2313
398.7353	0.2438
398.9413	0.2203
399.1474	0.2313
399.3534	0.2355
399.5594	0.2141
399.7654	0.235
399.9714	0.2381
400.1774	0.224
400.3833	0.2254
400.5893	0.2378
400.7952	0.2207
401.0011	0.2236
401.207	0.2278
401.4129	0.2311
401.6188	0.2315
401.8247	0.2097
402.0305	0.2329
402.2364	0.2158
402.4422	0.2429
402.648	0.2259
402.8538	0.2407
403.0596	0.2333
403.2654	0.2197
403.4711	0.2147
403.6768	0.2225
403.8826	0.2307
404.0883	0.2314
404.294	0.2358
404.4997	0.2144
404.7054	0.2392
404.911	0.211
405.1167	0.2391
405.3223	0.2364
405.5279	0.2309
405.7335	0.2264
405.9391	0.2447
406.1447	0.2127
406.3502	0.2502
406.5558	0.2257
406.7613	0.2504
406.9668	0.2274
407.1724	0.2125
407.3778	0.2155
407.5833	0.2287
407.7888	0.2235
407.9942	0.2304
408.1997	0.2288
408.4051	0.2248
408.6105	0.2305
408.8159	0.2071
409.0213	0.2121
409.2267	0.2399
409.432	0.2136
409.6374	0.2415
409.8427	0.2174
410.048	0.2356
410.2533	0.2178
410.4586	0.2334
410.6639	0.2088
410.8691	0.2299
411.0744	0.2323
411.2796	0.2258
411.4848	0.2213
411.69	0.2405
411.8952	0.2316
412.1004	0.2042
412.3056	0.2271
412.5107	0.2206
412.7158	0.2317
412.921	0.2271
413.1261	0.2303
413.3312	0.201
413.5362	0.233
413.7413	0.2201
413.9464	0.212
414.1514	0.2152
414.3564	0.2142
414.5614	0.2091
414.7664	0.2151
414.9714	0.2151
415.1764	0.2217
415.3813	0.2374
415.5863	0.2372
415.7912	0.2304
415.9961	0.2172
416.201	0.229
416.4059	0.2369
416.6108	0.2232
416.8156	0.2272
417.0205	0.2092
417.2253	0.2091
417.4301	0.2194
417.6349	0.2145
417.8397	0.2123
418.0445	0.2228
418.2492	0.2088
418.454	0.1921
418.6587	0.2031
418.8634	0.2148
419.0681	0.2031
419.2728	0.2058
419.4775	0.1983
419.6822	0.2199
419.8868	0.174
420.0915	0.2185
420.2961	0.1796
420.5007	0.1946
420.7053	0.2063
420.9099	0.2099
421.1144	0.2037
421.319	0.1884
421.5235	0.2108
421.728	0.2043
421.9325	0.1983
422.137	0.1978
422.3415	0.1902
422.546	0.1988
422.7504	0.2041
422.9549	0.2103
423.1593	0.2048
423.3637	0.1977
423.5681	0.1824
423.7725	0.1851
423.9769	0.1958
424.1812	0.1831
424.3856	0.1753
424.5899	0.2073
424.7942	0.1868
424.9985	0.1921
425.2028	0.1824
425.4071	0.1987
425.6113	0.1775
425.8156	0.19
426.0198	0.179
426.224	0.1669
426.4282	0.1687
