Data from MonoPyChalIsomerACN10uM340nmA_Absorbance_14-14-19-267.txt Node
Date: Fri Jul 05 14:14:19 BST 2024
User: LASERRRRR
Spectrometer: FLMT03099
Trigger mode: 0
Integration Time (sec): 1.000000E-1
Scans to average: 1
Electric dark correction enabled: true
Nonlinearity correction enabled: false
Boxcar width: 0
XAxis mode: Wavelengths
Number of Pixels in Spectrum: 3648
>>>>>Begin Spectral Data<<<<<
179.3399	-0.0014
179.5586	-0.0014
179.7771	-0.0014
179.9957	-0
180.2143	-0
180.4329	0.4932
180.6514	1.5691
180.8699	-0
181.0885	-0.31
181.307	-0.0265
181.5255	-0
181.744	-0.5789
181.9625	-0
182.181	-0.8968
182.3994	-0
182.6179	-0.0773
182.8363	0.533
183.0547	-0.0134
183.2732	-0.0076
183.4916	0.3284
183.71	0.0913
183.9284	0.0461
184.1467	-0.1682
184.3651	0.0351
184.5835	0.0795
184.8018	0.1329
185.0201	0.2014
185.2385	0.1814
185.4568	0.2081
185.6751	0.1851
185.8934	0.2689
186.1117	-0.1198
186.3299	0.1362
186.5482	-0.0257
186.7664	-0.2391
186.9847	0.0538
187.2029	0.2318
187.4211	0.0264
187.6393	0.0392
187.8575	-0.0706
188.0757	0.2366
188.2939	0.0454
188.512	0.1096
188.7302	-0.0844
188.9483	-0.0361
189.1665	0.0453
189.3846	-0.0237
189.6027	0.0672
189.8208	0.2145
190.0389	0.087
190.257	0.054
190.475	0.0601
190.6931	0.1877
190.9111	0.4599
191.1292	0.1054
191.3472	0.3979
191.5652	0.3461
191.7832	0.2558
192.0012	0.3658
192.2192	0.4145
192.4371	0.6668
192.6551	0.2359
192.873	0.3299
193.091	0.3935
193.3089	0.4622
193.5268	0.5096
193.7447	0.4144
193.9626	0.502
194.1805	0.7015
194.3984	0.7725
194.6162	0.5993
194.8341	0.5549
195.0519	0.6513
195.2697	0.7752
195.4875	0.8215
195.7054	0.6258
195.9231	0.5445
196.1409	0.4938
196.3587	0.6218
196.5765	0.6767
196.7942	0.5455
197.012	0.5902
197.2297	0.5108
197.4474	0.6295
197.6651	0.5885
197.8828	0.4454
198.1005	0.6715
198.3182	0.6663
198.5358	0.7977
198.7535	0.5996
198.9711	0.4888
199.1888	0.6758
199.4064	0.7351
199.624	0.5883
199.8416	0.5824
200.0592	0.8484
200.2767	0.6617
200.4943	0.6762
200.7119	0.7818
200.9294	0.5726
201.1469	0.6152
201.3645	0.5247
201.582	0.455
201.7995	0.602
202.017	0.6181
202.2344	0.5774
202.4519	0.6123
202.6694	0.6164
202.8868	0.5395
203.1042	0.6802
203.3217	0.662
203.5391	0.6031
203.7565	0.5705
203.9739	0.5572
204.1913	0.6488
204.4086	0.7331
204.626	0.6705
204.8433	0.6631
205.0607	0.5875
205.278	0.6699
205.4953	0.6136
205.7126	0.7174
205.9299	0.7649
206.1472	0.676
206.3644	0.5972
206.5817	0.6585
206.7989	0.6933
207.0162	0.6821
207.2334	0.6324
207.4506	0.6307
207.6678	0.624
207.885	0.6607
208.1022	0.6248
208.3194	0.5995
208.5365	0.7053
208.7537	0.6667
208.9708	0.6044
209.1879	0.597
209.405	0.7065
209.6222	0.6619
209.8392	0.6407
210.0563	0.5555
210.2734	0.6
210.4905	0.574
210.7075	0.6178
210.9245	0.5729
211.1416	0.6779
211.3586	0.5761
211.5756	0.5686
211.7926	0.5568
212.0096	0.565
212.2265	0.5891
212.4435	0.6259
212.6604	0.5937
212.8774	0.5156
213.0943	0.5816
213.3112	0.5219
213.5281	0.5144
213.745	0.545
213.9619	0.4777
214.1788	0.4812
214.3956	0.4501
214.6125	0.4662
214.8293	0.4523
215.0461	0.4596
215.2629	0.4708
215.4798	0.4448
215.6965	0.4105
215.9133	0.4313
216.1301	0.3943
216.3469	0.4418
216.5636	0.4323
216.7803	0.3666
216.9971	0.4181
217.2138	0.3474
217.4305	0.3522
217.6472	0.3433
217.8639	0.3644
218.0805	0.3295
218.2972	0.3275
218.5138	0.2946
218.7305	0.3123
218.9471	0.2923
219.1637	0.2993
219.3803	0.2983
219.5969	0.2827
219.8135	0.2625
220.0301	0.2861
220.2466	0.2885
220.4632	0.249
220.6797	0.2375
220.8962	0.2441
221.1127	0.2734
221.3292	0.2551
221.5457	0.2212
221.7622	0.2253
221.9787	0.2566
222.1951	0.2318
222.4116	0.2546
222.628	0.2406
222.8444	0.2509
223.0608	0.2507
223.2772	0.235
223.4936	0.2527
223.71	0.2337
223.9264	0.2404
224.1427	0.2584
224.3591	0.2551
224.5754	0.2544
224.7917	0.2668
225.008	0.2532
225.2243	0.2717
225.4406	0.2782
225.6569	0.2734
225.8732	0.2709
226.0894	0.2674
226.3057	0.2718
226.5219	0.2882
226.7381	0.254
226.9543	0.2746
227.1705	0.2881
227.3867	0.2659
227.6029	0.3074
227.8191	0.3015
228.0352	0.2845
228.2513	0.3345
228.4675	0.2998
228.6836	0.3123
228.8997	0.3033
229.1158	0.3121
229.3319	0.3075
229.548	0.3349
229.764	0.3174
229.9801	0.3214
230.1961	0.3136
230.4121	0.3431
230.6282	0.3294
230.8442	0.3087
231.0602	0.3454
231.2761	0.3455
231.4921	0.3421
231.7081	0.3593
231.924	0.3353
232.14	0.3418
232.3559	0.3298
232.5718	0.3664
232.7877	0.3574
233.0036	0.3496
233.2195	0.3452
233.4353	0.3536
233.6512	0.3448
233.867	0.3475
234.0829	0.3501
234.2987	0.3698
234.5145	0.3781
234.7303	0.375
234.9461	0.3743
235.1619	0.3896
235.3776	0.3883
235.5934	0.3816
235.8091	0.3759
236.0249	0.372
236.2406	0.3929
236.4563	0.3903
236.672	0.3889
236.8877	0.3957
237.1034	0.3943
237.319	0.3881
237.5347	0.4163
237.7503	0.4088
237.966	0.3857
238.1816	0.3957
238.3972	0.3926
238.6128	0.4112
238.8284	0.4002
239.0439	0.3895
239.2595	0.4038
239.475	0.4125
239.6906	0.4214
239.9061	0.3886
240.1216	0.3905
240.3371	0.3997
240.5526	0.3917
240.7681	0.4068
240.9836	0.4033
241.199	0.3952
241.4145	0.3926
241.6299	0.3855
241.8453	0.3796
242.0607	0.3749
242.2761	0.355
242.4915	0.3575
242.7069	0.373
242.9223	0.3596
243.1376	0.3377
243.353	0.3473
243.5683	0.3431
243.7836	0.3269
243.9989	0.3224
244.2142	0.3068
244.4295	0.3311
244.6448	0.3078
244.86	0.2906
245.0753	0.2833
245.2905	0.2796
245.5057	0.2629
245.721	0.266
245.9362	0.2672
246.1514	0.271
246.3665	0.2578
246.5817	0.2571
246.7969	0.2561
247.012	0.2576
247.2271	0.235
247.4423	0.2327
247.6574	0.2482
247.8725	0.2286
248.0876	0.2214
248.3026	0.2141
248.5177	0.2148
248.7328	0.1968
248.9478	0.2179
249.1628	0.2007
249.3779	0.2121
249.5929	0.1959
249.8079	0.2061
250.0228	0.197
250.2378	0.2067
250.4528	0.1975
250.6677	0.1916
250.8827	0.1878
251.0976	0.19
251.3125	0.1829
251.5274	0.1698
251.7423	0.1802
251.9572	0.192
252.172	0.1722
252.3869	0.1858
252.6017	0.1777
252.8166	0.163
253.0314	0.1627
253.2462	0.1701
253.461	0.1777
253.6758	0.172
253.8906	0.1779
254.1053	0.1694
254.3201	0.1684
254.5348	0.1773
254.7496	0.1731
254.9643	0.1604
255.179	0.1575
255.3937	0.1653
255.6083	0.1668
255.823	0.1668
256.0377	0.1682
256.2523	0.1571
256.467	0.1529
256.6816	0.1794
256.8962	0.1536
257.1108	0.1553
257.3254	0.1636
257.54	0.1621
257.7545	0.1618
257.9691	0.1736
258.1836	0.1577
258.3981	0.1703
258.6127	0.1653
258.8272	0.1615
259.0417	0.1487
259.2561	0.16
259.4706	0.1691
259.6851	0.1631
259.8995	0.1631
260.114	0.1595
260.3284	0.1668
260.5428	0.1539
260.7572	0.1739
260.9716	0.1682
261.186	0.158
261.4003	0.1507
261.6147	0.1692
261.829	0.1692
262.0433	0.1564
262.2577	0.15
262.472	0.1612
262.6863	0.1545
262.9005	0.1498
263.1148	0.1661
263.3291	0.1464
263.5433	0.1583
263.7576	0.1567
263.9718	0.1765
264.186	0.1484
264.4002	0.1507
264.6144	0.1485
264.8286	0.171
265.0427	0.1488
265.2569	0.164
265.471	0.1588
265.6851	0.1542
265.8993	0.1548
266.1134	0.1523
266.3275	0.1581
266.5415	0.1533
266.7556	0.1412
266.9697	0.1583
267.1837	0.166
267.3978	0.1621
267.6118	0.1617
267.8258	0.1637
268.0398	0.1462
268.2538	0.1626
268.4677	0.1536
268.6817	0.1443
268.8957	0.151
269.1096	0.1608
269.3235	0.1699
269.5374	0.1521
269.7514	0.1419
269.9652	0.1471
270.1791	0.154
270.393	0.1501
270.6068	0.1532
270.8207	0.1469
271.0345	0.1371
271.2483	0.1494
271.4622	0.1383
271.676	0.1492
271.8897	0.1373
272.1035	0.1522
272.3173	0.1389
272.531	0.1401
272.7448	0.1425
272.9585	0.1357
273.1722	0.1313
273.3859	0.1473
273.5996	0.1237
273.8133	0.1435
274.0269	0.1294
274.2406	0.1296
274.4542	0.1445
274.6679	0.1228
274.8815	0.1315
275.0951	0.1371
275.3087	0.1446
275.5223	0.1458
275.7358	0.1438
275.9494	0.1361
276.1629	0.1339
276.3765	0.1299
276.59	0.1425
276.8035	0.1455
277.017	0.1404
277.2305	0.1345
277.444	0.1434
277.6574	0.1412
277.8709	0.1463
278.0843	0.1372
278.2978	0.1347
278.5112	0.14
278.7246	0.1472
278.938	0.1522
279.1513	0.1427
279.3647	0.1506
279.5781	0.1456
279.7914	0.1492
280.0047	0.1507
280.2181	0.1332
280.4314	0.1503
280.6447	0.1508
280.8579	0.1428
281.0712	0.1486
281.2845	0.1541
281.4977	0.1559
281.711	0.1351
281.9242	0.1559
282.1374	0.1527
282.3506	0.1384
282.5638	0.1517
282.7769	0.1492
282.9901	0.1463
283.2033	0.1579
283.4164	0.1549
283.6295	0.1461
283.8426	0.139
284.0557	0.1491
284.2688	0.1593
284.4819	0.1559
284.695	0.149
284.908	0.1614
285.1211	0.1485
285.3341	0.1418
285.5471	0.1594
285.7601	0.1513
285.9731	0.1454
286.1861	0.1492
286.3991	0.1626
286.612	0.1577
286.825	0.153
287.0379	0.1591
287.2508	0.1599
287.4637	0.164
287.6766	0.1596
287.8895	0.1603
288.1024	0.1685
288.3152	0.1689
288.5281	0.1524
288.7409	0.1591
288.9538	0.1641
289.1666	0.1566
289.3794	0.1599
289.5922	0.1632
289.8049	0.1699
290.0177	0.1563
290.2304	0.1766
290.4432	0.1604
290.6559	0.1698
290.8686	0.1603
291.0813	0.1707
291.294	0.1668
291.5067	0.1757
291.7194	0.1668
291.932	0.171
292.1447	0.1641
292.3573	0.1653
292.5699	0.1654
292.7825	0.1593
292.9951	0.1591
293.2077	0.1651
293.4203	0.1572
293.6328	0.1542
293.8454	0.1657
294.0579	0.1587
294.2704	0.1688
294.4829	0.1518
294.6954	0.1609
294.9079	0.1723
295.1204	0.162
295.3328	0.1627
295.5453	0.1713
295.7577	0.1693
295.9701	0.1653
296.1825	0.1584
296.3949	0.1668
296.6073	0.158
296.8197	0.1552
297.0321	0.1664
297.2444	0.1473
297.4567	0.1649
297.6691	0.1642
297.8814	0.1616
298.0937	0.1619
298.306	0.1681
298.5182	0.1591
298.7305	0.1713
298.9428	0.1623
299.155	0.1715
299.3672	0.1668
299.5794	0.1566
299.7916	0.1608
300.0038	0.1766
300.216	0.1624
300.4282	0.1646
300.6403	0.1636
300.8525	0.1671
301.0646	0.1627
301.2767	0.1608
301.4888	0.1642
301.7009	0.1653
301.913	0.1587
302.125	0.1581
302.3371	0.1581
302.5491	0.1659
302.7612	0.167
302.9732	0.1621
303.1852	0.1736
303.3972	0.16
303.6092	0.1494
303.8211	0.1524
304.0331	0.1542
304.245	0.1584
304.457	0.1476
304.6689	0.1472
304.8808	0.1638
305.0927	0.1398
305.3046	0.1518
305.5164	0.1509
305.7283	0.1436
305.9401	0.1551
306.152	0.1413
306.3638	0.1435
306.5756	0.151
306.7874	0.1387
306.9992	0.1457
307.2109	0.1447
307.4227	0.1301
307.6344	0.1438
307.8462	0.1337
308.0579	0.1424
308.2696	0.1329
308.4813	0.1297
308.693	0.1293
308.9046	0.1349
309.1163	0.128
309.328	0.1281
309.5396	0.1195
309.7512	0.1194
309.9628	0.111
310.1744	0.1243
310.386	0.1188
310.5976	0.1131
310.8091	0.1137
311.0207	0.1179
311.2322	0.1194
311.4437	0.1073
311.6552	0.11
311.8667	0.1126
312.0782	0.0859
312.2897	0.0956
312.5012	0.1184
312.7126	0.1016
312.924	0.0926
313.1355	0.1121
313.3469	0.105
313.5583	0.1148
313.7696	0.1113
313.981	0.1044
314.1924	0.0948
314.4037	0.0924
314.6151	0.1104
314.8264	0.0953
315.0377	0.1008
315.249	0.0953
315.4603	0.1049
315.6716	0.1031
315.8828	0.0818
316.0941	0.0936
316.3053	0.0929
316.5165	0.0867
316.7277	0.0853
316.9389	0.1006
317.1501	0.1005
317.3613	0.092
317.5724	0.0805
317.7836	0.0936
317.9947	0.0957
318.2058	0.0867
318.417	0.08
318.6281	0.0915
318.8391	0.1017
319.0502	0.0914
319.2613	0.095
319.4723	0.0898
319.6834	0.0954
319.8944	0.0794
320.1054	0.0905
320.3164	0.0843
320.5274	0.0844
320.7383	0.0811
320.9493	0.0904
321.1602	0.1089
321.3712	0.0863
321.5821	0.0906
321.793	0.0977
322.0039	0.0943
322.2148	0.0901
322.4257	0.0956
322.6365	0.1048
322.8474	0.1041
323.0582	0.0921
323.269	0.1063
323.4798	0.1116
323.6906	0.0881
323.9014	0.0908
324.1122	0.0978
324.3229	0.0854
324.5337	0.0947
324.7444	0.0824
324.9551	0.1069
325.1658	0.0959
325.3765	0.0923
325.5872	0.1058
325.7979	0.0968
326.0085	0.0868
326.2192	0.1039
326.4298	0.1011
326.6404	0.0787
326.851	0.0855
327.0616	0.0852
327.2722	0.0967
327.4828	0.1052
327.6933	0.0965
327.9039	0.0958
328.1144	0.1074
328.3249	0.1006
328.5354	0.0909
328.7459	0.0992
328.9564	0.0934
329.1669	0.1
329.3773	0.1005
329.5878	0.1066
329.7982	0.0856
330.0086	0.0963
330.219	0.0978
330.4294	0.1031
330.6398	0.1065
330.8502	0.0984
331.0605	0.1056
331.2708	0.104
331.4812	0.1015
331.6915	0.1034
331.9018	0.1074
332.1121	0.101
332.3224	0.1041
332.5326	0.1106
332.7429	0.0933
332.9531	0.111
333.1633	0.1104
333.3735	0.0986
333.5837	0.0888
333.7939	0.102
334.0041	0.1037
334.2143	0.1032
334.4244	0.0866
334.6346	0.0803
334.8447	0.1124
335.0548	0.1009
335.2649	0.0862
335.475	0.1018
335.685	0.0935
335.8951	0.1153
336.1051	0.1099
336.3152	0.1178
336.5252	0.1093
336.7352	0.1008
336.9452	0.1055
337.1552	0.1072
337.3652	0.1011
337.5751	0.0992
337.7851	0.1081
337.995	0.097
338.2049	0.1068
338.4148	0.0971
338.6247	0.1165
338.8346	0.0971
339.0445	0.0978
339.2543	0.0964
339.4642	0.1057
339.674	0.1027
339.8838	0.0901
340.0936	0.104
340.3034	0.1069
340.5132	0.1143
340.7229	0.1099
340.9327	0.1012
341.1424	0.1098
341.3522	0.1215
341.5619	0.1156
341.7716	0.1145
341.9813	0.11
342.1909	0.1131
342.4006	0.1339
342.6102	0.1307
342.8199	0.116
343.0295	0.1095
343.2391	0.1181
343.4487	0.1133
343.6583	0.1091
343.8679	0.1085
344.0774	0.1088
344.287	0.1196
344.4965	0.1257
344.706	0.1314
344.9155	0.1206
345.125	0.1299
345.3345	0.1244
345.544	0.1145
345.7534	0.124
345.9629	0.129
346.1723	0.1149
346.3817	0.1207
346.5911	0.1155
346.8005	0.1259
347.0099	0.1279
347.2193	0.1276
347.4286	0.1251
347.638	0.1364
347.8473	0.1287
348.0566	0.138
348.2659	0.1268
348.4752	0.1309
348.6845	0.1254
348.8937	0.1204
349.103	0.143
349.3122	0.1193
349.5214	0.1264
349.7306	0.1333
349.9398	0.1403
350.149	0.1372
350.3582	0.1352
350.5674	0.1379
350.7765	0.1329
350.9856	0.1356
351.1948	0.1422
351.4039	0.1222
351.613	0.1317
351.822	0.1426
352.0311	0.1464
352.2402	0.1456
352.4492	0.1351
352.6582	0.1526
352.8672	0.1491
353.0762	0.1387
353.2852	0.1289
353.4942	0.131
353.7032	0.1538
353.9121	0.147
354.1211	0.1466
354.33	0.1491
354.5389	0.1492
354.7478	0.1426
354.9567	0.1486
355.1655	0.1395
355.3744	0.132
355.5833	0.1626
355.7921	0.1565
356.0009	0.145
356.2097	0.1646
356.4185	0.1616
356.6273	0.1577
356.8361	0.1542
357.0448	0.1496
357.2536	0.1437
357.4623	0.1508
357.671	0.1663
357.8797	0.1564
358.0884	0.1525
358.2971	0.1739
358.5057	0.1593
358.7144	0.1674
358.923	0.1501
359.1316	0.1615
359.3402	0.1713
359.5488	0.1644
359.7574	0.1642
359.966	0.1694
360.1746	0.1744
360.3831	0.1799
360.5916	0.1598
360.8002	0.1473
361.0087	0.1726
361.2172	0.1732
361.4256	0.1718
361.6341	0.1865
361.8426	0.1763
362.051	0.1709
362.2594	0.173
362.4678	0.1747
362.6762	0.2001
362.8846	0.1822
363.093	0.1806
363.3014	0.1826
363.5097	0.1741
363.718	0.1931
363.9264	0.1943
364.1347	0.1759
364.343	0.1787
364.5513	0.1922
364.7595	0.193
364.9678	0.19
365.176	0.1891
365.3842	0.1851
365.5925	0.1885
365.8007	0.2082
366.0089	0.1767
366.217	0.1748
366.4252	0.192
366.6333	0.2015
366.8415	0.213
367.0496	0.1944
367.2577	0.2128
367.4658	0.2073
367.6739	0.1991
367.882	0.2124
368.09	0.1907
368.2981	0.2193
368.5061	0.1945
368.7141	0.2084
368.9221	0.2181
369.1301	0.2115
369.3381	0.1978
369.5461	0.2129
369.754	0.2163
369.962	0.2147
370.1699	0.2207
370.3778	0.2352
370.5857	0.2107
370.7936	0.2137
371.0015	0.2138
371.2093	0.2178
371.4172	0.2253
371.625	0.2014
371.8328	0.2147
372.0406	0.2073
372.2484	0.2123
372.4562	0.2305
372.664	0.2139
372.8717	0.241
373.0795	0.2082
373.2872	0.2131
373.4949	0.233
373.7026	0.2177
373.9103	0.231
374.118	0.2377
374.3256	0.2222
374.5333	0.2284
374.7409	0.2173
374.9485	0.2549
375.1561	0.2383
375.3637	0.239
375.5713	0.2238
375.7789	0.2304
375.9864	0.2348
376.194	0.2178
376.4015	0.2449
376.609	0.258
376.8165	0.2425
377.024	0.2435
377.2315	0.2237
377.4389	0.254
377.6464	0.2515
377.8538	0.2464
378.0612	0.2367
378.2686	0.2588
378.476	0.2635
378.6834	0.2438
378.8908	0.244
379.0981	0.2491
379.3055	0.25
379.5128	0.2401
379.7201	0.2544
379.9274	0.2388
380.1347	0.2401
380.342	0.2649
380.5492	0.2378
380.7565	0.2696
380.9637	0.251
381.1709	0.2641
381.3781	0.2625
381.5853	0.2524
381.7925	0.2698
381.9997	0.2675
382.2068	0.2734
382.4139	0.2543
382.6211	0.2588
382.8282	0.2432
383.0353	0.2463
383.2424	0.2333
383.4494	0.2624
383.6565	0.2569
383.8635	0.2613
384.0706	0.256
384.2776	0.2708
384.4846	0.2334
384.6916	0.2652
384.8986	0.2597
385.1055	0.2738
385.3125	0.2722
385.5194	0.243
385.7263	0.2721
385.9333	0.257
386.1402	0.2506
386.347	0.2674
386.5539	0.2466
386.7608	0.2592
386.9676	0.2463
387.1744	0.2737
387.3813	0.2548
387.5881	0.2657
387.7948	0.2509
388.0016	0.2531
388.2084	0.2611
388.4151	0.2453
388.6219	0.2648
388.8286	0.247
389.0353	0.2634
389.242	0.2616
389.4487	0.2343
389.6553	0.2369
389.862	0.2281
390.0686	0.248
390.2753	0.2504
390.4819	0.2562
390.6885	0.2382
390.8951	0.2542
391.1016	0.2333
391.3082	0.2355
391.5147	0.2383
391.7213	0.2444
391.9278	0.2506
392.1343	0.2361
392.3408	0.2379
392.5473	0.2223
392.7537	0.2406
392.9602	0.2402
393.1666	0.2504
393.373	0.2587
393.5794	0.2434
393.7858	0.2263
393.9922	0.2167
394.1986	0.2296
394.4049	0.2137
394.6113	0.2143
394.8176	0.2093
395.0239	0.2193
395.2302	0.2343
395.4365	0.2277
395.6428	0.2228
395.8491	0.2239
396.0553	0.23
396.2615	0.231
396.4678	0.2287
396.674	0.2037
396.8802	0.2233
397.0863	0.2347
397.2925	0.2091
397.4987	0.2197
397.7048	0.2145
397.9109	0.2178
398.117	0.2013
398.3231	0.2163
398.5292	0.2151
398.7353	0.2247
398.9413	0.2196
399.1474	0.2061
399.3534	0.2222
399.5594	0.202
399.7654	0.214
399.9714	0.2186
400.1774	0.2181
400.3833	0.2005
400.5893	0.2285
400.7952	0.2152
401.0011	0.2074
401.207	0.2254
401.4129	0.2115
401.6188	0.2076
401.8247	0.2188
402.0305	0.2041
402.2364	0.218
402.4422	0.2111
402.648	0.2311
402.8538	0.2436
403.0596	0.2165
403.2654	0.2251
403.4711	0.2147
403.6768	0.2227
403.8826	0.2373
404.0883	0.2041
404.294	0.2161
404.4997	0.2223
404.7054	0.2123
404.911	0.2131
405.1167	0.206
405.3223	0.2343
405.5279	0.2268
405.7335	0.214
405.9391	0.226
406.1447	0.2237
406.3502	0.24
406.5558	0.2032
406.7613	0.2271
406.9668	0.2214
407.1724	0.2161
407.3778	0.2152
407.5833	0.212
407.7888	0.2012
407.9942	0.2425
408.1997	0.1982
408.4051	0.2243
408.6105	0.2231
408.8159	0.1988
409.0213	0.2043
409.2267	0.2338
409.432	0.2019
409.6374	0.2088
409.8427	0.208
410.048	0.2094
410.2533	0.2106
410.4586	0.229
410.6639	0.1985
410.8691	0.206
411.0744	0.2081
411.2796	0.2104
411.4848	0.2081
411.69	0.2164
411.8952	0.2426
412.1004	0.2077
412.3056	0.2263
412.5107	0.2114
412.7158	0.2228
412.921	0.191
413.1261	0.1888
413.3312	0.2095
413.5362	0.2042
413.7413	0.2047
413.9464	0.2053
414.1514	0.2199
414.3564	0.2152
414.5614	0.1924
414.7664	0.1891
414.9714	0.2128
415.1764	0.1912
415.3813	0.2325
415.5863	0.2124
415.7912	0.2089
415.9961	0.2048
416.201	0.2156
416.4059	0.2195
416.6108	0.2094
416.8156	0.2118
417.0205	0.2094
417.2253	0.1919
417.4301	0.2291
417.6349	0.1926
417.8397	0.2063
418.0445	0.2137
418.2492	0.2246
418.454	0.1991
418.6587	0.2129
418.8634	0.2013
419.0681	0.1896
419.2728	0.1949
419.4775	0.1968
419.6822	0.1856
419.8868	0.1716
420.0915	0.1875
420.2961	0.1828
420.5007	0.1967
420.7053	0.1977
420.9099	0.2041
421.1144	0.1938
421.319	0.1913
421.5235	0.208
421.728	0.1941
421.9325	0.1976
422.137	0.1928
422.3415	0.1885
422.546	0.1786
422.7504	0.2087
422.9549	0.2048
423.1593	0.1867
423.3637	0.1892
423.5681	0.1905
423.7725	0.172
423.9769	0.183
424.1812	0.1737
424.3856	0.1746
424.5899	0.1865
424.7942	0.1581
424.9985	0.1687
425.2028	0.1835
425.4071	0.1975
425.6113	0.1519
425.8156	0.1856
426.0198	0.1916
426.224	0.162
426.4282	0.1601
426.6324	0.1472
