Data from MonoPyChalIsomerACN10uM340nmA_Absorbance_14-14-17-864.txt Node
Date: Fri Jul 05 14:14:17 BST 2024
User: LASERRRRR
Spectrometer: FLMT03099
Trigger mode: 0
Integration Time (sec): 1.000000E-1
Scans to average: 1
Electric dark correction enabled: true
Nonlinearity correction enabled: false
Boxcar width: 0
XAxis mode: Wavelengths
Number of Pixels in Spectrum: 3648
>>>>>Begin Spectral Data<<<<<
179.3399	0.0186
179.5586	0.0186
179.7771	0.0186
179.9957	0.2017
180.2143	-0
180.4329	0.4347
180.6514	-0
180.8699	-0
181.0885	-0.1022
181.307	-0.0143
181.5255	-0.7607
181.744	-0.7063
181.9625	-0
182.181	-0.8475
182.3994	0.3287
182.6179	-0
182.8363	-0.07
183.0547	-0.3692
183.2732	-0.1456
183.4916	-0.0621
183.71	-0.0377
183.9284	0.1997
184.1467	-0.0971
184.3651	-0.1166
184.5835	-0.0514
184.8018	-0.0117
185.0201	0.0854
185.2385	0.0204
185.4568	0.0548
185.6751	-0.0005
185.8934	0.3344
186.1117	0.0149
186.3299	-0.0386
186.5482	0.0226
186.7664	-0.0706
186.9847	-0.2097
187.2029	-0.0099
187.4211	-0.0593
187.6393	0.1347
187.8575	0.1065
188.0757	0.3687
188.2939	0.2176
188.512	0.4273
188.7302	-0.0288
188.9483	-0.0599
189.1665	0.1144
189.3846	-0.1499
189.6027	0.1503
189.8208	0.1043
190.0389	0.1235
190.257	-0.0345
190.475	0.0671
190.6931	0.1534
190.9111	0.251
191.1292	0.1895
191.3472	0.3825
191.5652	0.2596
191.7832	0.2456
192.0012	0.5046
192.2192	0.2903
192.4371	0.6173
192.6551	0.3671
192.873	0.3688
193.091	0.3442
193.3089	0.5426
193.5268	0.5719
193.7447	0.451
193.9626	0.455
194.1805	0.379
194.3984	0.7135
194.6162	0.3679
194.8341	0.6674
195.0519	0.4832
195.2697	0.4136
195.4875	0.5746
195.7054	0.6341
195.9231	0.5061
196.1409	0.5325
196.3587	0.5881
196.5765	0.6551
196.7942	0.808
197.012	0.4458
197.2297	0.4765
197.4474	0.5243
197.6651	0.6285
197.8828	0.4922
198.1005	0.543
198.3182	0.538
198.5358	0.7443
198.7535	0.5899
198.9711	0.5325
199.1888	0.5313
199.4064	0.6425
199.624	0.5077
199.8416	0.5354
200.0592	0.6345
200.2767	0.5713
200.4943	0.5977
200.7119	0.632
200.9294	0.5771
201.1469	0.5421
201.3645	0.5758
201.582	0.5246
201.7995	0.5989
202.017	0.7415
202.2344	0.5127
202.4519	0.6027
202.6694	0.6873
202.8868	0.6862
203.1042	0.5884
203.3217	0.6774
203.5391	0.5832
203.7565	0.5395
203.9739	0.5919
204.1913	0.6839
204.4086	0.7408
204.626	0.6426
204.8433	0.6401
205.0607	0.7163
205.278	0.5997
205.4953	0.6192
205.7126	0.6217
205.9299	0.6396
206.1472	0.6562
206.3644	0.6163
206.5817	0.609
206.7989	0.6609
207.0162	0.6546
207.2334	0.6536
207.4506	0.6192
207.6678	0.6507
207.885	0.6335
208.1022	0.6787
208.3194	0.6329
208.5365	0.6349
208.7537	0.6504
208.9708	0.5906
209.1879	0.5841
209.405	0.6538
209.6222	0.6417
209.8392	0.5793
210.0563	0.5803
210.2734	0.5903
210.4905	0.6111
210.7075	0.6411
210.9245	0.5615
211.1416	0.6228
211.3586	0.5905
211.5756	0.614
211.7926	0.5491
212.0096	0.5897
212.2265	0.5588
212.4435	0.5281
212.6604	0.6275
212.8774	0.5961
213.0943	0.555
213.3112	0.5022
213.5281	0.4854
213.745	0.4751
213.9619	0.4657
214.1788	0.4434
214.3956	0.424
214.6125	0.4814
214.8293	0.404
215.0461	0.4565
215.2629	0.4129
215.4798	0.442
215.6965	0.4092
215.9133	0.4399
216.1301	0.4246
216.3469	0.4384
216.5636	0.3872
216.7803	0.3728
216.9971	0.394
217.2138	0.3702
217.4305	0.3621
217.6472	0.3673
217.8639	0.3775
218.0805	0.3379
218.2972	0.3331
218.5138	0.3018
218.7305	0.3306
218.9471	0.2948
219.1637	0.2949
219.3803	0.2982
219.5969	0.2652
219.8135	0.2527
220.0301	0.2819
220.2466	0.2617
220.4632	0.2528
220.6797	0.2503
220.8962	0.2413
221.1127	0.2489
221.3292	0.2491
221.5457	0.2266
221.7622	0.2317
221.9787	0.254
222.1951	0.2501
222.4116	0.2801
222.628	0.269
222.8444	0.2474
223.0608	0.2647
223.2772	0.2503
223.4936	0.2597
223.71	0.2507
223.9264	0.2629
224.1427	0.2427
224.3591	0.2511
224.5754	0.2757
224.7917	0.2609
225.008	0.2575
225.2243	0.2555
225.4406	0.2802
225.6569	0.2656
225.8732	0.2663
226.0894	0.2688
226.3057	0.2506
226.5219	0.2913
226.7381	0.2561
226.9543	0.2726
227.1705	0.3008
227.3867	0.2558
227.6029	0.3018
227.8191	0.2939
228.0352	0.2899
228.2513	0.3035
228.4675	0.3127
228.6836	0.2903
228.8997	0.291
229.1158	0.3011
229.3319	0.3086
229.548	0.3121
229.764	0.3204
229.9801	0.327
230.1961	0.3027
230.4121	0.3388
230.6282	0.3398
230.8442	0.3164
231.0602	0.3443
231.2761	0.3517
231.4921	0.317
231.7081	0.3542
231.924	0.3535
232.14	0.3556
232.3559	0.3338
232.5718	0.3641
232.7877	0.3435
233.0036	0.3429
233.2195	0.3401
233.4353	0.3533
233.6512	0.372
233.867	0.3702
234.0829	0.3681
234.2987	0.359
234.5145	0.3773
234.7303	0.3688
234.9461	0.3872
235.1619	0.3691
235.3776	0.3905
235.5934	0.3883
235.8091	0.3647
236.0249	0.3757
236.2406	0.3897
236.4563	0.3889
236.672	0.3951
236.8877	0.3864
237.1034	0.3986
237.319	0.3872
237.5347	0.4105
237.7503	0.39
237.966	0.422
238.1816	0.4063
238.3972	0.3941
238.6128	0.4087
238.8284	0.3834
239.0439	0.4092
239.2595	0.4045
239.475	0.4282
239.6906	0.4129
239.9061	0.4042
240.1216	0.3935
240.3371	0.4124
240.5526	0.4031
240.7681	0.405
240.9836	0.3888
241.199	0.3982
241.4145	0.3792
241.6299	0.3708
241.8453	0.3867
242.0607	0.3713
242.2761	0.3623
242.4915	0.3703
242.7069	0.3482
242.9223	0.3469
243.1376	0.3433
243.353	0.3517
243.5683	0.3465
243.7836	0.3264
243.9989	0.3222
244.2142	0.3021
244.4295	0.3084
244.6448	0.3029
244.86	0.2869
245.0753	0.2745
245.2905	0.2774
245.5057	0.2717
245.721	0.2578
245.9362	0.2652
246.1514	0.2823
246.3665	0.2495
246.5817	0.2497
246.7969	0.2465
247.012	0.2367
247.2271	0.2275
247.4423	0.2407
247.6574	0.2131
247.8725	0.2133
248.0876	0.2215
248.3026	0.2175
248.5177	0.2277
248.7328	0.2107
248.9478	0.2044
249.1628	0.1986
249.3779	0.2143
249.5929	0.202
249.8079	0.1917
250.0228	0.1908
250.2378	0.2007
250.4528	0.1979
250.6677	0.1787
250.8827	0.1911
251.0976	0.1844
251.3125	0.1844
251.5274	0.1697
251.7423	0.1792
251.9572	0.1791
252.172	0.176
252.3869	0.1745
252.6017	0.1745
252.8166	0.1738
253.0314	0.171
253.2462	0.171
253.461	0.1699
253.6758	0.159
253.8906	0.1777
254.1053	0.1642
254.3201	0.1736
254.5348	0.165
254.7496	0.1779
254.9643	0.17
255.179	0.1642
255.3937	0.1643
255.6083	0.1602
255.823	0.169
256.0377	0.1551
256.2523	0.1745
256.467	0.1524
256.6816	0.166
256.8962	0.1571
257.1108	0.1665
257.3254	0.1737
257.54	0.1456
257.7545	0.1666
257.9691	0.1788
258.1836	0.1613
258.3981	0.1696
258.6127	0.1669
258.8272	0.1553
259.0417	0.1545
259.2561	0.1569
259.4706	0.1593
259.6851	0.1591
259.8995	0.1549
260.114	0.1677
260.3284	0.1633
260.5428	0.1631
260.7572	0.1638
260.9716	0.1735
261.186	0.1516
261.4003	0.1622
261.6147	0.1744
261.829	0.1566
262.0433	0.1455
262.2577	0.1476
262.472	0.1462
262.6863	0.1632
262.9005	0.1692
263.1148	0.1602
263.3291	0.1386
263.5433	0.1632
263.7576	0.1556
263.9718	0.1518
264.186	0.1642
264.4002	0.1527
264.6144	0.1546
264.8286	0.155
265.0427	0.1497
265.2569	0.1558
265.471	0.1516
265.6851	0.1563
265.8993	0.1563
266.1134	0.1438
266.3275	0.152
266.5415	0.1439
266.7556	0.1708
266.9697	0.1606
267.1837	0.1538
267.3978	0.1481
267.6118	0.1616
267.8258	0.1706
268.0398	0.1503
268.2538	0.164
268.4677	0.1617
268.6817	0.1549
268.8957	0.1517
269.1096	0.1643
269.3235	0.1542
269.5374	0.1516
269.7514	0.1382
269.9652	0.1512
270.1791	0.1491
270.393	0.1449
270.6068	0.1499
270.8207	0.145
271.0345	0.141
271.2483	0.1361
271.4622	0.1346
271.676	0.1578
271.8897	0.1378
272.1035	0.1401
272.3173	0.134
272.531	0.1377
272.7448	0.1294
272.9585	0.1295
273.1722	0.1384
273.3859	0.1362
273.5996	0.1186
273.8133	0.1307
274.0269	0.1385
274.2406	0.1411
274.4542	0.1243
274.6679	0.1186
274.8815	0.1321
275.0951	0.1442
275.3087	0.1421
275.5223	0.1457
275.7358	0.1382
275.9494	0.1393
276.1629	0.1329
276.3765	0.1297
276.59	0.142
276.8035	0.1408
277.017	0.1339
277.2305	0.1364
277.444	0.1464
277.6574	0.1294
277.8709	0.1409
278.0843	0.1336
278.2978	0.1281
278.5112	0.1393
278.7246	0.1459
278.938	0.1518
279.1513	0.1318
279.3647	0.1518
279.5781	0.1262
279.7914	0.1467
280.0047	0.1446
280.2181	0.1362
280.4314	0.1406
280.6447	0.1415
280.8579	0.1422
281.0712	0.1513
281.2845	0.1468
281.4977	0.1449
281.711	0.1322
281.9242	0.1538
282.1374	0.1533
282.3506	0.1414
282.5638	0.1521
282.7769	0.1489
282.9901	0.15
283.2033	0.1439
283.4164	0.1581
283.6295	0.1349
283.8426	0.1461
284.0557	0.1521
284.2688	0.1667
284.4819	0.1574
284.695	0.1491
284.908	0.165
285.1211	0.1492
285.3341	0.1558
285.5471	0.1567
285.7601	0.1489
285.9731	0.1342
286.1861	0.1603
286.3991	0.1596
286.612	0.1637
286.825	0.1537
287.0379	0.1699
287.2508	0.1569
287.4637	0.1567
287.6766	0.1559
287.8895	0.1642
288.1024	0.1713
288.3152	0.1645
288.5281	0.1558
288.7409	0.1634
288.9538	0.162
289.1666	0.1548
289.3794	0.1603
289.5922	0.1556
289.8049	0.165
290.0177	0.1634
290.2304	0.1641
290.4432	0.1636
290.6559	0.1668
290.8686	0.1735
291.0813	0.1679
291.294	0.1723
291.5067	0.1692
291.7194	0.1636
291.932	0.1771
292.1447	0.164
292.3573	0.1572
292.5699	0.1729
292.7825	0.1656
292.9951	0.1636
293.2077	0.1645
293.4203	0.1709
293.6328	0.1502
293.8454	0.1718
294.0579	0.1647
294.2704	0.1657
294.4829	0.1643
294.6954	0.1637
294.9079	0.1704
295.1204	0.1585
295.3328	0.1626
295.5453	0.1722
295.7577	0.1735
295.9701	0.1564
296.1825	0.1665
296.3949	0.1551
296.6073	0.164
296.8197	0.1663
297.0321	0.1784
297.2444	0.159
297.4567	0.1624
297.6691	0.1678
297.8814	0.1557
298.0937	0.166
298.306	0.1711
298.5182	0.1658
298.7305	0.1693
298.9428	0.1561
299.155	0.1706
299.3672	0.1631
299.5794	0.158
299.7916	0.1602
300.0038	0.177
300.216	0.1613
300.4282	0.1673
300.6403	0.1598
300.8525	0.1649
301.0646	0.161
301.2767	0.165
301.4888	0.16
301.7009	0.1737
301.913	0.1687
302.125	0.1677
302.3371	0.1629
302.5491	0.1592
302.7612	0.1723
302.9732	0.1669
303.1852	0.1732
303.3972	0.1595
303.6092	0.1612
303.8211	0.1585
304.0331	0.1547
304.245	0.1526
304.457	0.15
304.6689	0.1557
304.8808	0.1709
305.0927	0.1471
305.3046	0.1587
305.5164	0.1599
305.7283	0.1435
305.9401	0.1544
306.152	0.15
306.3638	0.1508
306.5756	0.1408
306.7874	0.1485
306.9992	0.148
307.2109	0.1447
307.4227	0.1267
307.6344	0.1393
307.8462	0.139
308.0579	0.1385
308.2696	0.1314
308.4813	0.1316
308.693	0.1351
308.9046	0.132
309.1163	0.128
309.328	0.1165
309.5396	0.1131
309.7512	0.12
309.9628	0.1201
310.1744	0.1157
310.386	0.1161
310.5976	0.1139
310.8091	0.1065
311.0207	0.1177
311.2322	0.1113
311.4437	0.1178
311.6552	0.1089
311.8667	0.116
312.0782	0.0992
312.2897	0.1022
312.5012	0.1066
312.7126	0.0975
312.924	0.0964
313.1355	0.1088
313.3469	0.0954
313.5583	0.1044
313.7696	0.0986
313.981	0.09
314.1924	0.0992
314.4037	0.0997
314.6151	0.1141
314.8264	0.0977
315.0377	0.102
315.249	0.101
315.4603	0.1036
315.6716	0.0842
315.8828	0.0861
316.0941	0.097
316.3053	0.0864
316.5165	0.0887
316.7277	0.085
316.9389	0.1046
317.1501	0.0888
317.3613	0.098
317.5724	0.0822
317.7836	0.0993
317.9947	0.0854
318.2058	0.0898
318.417	0.0827
318.6281	0.0841
318.8391	0.0846
319.0502	0.0872
319.2613	0.0912
319.4723	0.0919
319.6834	0.0939
319.8944	0.0779
320.1054	0.1013
320.3164	0.1021
320.5274	0.0881
320.7383	0.0899
320.9493	0.0866
321.1602	0.1024
321.3712	0.0751
321.5821	0.0967
321.793	0.0802
322.0039	0.0938
322.2148	0.0833
322.4257	0.0896
322.6365	0.0947
322.8474	0.0998
323.0582	0.0865
323.269	0.0913
323.4798	0.0996
323.6906	0.0965
323.9014	0.0955
324.1122	0.0976
324.3229	0.0954
324.5337	0.0944
324.7444	0.094
324.9551	0.1124
325.1658	0.1016
325.3765	0.09
325.5872	0.0851
325.7979	0.0928
326.0085	0.0839
326.2192	0.0906
326.4298	0.1002
326.6404	0.0784
326.851	0.0855
327.0616	0.0879
327.2722	0.0983
327.4828	0.105
327.6933	0.0931
327.9039	0.1015
328.1144	0.1034
328.3249	0.1016
328.5354	0.0871
328.7459	0.0866
328.9564	0.1001
329.1669	0.1134
329.3773	0.1021
329.5878	0.0987
329.7982	0.0901
330.0086	0.1042
330.219	0.1019
330.4294	0.1013
330.6398	0.0918
330.8502	0.0862
331.0605	0.0983
331.2708	0.094
331.4812	0.1058
331.6915	0.1017
331.9018	0.0936
332.1121	0.1001
332.3224	0.0992
332.5326	0.1114
332.7429	0.1016
332.9531	0.0986
333.1633	0.1048
333.3735	0.0996
333.5837	0.1017
333.7939	0.0982
334.0041	0.1094
334.2143	0.1013
334.4244	0.0965
334.6346	0.0843
334.8447	0.1156
335.0548	0.0917
335.2649	0.101
335.475	0.1037
335.685	0.0966
335.8951	0.0984
336.1051	0.111
336.3152	0.1151
336.5252	0.0935
336.7352	0.1087
336.9452	0.1164
337.1552	0.1113
337.3652	0.0921
337.5751	0.1014
337.7851	0.1121
337.995	0.0868
338.2049	0.1038
338.4148	0.1061
338.6247	0.1088
338.8346	0.1008
339.0445	0.0862
339.2543	0.1028
339.4642	0.1043
339.674	0.0909
339.8838	0.1051
340.0936	0.0939
340.3034	0.128
340.5132	0.1148
340.7229	0.1058
340.9327	0.1121
341.1424	0.1048
341.3522	0.1206
341.5619	0.1156
341.7716	0.0987
341.9813	0.1237
342.1909	0.1066
342.4006	0.117
342.6102	0.1121
342.8199	0.1057
343.0295	0.1107
343.2391	0.112
343.4487	0.1086
343.6583	0.1086
343.8679	0.1237
344.0774	0.1239
344.287	0.1218
344.4965	0.1065
344.706	0.1263
344.9155	0.1104
345.125	0.1275
345.3345	0.1314
345.544	0.1116
345.7534	0.1117
345.9629	0.1054
346.1723	0.1169
346.3817	0.1163
346.5911	0.1211
346.8005	0.1374
347.0099	0.122
347.2193	0.1201
347.4286	0.1217
347.638	0.1226
347.8473	0.1255
348.0566	0.1256
348.2659	0.1359
348.4752	0.1303
348.6845	0.1241
348.8937	0.1238
349.103	0.1286
349.3122	0.1182
349.5214	0.1157
349.7306	0.124
349.9398	0.1306
350.149	0.1361
350.3582	0.1285
350.5674	0.1349
350.7765	0.1386
350.9856	0.1341
351.1948	0.1404
351.4039	0.1198
351.613	0.1241
351.822	0.1365
352.0311	0.1441
352.2402	0.1338
352.4492	0.1402
352.6582	0.1526
352.8672	0.1443
353.0762	0.1515
353.2852	0.135
353.4942	0.1314
353.7032	0.1434
353.9121	0.1397
354.1211	0.1432
354.33	0.1365
354.5389	0.1426
354.7478	0.144
354.9567	0.1578
355.1655	0.138
355.3744	0.1462
355.5833	0.1513
355.7921	0.1675
356.0009	0.1592
356.2097	0.1835
356.4185	0.17
356.6273	0.1577
356.8361	0.1594
357.0448	0.1558
357.2536	0.152
357.4623	0.1483
357.671	0.1569
357.8797	0.1609
358.0884	0.1643
358.2971	0.1489
358.5057	0.1645
358.7144	0.1591
358.923	0.1624
359.1316	0.1572
359.3402	0.1685
359.5488	0.1773
359.7574	0.1594
359.966	0.176
360.1746	0.1656
360.3831	0.178
360.5916	0.1678
360.8002	0.1636
361.0087	0.1771
361.2172	0.1811
361.4256	0.1707
361.6341	0.1798
361.8426	0.1918
362.051	0.1687
362.2594	0.1666
362.4678	0.1836
362.6762	0.2035
362.8846	0.1897
363.093	0.1746
363.3014	0.1745
363.5097	0.1728
363.718	0.1703
363.9264	0.1819
364.1347	0.1676
364.343	0.1782
364.5513	0.19
364.7595	0.203
364.9678	0.1964
365.176	0.192
365.3842	0.1881
365.5925	0.1916
365.8007	0.2093
366.0089	0.2013
366.217	0.2012
366.4252	0.2071
366.6333	0.2051
366.8415	0.2079
367.0496	0.1964
367.2577	0.2029
367.4658	0.204
367.6739	0.2116
367.882	0.2038
368.09	0.2008
368.2981	0.2168
368.5061	0.1964
368.7141	0.2153
368.9221	0.2098
369.1301	0.2333
369.3381	0.2187
369.5461	0.2153
369.754	0.2204
369.962	0.2143
370.1699	0.2235
370.3778	0.2161
370.5857	0.2016
370.7936	0.2087
371.0015	0.209
371.2093	0.2352
371.4172	0.2376
371.625	0.2024
371.8328	0.2155
372.0406	0.2114
372.2484	0.2267
372.4562	0.2346
372.664	0.2089
372.8717	0.2346
373.0795	0.2267
373.2872	0.2273
373.4949	0.2227
373.7026	0.2434
373.9103	0.2325
374.118	0.244
374.3256	0.2188
374.5333	0.2275
374.7409	0.2235
374.9485	0.2423
375.1561	0.2348
375.3637	0.2435
375.5713	0.2464
375.7789	0.237
375.9864	0.2328
376.194	0.2362
376.4015	0.2401
376.609	0.2437
376.8165	0.2342
377.024	0.2372
377.2315	0.2348
377.4389	0.2388
377.6464	0.2564
377.8538	0.2612
378.0612	0.2259
378.2686	0.2467
378.476	0.2505
378.6834	0.2492
378.8908	0.2435
379.0981	0.2589
379.3055	0.2555
379.5128	0.2567
379.7201	0.2594
379.9274	0.2606
380.1347	0.2557
380.342	0.2612
380.5492	0.2567
380.7565	0.2598
380.9637	0.2606
381.1709	0.2541
381.3781	0.2523
381.5853	0.262
381.7925	0.2523
381.9997	0.2587
382.2068	0.246
382.4139	0.2556
382.6211	0.259
382.8282	0.2626
383.0353	0.2513
383.2424	0.2449
383.4494	0.2768
383.6565	0.2499
383.8635	0.2596
384.0706	0.2711
384.2776	0.2799
384.4846	0.2583
384.6916	0.2736
384.8986	0.2505
385.1055	0.2765
385.3125	0.2593
385.5194	0.2423
385.7263	0.2709
385.9333	0.2639
386.1402	0.2774
386.347	0.2557
386.5539	0.2724
386.7608	0.2702
386.9676	0.233
387.1744	0.2546
387.3813	0.2416
387.5881	0.2639
387.7948	0.2563
388.0016	0.2656
388.2084	0.2508
388.4151	0.256
388.6219	0.2776
388.8286	0.2671
389.0353	0.2754
389.242	0.2505
389.4487	0.2501
389.6553	0.2582
389.862	0.2323
390.0686	0.2465
390.2753	0.2626
390.4819	0.2403
390.6885	0.2245
390.8951	0.2615
391.1016	0.2372
391.3082	0.2493
391.5147	0.2509
391.7213	0.2402
391.9278	0.2369
392.1343	0.2281
392.3408	0.2543
392.5473	0.2406
392.7537	0.2459
392.9602	0.2332
393.1666	0.2321
393.373	0.247
393.5794	0.2418
393.7858	0.2396
393.9922	0.2141
394.1986	0.2369
394.4049	0.237
394.6113	0.223
394.8176	0.2238
395.0239	0.2133
395.2302	0.2179
395.4365	0.2368
395.6428	0.2243
395.8491	0.2208
396.0553	0.2403
396.2615	0.2174
396.4678	0.2125
396.674	0.2441
396.8802	0.2194
397.0863	0.2408
397.2925	0.2038
397.4987	0.2171
397.7048	0.2081
397.9109	0.2243
398.117	0.2293
398.3231	0.2085
398.5292	0.2269
398.7353	0.2401
398.9413	0.2139
399.1474	0.2253
399.3534	0.2396
399.5594	0.2091
399.7654	0.227
399.9714	0.2255
400.1774	0.2095
400.3833	0.2117
400.5893	0.2191
400.7952	0.2101
401.0011	0.2201
401.207	0.2374
401.4129	0.2315
401.6188	0.238
401.8247	0.223
402.0305	0.2085
402.2364	0.2185
402.4422	0.2238
402.648	0.2062
402.8538	0.2367
403.0596	0.2095
403.2654	0.2406
403.4711	0.2192
403.6768	0.2159
403.8826	0.2218
404.0883	0.2306
404.294	0.2367
404.4997	0.2301
404.7054	0.2132
404.911	0.2117
405.1167	0.2234
405.3223	0.2231
405.5279	0.2379
405.7335	0.2402
405.9391	0.2418
406.1447	0.204
406.3502	0.2397
406.5558	0.2099
406.7613	0.2326
406.9668	0.231
407.1724	0.2134
407.3778	0.2216
407.5833	0.2105
407.7888	0.2031
407.9942	0.25
408.1997	0.2059
408.4051	0.2006
408.6105	0.2497
408.8159	0.2017
409.0213	0.2127
409.2267	0.2313
409.432	0.2193
409.6374	0.2295
409.8427	0.2225
410.048	0.2281
410.2533	0.2078
410.4586	0.2413
410.6639	0.2082
410.8691	0.2052
411.0744	0.2053
411.2796	0.2104
411.4848	0.1994
411.69	0.208
411.8952	0.2374
412.1004	0.2098
412.3056	0.2298
412.5107	0.2114
412.7158	0.2336
412.921	0.216
413.1261	0.2166
413.3312	0.2036
413.5362	0.2196
413.7413	0.211
413.9464	0.2006
414.1514	0.2167
414.3564	0.1971
414.5614	0.2007
414.7664	0.1995
414.9714	0.2087
415.1764	0.2137
415.3813	0.2311
415.5863	0.2086
415.7912	0.2279
415.9961	0.1997
416.201	0.2259
416.4059	0.2325
416.6108	0.1912
416.8156	0.2163
417.0205	0.206
417.2253	0.2055
417.4301	0.223
417.6349	0.2129
417.8397	0.2083
418.0445	0.2094
418.2492	0.209
418.454	0.2122
418.6587	0.2314
418.8634	0.1992
419.0681	0.2031
419.2728	0.1922
419.4775	0.1992
419.6822	0.1918
419.8868	0.1897
420.0915	0.1916
420.2961	0.1946
420.5007	0.1864
420.7053	0.1983
420.9099	0.2145
421.1144	0.2112
421.319	0.1757
421.5235	0.2143
421.728	0.2049
421.9325	0.2076
422.137	0.2096
422.3415	0.1946
422.546	0.2046
422.7504	0.1956
422.9549	0.1874
423.1593	0.1903
423.3637	0.2164
423.5681	0.186
423.7725	0.1822
423.9769	0.1818
424.1812	0.1909
424.3856	0.1891
424.5899	0.1858
424.7942	0.1874
424.9985	0.1807
425.2028	0.1858
425.4071	0.2003
425.6113	0.1718
425.8156	0.1837
426.0198	0.1946
426.224	0.168
426.4282	0.183
