Data from MonoPyChalIsomerACN10uM340nmA_Absorbance_14-14-17-466.txt Node
Date: Fri Jul 05 14:14:17 BST 2024
User: LASERRRRR
Spectrometer: FLMT03099
Trigger mode: 0
Integration Time (sec): 1.000000E-1
Scans to average: 1
Electric dark correction enabled: true
Nonlinearity correction enabled: false
Boxcar width: 0
XAxis mode: Wavelengths
Number of Pixels in Spectrum: 3648
>>>>>Begin Spectral Data<<<<<
179.3399	-0.3242
179.5586	-0.3242
179.7771	-0.3242
179.9957	0.3444
180.2143	-0
180.4329	-0.1732
180.6514	0.3608
180.8699	-0
181.0885	-0.2773
181.307	-0
181.5255	-0.2398
181.744	-0.5886
181.9625	-0
182.181	-1.4738
182.3994	0.0276
182.6179	0.0382
182.8363	0.1772
183.0547	-0.4244
183.2732	-0.0209
183.4916	0.3954
183.71	-0.0386
183.9284	0.1587
184.1467	-0.1946
184.3651	-0.0202
184.5835	-0.098
184.8018	0.0398
185.0201	0.1757
185.2385	-0.0587
185.4568	-0.0942
185.6751	-0.2191
185.8934	0.0888
186.1117	0.1281
186.3299	0.0783
186.5482	0.2757
186.7664	-0.1721
186.9847	0.1063
187.2029	0.0155
187.4211	-0.0104
187.6393	0.1783
187.8575	-0.0826
188.0757	0.1876
188.2939	0.1326
188.512	0.0757
188.7302	-0.2284
188.9483	-0.0207
189.1665	-0.0041
189.3846	-0.3722
189.6027	0.169
189.8208	0.133
190.0389	0.4065
190.257	0.0839
190.475	0.0623
190.6931	0.3531
190.9111	0.3473
191.1292	0.1884
191.3472	0.2878
191.5652	0.2455
191.7832	0.1064
192.0012	0.4575
192.2192	0.2861
192.4371	0.5862
192.6551	0.3336
192.873	0.4427
193.091	0.3875
193.3089	0.413
193.5268	0.5523
193.7447	0.59
193.9626	0.4039
194.1805	0.6844
194.3984	0.7186
194.6162	0.4466
194.8341	0.6441
195.0519	0.5891
195.2697	0.4805
195.4875	0.4962
195.7054	0.5938
195.9231	0.5021
196.1409	0.6762
196.3587	0.642
196.5765	0.6581
196.7942	0.488
197.012	0.5713
197.2297	0.4729
197.4474	0.7306
197.6651	0.4759
197.8828	0.5552
198.1005	0.6531
198.3182	0.4802
198.5358	0.6251
198.7535	0.6723
198.9711	0.6893
199.1888	0.5331
199.4064	0.806
199.624	0.5934
199.8416	0.5373
200.0592	0.5517
200.2767	0.6049
200.4943	0.6719
200.7119	0.7091
200.9294	0.7618
201.1469	0.627
201.3645	0.5069
201.582	0.6913
201.7995	0.6421
202.017	0.5745
202.2344	0.6103
202.4519	0.6067
202.6694	0.6178
202.8868	0.6158
203.1042	0.6685
203.3217	0.6357
203.5391	0.5956
203.7565	0.6108
203.9739	0.6071
204.1913	0.5598
204.4086	0.7008
204.626	0.7227
204.8433	0.6086
205.0607	0.6132
205.278	0.5727
205.4953	0.5576
205.7126	0.6631
205.9299	0.7016
206.1472	0.6158
206.3644	0.6653
206.5817	0.6407
206.7989	0.7188
207.0162	0.6029
207.2334	0.6112
207.4506	0.6033
207.6678	0.6828
207.885	0.6228
208.1022	0.6306
208.3194	0.634
208.5365	0.5827
208.7537	0.6407
208.9708	0.547
209.1879	0.605
209.405	0.6175
209.6222	0.61
209.8392	0.5532
210.0563	0.564
210.2734	0.6699
210.4905	0.5975
210.7075	0.6274
210.9245	0.5896
211.1416	0.6048
211.3586	0.6497
211.5756	0.582
211.7926	0.6214
212.0096	0.5941
212.2265	0.5479
212.4435	0.5329
212.6604	0.606
212.8774	0.5325
213.0943	0.576
213.3112	0.5325
213.5281	0.5431
213.745	0.4955
213.9619	0.4885
214.1788	0.4072
214.3956	0.4414
214.6125	0.4574
214.8293	0.4454
215.0461	0.5046
215.2629	0.4583
215.4798	0.4189
215.6965	0.4318
215.9133	0.4586
216.1301	0.4156
216.3469	0.4075
216.5636	0.3975
216.7803	0.3873
216.9971	0.3903
217.2138	0.3493
217.4305	0.3463
217.6472	0.3166
217.8639	0.3741
218.0805	0.3123
218.2972	0.3283
218.5138	0.3095
218.7305	0.3121
218.9471	0.2981
219.1637	0.2774
219.3803	0.2641
219.5969	0.3088
219.8135	0.2449
220.0301	0.2874
220.2466	0.2561
220.4632	0.264
220.6797	0.2278
220.8962	0.2436
221.1127	0.2519
221.3292	0.2351
221.5457	0.238
221.7622	0.2167
221.9787	0.2532
222.1951	0.2305
222.4116	0.2555
222.628	0.252
222.8444	0.2823
223.0608	0.2558
223.2772	0.246
223.4936	0.2593
223.71	0.258
223.9264	0.2662
224.1427	0.2471
224.3591	0.2652
224.5754	0.2701
224.7917	0.2884
225.008	0.2642
225.2243	0.271
225.4406	0.2903
225.6569	0.2666
225.8732	0.2771
226.0894	0.2618
226.3057	0.2729
226.5219	0.2799
226.7381	0.2618
226.9543	0.2865
227.1705	0.29
227.3867	0.265
227.6029	0.321
227.8191	0.2889
228.0352	0.2817
228.2513	0.2989
228.4675	0.3011
228.6836	0.2953
228.8997	0.2722
229.1158	0.3157
229.3319	0.3094
229.548	0.3248
229.764	0.3167
229.9801	0.3218
230.1961	0.3403
230.4121	0.3149
230.6282	0.3358
230.8442	0.3229
231.0602	0.3474
231.2761	0.3471
231.4921	0.34
231.7081	0.3371
231.924	0.3509
232.14	0.3558
232.3559	0.3434
232.5718	0.3712
232.7877	0.3514
233.0036	0.3423
233.2195	0.3698
233.4353	0.3492
233.6512	0.3683
233.867	0.3487
234.0829	0.362
234.2987	0.3542
234.5145	0.3633
234.7303	0.3871
234.9461	0.3804
235.1619	0.3853
235.3776	0.3621
235.5934	0.3724
235.8091	0.3697
236.0249	0.3832
236.2406	0.3703
236.4563	0.391
236.672	0.3803
236.8877	0.3905
237.1034	0.3804
237.319	0.4064
237.5347	0.4015
237.7503	0.4043
237.966	0.4124
238.1816	0.3985
238.3972	0.3922
238.6128	0.4033
238.8284	0.4205
239.0439	0.4131
239.2595	0.3934
239.475	0.4156
239.6906	0.4045
239.9061	0.3929
240.1216	0.409
240.3371	0.3937
240.5526	0.3878
240.7681	0.4141
240.9836	0.3988
241.199	0.3959
241.4145	0.3813
241.6299	0.3777
241.8453	0.3746
242.0607	0.3767
242.2761	0.3585
242.4915	0.3515
242.7069	0.3566
242.9223	0.354
243.1376	0.3385
243.353	0.3395
243.5683	0.3324
243.7836	0.3177
243.9989	0.3182
244.2142	0.3123
244.4295	0.2978
244.6448	0.3056
244.86	0.288
245.0753	0.278
245.2905	0.2724
245.5057	0.2765
245.721	0.2671
245.9362	0.2584
246.1514	0.2605
246.3665	0.2568
246.5817	0.2429
246.7969	0.2435
247.012	0.233
247.2271	0.2231
247.4423	0.2503
247.6574	0.2247
247.8725	0.2296
248.0876	0.2218
248.3026	0.2216
248.5177	0.211
248.7328	0.2194
248.9478	0.1992
249.1628	0.2135
249.3779	0.2135
249.5929	0.1986
249.8079	0.2168
250.0228	0.1937
250.2378	0.1951
250.4528	0.2019
250.6677	0.1735
250.8827	0.1859
251.0976	0.1812
251.3125	0.1668
251.5274	0.1731
251.7423	0.1738
251.9572	0.189
252.172	0.1723
252.3869	0.1837
252.6017	0.1724
252.8166	0.1651
253.0314	0.1695
253.2462	0.1652
253.461	0.1794
253.6758	0.1659
253.8906	0.1625
254.1053	0.1602
254.3201	0.1647
254.5348	0.1711
254.7496	0.1697
254.9643	0.1762
255.179	0.1541
255.3937	0.1722
255.6083	0.1771
255.823	0.1751
256.0377	0.166
256.2523	0.1608
256.467	0.158
256.6816	0.1766
256.8962	0.1655
257.1108	0.157
257.3254	0.1597
257.54	0.1553
257.7545	0.1639
257.9691	0.1525
258.1836	0.1694
258.3981	0.1657
258.6127	0.1782
258.8272	0.166
259.0417	0.1702
259.2561	0.1575
259.4706	0.1504
259.6851	0.1618
259.8995	0.1579
260.114	0.1627
260.3284	0.1638
260.5428	0.1531
260.7572	0.1593
260.9716	0.1658
261.186	0.1581
261.4003	0.1565
261.6147	0.1637
261.829	0.1606
262.0433	0.162
262.2577	0.1495
262.472	0.1611
262.6863	0.1421
262.9005	0.1616
263.1148	0.159
263.3291	0.1462
263.5433	0.1681
263.7576	0.1653
263.9718	0.147
264.186	0.1552
264.4002	0.1547
264.6144	0.1521
264.8286	0.1601
265.0427	0.1567
265.2569	0.1495
265.471	0.1566
265.6851	0.1454
265.8993	0.1511
266.1134	0.1493
266.3275	0.1485
266.5415	0.1538
266.7556	0.1574
266.9697	0.1544
267.1837	0.1633
267.3978	0.1542
267.6118	0.1789
267.8258	0.1617
268.0398	0.1448
268.2538	0.1571
268.4677	0.1503
268.6817	0.1524
268.8957	0.1511
269.1096	0.1523
269.3235	0.1512
269.5374	0.147
269.7514	0.1425
269.9652	0.1376
270.1791	0.1477
270.393	0.1389
270.6068	0.1431
270.8207	0.1318
271.0345	0.1391
271.2483	0.1447
271.4622	0.1318
271.676	0.146
271.8897	0.131
272.1035	0.136
272.3173	0.1358
272.531	0.1361
272.7448	0.1276
272.9585	0.1309
273.1722	0.1445
273.3859	0.1369
273.5996	0.13
273.8133	0.1324
274.0269	0.1333
274.2406	0.1206
274.4542	0.1318
274.6679	0.1205
274.8815	0.1359
275.0951	0.1436
275.3087	0.1503
275.5223	0.1425
275.7358	0.1376
275.9494	0.1369
276.1629	0.1306
276.3765	0.1298
276.59	0.1354
276.8035	0.1343
277.017	0.1448
277.2305	0.1223
277.444	0.1435
277.6574	0.1225
277.8709	0.1338
278.0843	0.1329
278.2978	0.1361
278.5112	0.134
278.7246	0.1326
278.938	0.1444
279.1513	0.1504
279.3647	0.1394
279.5781	0.1463
279.7914	0.137
280.0047	0.1509
280.2181	0.141
280.4314	0.1394
280.6447	0.1411
280.8579	0.1466
281.0712	0.159
281.2845	0.1462
281.4977	0.1496
281.711	0.1375
281.9242	0.1453
282.1374	0.1456
282.3506	0.1396
282.5638	0.1484
282.7769	0.1311
282.9901	0.1518
283.2033	0.1589
283.4164	0.15
283.6295	0.1411
283.8426	0.1354
284.0557	0.1379
284.2688	0.1562
284.4819	0.1465
284.695	0.1509
284.908	0.1622
285.1211	0.149
285.3341	0.1481
285.5471	0.1524
285.7601	0.1606
285.9731	0.1488
286.1861	0.1456
286.3991	0.172
286.612	0.1691
286.825	0.1559
287.0379	0.1705
287.2508	0.1474
287.4637	0.154
287.6766	0.1573
287.8895	0.1566
288.1024	0.1661
288.3152	0.1662
288.5281	0.1576
288.7409	0.1599
288.9538	0.1618
289.1666	0.1692
289.3794	0.1596
289.5922	0.1459
289.8049	0.1616
290.0177	0.1552
290.2304	0.1637
290.4432	0.1707
290.6559	0.1664
290.8686	0.1719
291.0813	0.1776
291.294	0.1746
291.5067	0.176
291.7194	0.1649
291.932	0.1676
292.1447	0.1665
292.3573	0.1608
292.5699	0.1658
292.7825	0.1676
292.9951	0.1583
293.2077	0.1602
293.4203	0.1706
293.6328	0.1624
293.8454	0.1652
294.0579	0.1584
294.2704	0.1638
294.4829	0.1679
294.6954	0.1595
294.9079	0.1664
295.1204	0.1657
295.3328	0.1632
295.5453	0.1628
295.7577	0.1687
295.9701	0.1565
296.1825	0.1645
296.3949	0.1678
296.6073	0.1686
296.8197	0.1569
297.0321	0.1755
297.2444	0.1549
297.4567	0.1731
297.6691	0.1671
297.8814	0.1515
298.0937	0.1727
298.306	0.1669
298.5182	0.1647
298.7305	0.1723
298.9428	0.1541
299.155	0.1728
299.3672	0.1521
299.5794	0.1636
299.7916	0.1657
300.0038	0.1577
300.216	0.1697
300.4282	0.1766
300.6403	0.1521
300.8525	0.1747
301.0646	0.1612
301.2767	0.1715
301.4888	0.1619
301.7009	0.1651
301.913	0.1624
302.125	0.1742
302.3371	0.1525
302.5491	0.1701
302.7612	0.1725
302.9732	0.1663
303.1852	0.1668
303.3972	0.1639
303.6092	0.1641
303.8211	0.1491
304.0331	0.1572
304.245	0.1628
304.457	0.1569
304.6689	0.1554
304.8808	0.1669
305.0927	0.1509
305.3046	0.1519
305.5164	0.1538
305.7283	0.1467
305.9401	0.1451
306.152	0.1583
306.3638	0.1631
306.5756	0.1422
306.7874	0.15
306.9992	0.1537
307.2109	0.1352
307.4227	0.1372
307.6344	0.1428
307.8462	0.1285
308.0579	0.1273
308.2696	0.1362
308.4813	0.1192
308.693	0.1294
308.9046	0.1302
309.1163	0.1222
309.328	0.1177
309.5396	0.1178
309.7512	0.1208
309.9628	0.1216
310.1744	0.116
310.386	0.1122
310.5976	0.118
310.8091	0.114
311.0207	0.108
311.2322	0.1143
311.4437	0.1083
311.6552	0.1099
311.8667	0.1165
312.0782	0.0885
312.2897	0.0929
312.5012	0.114
312.7126	0.093
312.924	0.1004
313.1355	0.1078
313.3469	0.1075
313.5583	0.1154
313.7696	0.1089
313.981	0.0997
314.1924	0.0894
314.4037	0.0872
314.6151	0.0977
314.8264	0.0885
315.0377	0.0953
315.249	0.0953
315.4603	0.1069
315.6716	0.0992
315.8828	0.0929
316.0941	0.0994
316.3053	0.0831
316.5165	0.0889
316.7277	0.0836
316.9389	0.1059
317.1501	0.0865
317.3613	0.0963
317.5724	0.0859
317.7836	0.101
317.9947	0.0875
318.2058	0.0827
318.417	0.0858
318.6281	0.0801
318.8391	0.0882
319.0502	0.0803
319.2613	0.0961
319.4723	0.1002
319.6834	0.1026
319.8944	0.0835
320.1054	0.091
320.3164	0.0979
320.5274	0.0857
320.7383	0.0889
320.9493	0.0905
321.1602	0.1028
321.3712	0.0792
321.5821	0.0991
321.793	0.094
322.0039	0.0972
322.2148	0.0915
322.4257	0.0923
322.6365	0.099
322.8474	0.088
323.0582	0.0877
323.269	0.0925
323.4798	0.1094
323.6906	0.0947
323.9014	0.0826
324.1122	0.0904
324.3229	0.0899
324.5337	0.0945
324.7444	0.0775
324.9551	0.0891
325.1658	0.1073
325.3765	0.0861
325.5872	0.1018
325.7979	0.086
326.0085	0.0811
326.2192	0.0912
326.4298	0.0941
326.6404	0.0901
326.851	0.0893
327.0616	0.0873
327.2722	0.0994
327.4828	0.0954
327.6933	0.0928
327.9039	0.1001
328.1144	0.1006
328.3249	0.0935
328.5354	0.0884
328.7459	0.0929
328.9564	0.0857
329.1669	0.0968
329.3773	0.0871
329.5878	0.0999
329.7982	0.0927
330.0086	0.0908
330.219	0.0957
330.4294	0.1029
330.6398	0.1057
330.8502	0.0953
331.0605	0.1014
331.2708	0.111
331.4812	0.1107
331.6915	0.0943
331.9018	0.0979
332.1121	0.0923
332.3224	0.1044
332.5326	0.1012
332.7429	0.1013
332.9531	0.1088
333.1633	0.0978
333.3735	0.1098
333.5837	0.0964
333.7939	0.1019
334.0041	0.1114
334.2143	0.106
334.4244	0.0865
334.6346	0.0763
334.8447	0.1118
335.0548	0.1029
335.2649	0.0867
335.475	0.1135
335.685	0.0963
335.8951	0.1048
336.1051	0.0961
336.3152	0.1057
336.5252	0.0876
336.7352	0.0977
336.9452	0.097
337.1552	0.1084
337.3652	0.0935
337.5751	0.096
337.7851	0.1068
337.995	0.0973
338.2049	0.1021
338.4148	0.1024
338.6247	0.1063
338.8346	0.0935
339.0445	0.0947
339.2543	0.0924
339.4642	0.1022
339.674	0.0975
339.8838	0.0878
340.0936	0.1084
340.3034	0.1068
340.5132	0.108
340.7229	0.1011
340.9327	0.1097
341.1424	0.098
341.3522	0.1179
341.5619	0.1062
341.7716	0.1082
341.9813	0.1159
342.1909	0.1031
342.4006	0.1158
342.6102	0.12
342.8199	0.1192
343.0295	0.1118
343.2391	0.1127
343.4487	0.1135
343.6583	0.1213
343.8679	0.1133
344.0774	0.121
344.287	0.1204
344.4965	0.1202
344.706	0.1123
344.9155	0.1229
345.125	0.1341
345.3345	0.1254
345.544	0.114
345.7534	0.1346
345.9629	0.1215
346.1723	0.1221
346.3817	0.1207
346.5911	0.12
346.8005	0.1274
347.0099	0.1201
347.2193	0.1337
347.4286	0.1078
347.638	0.135
347.8473	0.1311
348.0566	0.1205
348.2659	0.1319
348.4752	0.124
348.6845	0.1294
348.8937	0.1145
349.103	0.1309
349.3122	0.1137
349.5214	0.1285
349.7306	0.1367
349.9398	0.1267
350.149	0.1338
350.3582	0.1337
350.5674	0.1347
350.7765	0.1348
350.9856	0.1343
351.1948	0.1305
351.4039	0.1232
351.613	0.13
351.822	0.1314
352.0311	0.1459
352.2402	0.1351
352.4492	0.1403
352.6582	0.1469
352.8672	0.1235
353.0762	0.1513
353.2852	0.1382
353.4942	0.1326
353.7032	0.1345
353.9121	0.119
354.1211	0.129
354.33	0.1459
354.5389	0.1464
354.7478	0.1355
354.9567	0.1354
355.1655	0.1334
355.3744	0.1456
355.5833	0.1608
355.7921	0.1675
356.0009	0.1517
356.2097	0.1625
356.4185	0.1589
356.6273	0.1575
356.8361	0.1683
357.0448	0.1473
357.2536	0.1493
357.4623	0.151
357.671	0.1669
357.8797	0.1729
358.0884	0.158
358.2971	0.1554
358.5057	0.1537
358.7144	0.1716
358.923	0.172
359.1316	0.1645
359.3402	0.1673
359.5488	0.1709
359.7574	0.1592
359.966	0.1611
360.1746	0.1711
360.3831	0.1912
360.5916	0.1649
360.8002	0.1571
361.0087	0.189
361.2172	0.174
361.4256	0.1818
361.6341	0.1812
361.8426	0.1771
362.051	0.1814
362.2594	0.1738
362.4678	0.165
362.6762	0.2043
362.8846	0.1858
363.093	0.1862
363.3014	0.1809
363.5097	0.1689
363.718	0.1774
363.9264	0.187
364.1347	0.1673
364.343	0.1836
364.5513	0.199
364.7595	0.2016
364.9678	0.1868
365.176	0.1806
365.3842	0.196
365.5925	0.1891
365.8007	0.2002
366.0089	0.1886
366.217	0.1901
366.4252	0.2101
366.6333	0.2224
366.8415	0.195
367.0496	0.1827
367.2577	0.2116
367.4658	0.2111
367.6739	0.195
367.882	0.2131
368.09	0.208
368.2981	0.2202
368.5061	0.2032
368.7141	0.2237
368.9221	0.208
369.1301	0.2034
369.3381	0.2127
369.5461	0.2319
369.754	0.1961
369.962	0.2149
370.1699	0.2308
370.3778	0.2189
370.5857	0.2195
370.7936	0.2166
371.0015	0.2127
371.2093	0.2303
371.4172	0.2248
371.625	0.2135
371.8328	0.2188
372.0406	0.2255
372.2484	0.2112
372.4562	0.2269
372.664	0.2244
372.8717	0.2254
373.0795	0.2009
373.2872	0.2308
373.4949	0.2316
373.7026	0.2344
373.9103	0.2253
374.118	0.2361
374.3256	0.2385
374.5333	0.225
374.7409	0.2251
374.9485	0.2506
375.1561	0.2424
375.3637	0.2305
375.5713	0.2366
375.7789	0.2278
375.9864	0.2372
376.194	0.241
376.4015	0.2376
376.609	0.2459
376.8165	0.2542
377.024	0.2352
377.2315	0.2321
377.4389	0.2481
377.6464	0.2382
377.8538	0.2412
378.0612	0.2472
378.2686	0.2404
378.476	0.2462
378.6834	0.2607
378.8908	0.2507
379.0981	0.2648
379.3055	0.2695
379.5128	0.2555
379.7201	0.2585
379.9274	0.2427
380.1347	0.2634
380.342	0.2657
380.5492	0.2306
380.7565	0.2748
380.9637	0.2695
381.1709	0.2605
381.3781	0.2571
381.5853	0.2638
381.7925	0.2737
381.9997	0.2906
382.2068	0.2603
382.4139	0.2759
382.6211	0.255
382.8282	0.2509
383.0353	0.2508
383.2424	0.2543
383.4494	0.2628
383.6565	0.2558
383.8635	0.254
384.0706	0.2609
384.2776	0.2705
384.4846	0.2479
384.6916	0.2868
384.8986	0.2536
385.1055	0.2555
385.3125	0.2737
385.5194	0.248
385.7263	0.2817
385.9333	0.2658
386.1402	0.2621
386.347	0.2744
386.5539	0.2434
386.7608	0.281
386.9676	0.2479
387.1744	0.2529
387.3813	0.2608
387.5881	0.2554
387.7948	0.2654
388.0016	0.2687
388.2084	0.2567
388.4151	0.2368
388.6219	0.2614
388.8286	0.2464
389.0353	0.2739
389.242	0.2588
389.4487	0.2619
389.6553	0.2361
389.862	0.2412
390.0686	0.2445
390.2753	0.2684
390.4819	0.2622
390.6885	0.2464
390.8951	0.275
391.1016	0.2543
391.3082	0.2417
391.5147	0.2588
391.7213	0.2707
391.9278	0.2384
392.1343	0.2404
392.3408	0.2508
392.5473	0.2408
392.7537	0.2333
392.9602	0.2576
393.1666	0.2467
393.373	0.2201
393.5794	0.2487
393.7858	0.2459
393.9922	0.2275
394.1986	0.2406
394.4049	0.2243
394.6113	0.25
394.8176	0.2211
395.0239	0.227
395.2302	0.2472
395.4365	0.2307
395.6428	0.2435
395.8491	0.2285
396.0553	0.2339
396.2615	0.2302
396.4678	0.2219
396.674	0.2159
396.8802	0.2253
397.0863	0.238
397.2925	0.2079
397.4987	0.2213
397.7048	0.2085
397.9109	0.2163
398.117	0.204
398.3231	0.2219
398.5292	0.2472
398.7353	0.2383
398.9413	0.2164
399.1474	0.2301
399.3534	0.208
399.5594	0.2204
399.7654	0.2395
399.9714	0.234
400.1774	0.2141
400.3833	0.2253
400.5893	0.2119
400.7952	0.2357
401.0011	0.2162
401.207	0.2262
401.4129	0.2272
401.6188	0.2369
401.8247	0.2365
402.0305	0.2112
402.2364	0.2325
402.4422	0.2291
402.648	0.2389
402.8538	0.2345
403.0596	0.2222
403.2654	0.2269
403.4711	0.2238
403.6768	0.2403
403.8826	0.2419
404.0883	0.2329
404.294	0.2274
404.4997	0.2166
404.7054	0.2283
404.911	0.2202
405.1167	0.2316
405.3223	0.2255
405.5279	0.2369
405.7335	0.257
405.9391	0.224
406.1447	0.2221
406.3502	0.2417
406.5558	0.2261
406.7613	0.232
406.9668	0.2359
407.1724	0.2048
407.3778	0.227
407.5833	0.2204
407.7888	0.2236
407.9942	0.23
408.1997	0.2333
408.4051	0.2224
408.6105	0.2321
408.8159	0.2209
409.0213	0.2148
409.2267	0.2345
409.432	0.2228
409.6374	0.2183
409.8427	0.2089
410.048	0.2225
410.2533	0.2203
410.4586	0.2194
410.6639	0.2068
410.8691	0.2049
411.0744	0.2277
411.2796	0.2015
411.4848	0.2105
411.69	0.2099
411.8952	0.231
412.1004	0.2194
412.3056	0.2478
412.5107	0.2205
412.7158	0.2222
412.921	0.2225
413.1261	0.2207
413.3312	0.2072
413.5362	0.2024
413.7413	0.2007
413.9464	0.202
414.1514	0.2125
414.3564	0.2181
414.5614	0.1992
414.7664	0.2381
414.9714	0.2375
415.1764	0.2149
415.3813	0.2283
415.5863	0.2181
415.7912	0.2132
415.9961	0.2189
416.201	0.2356
416.4059	0.2119
416.6108	0.2114
416.8156	0.2268
417.0205	0.206
417.2253	0.2165
417.4301	0.2317
417.6349	0.2032
417.8397	0.197
418.0445	0.2141
418.2492	0.202
418.454	0.2327
418.6587	0.2106
418.8634	0.2157
419.0681	0.1943
419.2728	0.2088
419.4775	0.1999
419.6822	0.1935
419.8868	0.1941
420.0915	0.216
420.2961	0.2059
420.5007	0.1922
420.7053	0.206
420.9099	0.2073
421.1144	0.2133
421.319	0.1807
421.5235	0.1944
421.728	0.2005
421.9325	0.2044
422.137	0.2069
422.3415	0.1984
422.546	0.1989
422.7504	0.1913
422.9549	0.209
423.1593	0.2212
423.3637	0.2121
423.5681	0.1971
423.7725	0.1879
423.9769	0.184
424.1812	0.1857
424.3856	0.1978
424.5899	0.1903
424.7942	0.1855
424.9985	0.1837
425.2028	0.1807
425.4071	0.2076
425.6113	0.1769
425.8156	0.1803
426.0198	0.1837
426.224	0.1785
426.4282	0.1934
