Data from MonoPyChalIsomerACN10uM340nmA_Absorbance_14-14-18-665.txt Node
Date: Fri Jul 05 14:14:18 BST 2024
User: LASERRRRR
Spectrometer: FLMT03099
Trigger mode: 0
Integration Time (sec): 1.000000E-1
Scans to average: 1
Electric dark correction enabled: true
Nonlinearity correction enabled: false
Boxcar width: 0
XAxis mode: Wavelengths
Number of Pixels in Spectrum: 3648
>>>>>Begin Spectral Data<<<<<
179.3399	-0.2607
179.5586	-0.2607
179.7771	-0.2607
179.9957	-0
180.2143	-0.098
180.4329	0.3247
180.6514	-0
180.8699	-0
181.0885	0.2962
181.307	1.1019
181.5255	-0
181.744	0.2236
181.9625	-0
182.181	-1.2654
182.3994	2.6571
182.6179	-0
182.8363	0.0097
183.0547	-0.1677
183.2732	0.0568
183.4916	0.0733
183.71	0.1772
183.9284	-0.1129
184.1467	-0.1926
184.3651	-0.2043
184.5835	0.0439
184.8018	-0.0209
185.0201	-0.1214
185.2385	0.1455
185.4568	0.1326
185.6751	0.2749
185.8934	0.4164
186.1117	-0.0486
186.3299	0.0553
186.5482	0.2478
186.7664	0.0012
186.9847	-0.0424
187.2029	0.0383
187.4211	0.1042
187.6393	-0.0143
187.8575	0.1749
188.0757	0.302
188.2939	0.1458
188.512	0.2726
188.7302	0.0714
188.9483	0.4928
189.1665	0.0008
189.3846	-0.0565
189.6027	0.1329
189.8208	0.0612
190.0389	-0.0302
190.257	0.2308
190.475	0.0722
190.6931	0.236
190.9111	1.278
191.1292	0.4003
191.3472	0.5799
191.5652	0.2781
191.7832	0.1664
192.0012	0.3871
192.2192	0.2914
192.4371	0.5832
192.6551	0.199
192.873	0.5411
193.091	0.2747
193.3089	0.451
193.5268	0.4103
193.7447	0.6179
193.9626	0.4991
194.1805	0.5886
194.3984	0.85
194.6162	0.4524
194.8341	0.4188
195.0519	0.5704
195.2697	0.6078
195.4875	0.5806
195.7054	0.6496
195.9231	0.5597
196.1409	0.7533
196.3587	0.7293
196.5765	0.6364
196.7942	0.5829
197.012	0.598
197.2297	0.4407
197.4474	0.7935
197.6651	0.4971
197.8828	0.5708
198.1005	0.7124
198.3182	0.6592
198.5358	0.8274
198.7535	0.4982
198.9711	0.5451
199.1888	0.6356
199.4064	0.6872
199.624	0.646
199.8416	0.5538
200.0592	0.5532
200.2767	0.6038
200.4943	0.6443
200.7119	0.8105
200.9294	0.7792
201.1469	0.6788
201.3645	0.7231
201.582	0.4755
201.7995	0.6585
202.017	0.603
202.2344	0.5545
202.4519	0.8127
202.6694	0.6604
202.8868	0.6083
203.1042	0.7796
203.3217	0.6496
203.5391	0.6502
203.7565	0.6331
203.9739	0.5775
204.1913	0.6325
204.4086	0.6547
204.626	0.7072
204.8433	0.672
205.0607	0.5971
205.278	0.5756
205.4953	0.5318
205.7126	0.7274
205.9299	0.7444
206.1472	0.7337
206.3644	0.7461
206.5817	0.7509
206.7989	0.7263
207.0162	0.6605
207.2334	0.6006
207.4506	0.5951
207.6678	0.6292
207.885	0.7246
208.1022	0.648
208.3194	0.638
208.5365	0.6621
208.7537	0.5867
208.9708	0.6046
209.1879	0.6252
209.405	0.6578
209.6222	0.7363
209.8392	0.6129
210.0563	0.6015
210.2734	0.5921
210.4905	0.5983
210.7075	0.5719
210.9245	0.6169
211.1416	0.6829
211.3586	0.5922
211.5756	0.5498
211.7926	0.6013
212.0096	0.5995
212.2265	0.5142
212.4435	0.5712
212.6604	0.6106
212.8774	0.6022
213.0943	0.5849
213.3112	0.5443
213.5281	0.5369
213.745	0.4802
213.9619	0.4753
214.1788	0.5092
214.3956	0.4721
214.6125	0.4266
214.8293	0.4546
215.0461	0.4674
215.2629	0.44
215.4798	0.4503
215.6965	0.4394
215.9133	0.413
216.1301	0.4134
216.3469	0.4593
216.5636	0.4031
216.7803	0.3549
216.9971	0.4096
217.2138	0.3864
217.4305	0.373
217.6472	0.3563
217.8639	0.4093
218.0805	0.3331
218.2972	0.3375
218.5138	0.316
218.7305	0.3015
218.9471	0.2987
219.1637	0.2797
219.3803	0.2798
219.5969	0.2953
219.8135	0.2499
220.0301	0.2633
220.2466	0.2897
220.4632	0.2795
220.6797	0.2417
220.8962	0.2278
221.1127	0.2548
221.3292	0.258
221.5457	0.2303
221.7622	0.2229
221.9787	0.2483
222.1951	0.2499
222.4116	0.256
222.628	0.254
222.8444	0.2604
223.0608	0.2492
223.2772	0.2603
223.4936	0.2739
223.71	0.2391
223.9264	0.275
224.1427	0.2665
224.3591	0.2433
224.5754	0.2592
224.7917	0.2774
225.008	0.2605
225.2243	0.2537
225.4406	0.2907
225.6569	0.2688
225.8732	0.2631
226.0894	0.2698
226.3057	0.2634
226.5219	0.2801
226.7381	0.2746
226.9543	0.2796
227.1705	0.2916
227.3867	0.2755
227.6029	0.2914
227.8191	0.299
228.0352	0.2963
228.2513	0.3159
228.4675	0.31
228.6836	0.3101
228.8997	0.2983
229.1158	0.3051
229.3319	0.3163
229.548	0.3255
229.764	0.3276
229.9801	0.3471
230.1961	0.3227
230.4121	0.3191
230.6282	0.3308
230.8442	0.34
231.0602	0.3409
231.2761	0.3475
231.4921	0.3472
231.7081	0.3625
231.924	0.3561
232.14	0.3439
232.3559	0.348
232.5718	0.3742
232.7877	0.347
233.0036	0.3417
233.2195	0.3597
233.4353	0.3622
233.6512	0.3882
233.867	0.3711
234.0829	0.3616
234.2987	0.3653
234.5145	0.3659
234.7303	0.3686
234.9461	0.3996
235.1619	0.391
235.3776	0.3796
235.5934	0.3797
235.8091	0.3881
236.0249	0.359
236.2406	0.3983
236.4563	0.3963
236.672	0.3944
236.8877	0.4061
237.1034	0.3984
237.319	0.3955
237.5347	0.4166
237.7503	0.4066
237.966	0.4088
238.1816	0.3984
238.3972	0.4099
238.6128	0.3628
238.8284	0.4185
239.0439	0.3984
239.2595	0.3848
239.475	0.4021
239.6906	0.4186
239.9061	0.4184
240.1216	0.3966
240.3371	0.4151
240.5526	0.406
240.7681	0.3962
240.9836	0.3954
241.199	0.3958
241.4145	0.3881
241.6299	0.3665
241.8453	0.3947
242.0607	0.3778
242.2761	0.3482
242.4915	0.3591
242.7069	0.3494
242.9223	0.3353
243.1376	0.3433
243.353	0.3467
243.5683	0.3549
243.7836	0.3326
243.9989	0.3259
244.2142	0.3006
244.4295	0.3045
244.6448	0.2898
244.86	0.3048
245.0753	0.2871
245.2905	0.2842
245.5057	0.2732
245.721	0.2766
245.9362	0.2646
246.1514	0.2669
246.3665	0.2417
246.5817	0.2587
246.7969	0.2443
247.012	0.2523
247.2271	0.2287
247.4423	0.2361
247.6574	0.2351
247.8725	0.2342
248.0876	0.21
248.3026	0.2251
248.5177	0.2005
248.7328	0.2083
248.9478	0.2049
249.1628	0.2086
249.3779	0.2182
249.5929	0.1954
249.8079	0.1975
250.0228	0.2205
250.2378	0.2031
250.4528	0.1924
250.6677	0.1983
250.8827	0.1944
251.0976	0.1972
251.3125	0.1838
251.5274	0.182
251.7423	0.1828
251.9572	0.187
252.172	0.1761
252.3869	0.1782
252.6017	0.1698
252.8166	0.1714
253.0314	0.1648
253.2462	0.1687
253.461	0.1697
253.6758	0.1709
253.8906	0.1788
254.1053	0.1683
254.3201	0.1696
254.5348	0.1731
254.7496	0.1799
254.9643	0.1589
255.179	0.1845
255.3937	0.1645
255.6083	0.1694
255.823	0.1711
256.0377	0.1547
256.2523	0.1704
256.467	0.1555
256.6816	0.1779
256.8962	0.1703
257.1108	0.1493
257.3254	0.1682
257.54	0.1637
257.7545	0.1742
257.9691	0.1702
258.1836	0.1649
258.3981	0.1763
258.6127	0.1691
258.8272	0.1523
259.0417	0.1523
259.2561	0.1588
259.4706	0.1559
259.6851	0.1642
259.8995	0.1564
260.114	0.1653
260.3284	0.1575
260.5428	0.149
260.7572	0.1654
260.9716	0.164
261.186	0.1448
261.4003	0.168
261.6147	0.1559
261.829	0.1591
262.0433	0.1681
262.2577	0.167
262.472	0.1664
262.6863	0.1562
262.9005	0.1512
263.1148	0.162
263.3291	0.1466
263.5433	0.1603
263.7576	0.1674
263.9718	0.1562
264.186	0.1574
264.4002	0.1453
264.6144	0.1778
264.8286	0.1675
265.0427	0.1624
265.2569	0.1597
265.471	0.1509
265.6851	0.1509
265.8993	0.1454
266.1134	0.15
266.3275	0.156
266.5415	0.1613
266.7556	0.1561
266.9697	0.1583
267.1837	0.1509
267.3978	0.163
267.6118	0.1665
267.8258	0.1821
268.0398	0.1418
268.2538	0.1571
268.4677	0.1503
268.6817	0.1505
268.8957	0.161
269.1096	0.161
269.3235	0.1514
269.5374	0.1504
269.7514	0.1436
269.9652	0.1453
270.1791	0.1548
270.393	0.1374
270.6068	0.1591
270.8207	0.1504
271.0345	0.1342
271.2483	0.1518
271.4622	0.1439
271.676	0.1573
271.8897	0.1223
272.1035	0.1306
272.3173	0.1293
272.531	0.1417
272.7448	0.1384
272.9585	0.132
273.1722	0.1501
273.3859	0.1539
273.5996	0.1276
273.8133	0.141
274.0269	0.1318
274.2406	0.134
274.4542	0.1333
274.6679	0.1286
274.8815	0.1363
275.0951	0.1333
275.3087	0.1472
275.5223	0.1452
275.7358	0.143
275.9494	0.1396
276.1629	0.1267
276.3765	0.1312
276.59	0.1401
276.8035	0.1318
277.017	0.1312
277.2305	0.1367
277.444	0.1535
277.6574	0.1242
277.8709	0.1512
278.0843	0.1328
278.2978	0.1457
278.5112	0.1263
278.7246	0.1408
278.938	0.1416
279.1513	0.1474
279.3647	0.1439
279.5781	0.144
279.7914	0.1461
280.0047	0.1582
280.2181	0.1412
280.4314	0.1506
280.6447	0.1448
280.8579	0.1373
281.0712	0.1442
281.2845	0.1465
281.4977	0.1429
281.711	0.1395
281.9242	0.1533
282.1374	0.16
282.3506	0.1416
282.5638	0.1548
282.7769	0.1419
282.9901	0.1377
283.2033	0.152
283.4164	0.164
283.6295	0.1359
283.8426	0.1467
284.0557	0.1476
284.2688	0.1696
284.4819	0.1545
284.695	0.1436
284.908	0.1492
285.1211	0.1504
285.3341	0.158
285.5471	0.1537
285.7601	0.1489
285.9731	0.1451
286.1861	0.1477
286.3991	0.1591
286.612	0.1617
286.825	0.157
287.0379	0.1673
287.2508	0.1628
287.4637	0.1624
287.6766	0.1536
287.8895	0.1637
288.1024	0.177
288.3152	0.1548
288.5281	0.1531
288.7409	0.153
288.9538	0.1563
289.1666	0.171
289.3794	0.1712
289.5922	0.1612
289.8049	0.1626
290.0177	0.1618
290.2304	0.1637
290.4432	0.1688
290.6559	0.1635
290.8686	0.1689
291.0813	0.1657
291.294	0.1687
291.5067	0.1731
291.7194	0.1665
291.932	0.1681
292.1447	0.1571
292.3573	0.1535
292.5699	0.1669
292.7825	0.1675
292.9951	0.1672
293.2077	0.1627
293.4203	0.1649
293.6328	0.1593
293.8454	0.1777
294.0579	0.1671
294.2704	0.1651
294.4829	0.1581
294.6954	0.1682
294.9079	0.1653
295.1204	0.1712
295.3328	0.1635
295.5453	0.1625
295.7577	0.1642
295.9701	0.1593
296.1825	0.163
296.3949	0.1525
296.6073	0.1581
296.8197	0.1609
297.0321	0.1624
297.2444	0.1563
297.4567	0.1765
297.6691	0.1663
297.8814	0.1587
298.0937	0.1647
298.306	0.1699
298.5182	0.1714
298.7305	0.1661
298.9428	0.1579
299.155	0.1743
299.3672	0.1591
299.5794	0.1474
299.7916	0.1709
300.0038	0.1693
300.216	0.1627
300.4282	0.1671
300.6403	0.1521
300.8525	0.1684
301.0646	0.1609
301.2767	0.1713
301.4888	0.1641
301.7009	0.1727
301.913	0.1605
302.125	0.1612
302.3371	0.1562
302.5491	0.1581
302.7612	0.1635
302.9732	0.1632
303.1852	0.1676
303.3972	0.1624
303.6092	0.157
303.8211	0.1586
304.0331	0.153
304.245	0.1586
304.457	0.1554
304.6689	0.1504
304.8808	0.1591
305.0927	0.1509
305.3046	0.15
305.5164	0.1491
305.7283	0.1547
305.9401	0.1419
306.152	0.1442
306.3638	0.157
306.5756	0.1454
306.7874	0.1475
306.9992	0.1572
307.2109	0.1446
307.4227	0.1305
307.6344	0.1463
307.8462	0.1358
308.0579	0.1395
308.2696	0.1298
308.4813	0.1251
308.693	0.1299
308.9046	0.1451
309.1163	0.1271
309.328	0.1223
309.5396	0.123
309.7512	0.1201
309.9628	0.1228
310.1744	0.1214
310.386	0.1278
310.5976	0.1108
310.8091	0.1118
311.0207	0.1201
311.2322	0.116
311.4437	0.1097
311.6552	0.1122
311.8667	0.1181
312.0782	0.0958
312.2897	0.1002
312.5012	0.094
312.7126	0.1017
312.924	0.0955
313.1355	0.1046
313.3469	0.1035
313.5583	0.0979
313.7696	0.1029
313.981	0.1089
314.1924	0.0943
314.4037	0.1017
314.6151	0.1138
314.8264	0.0887
315.0377	0.0924
315.249	0.103
315.4603	0.1018
315.6716	0.093
315.8828	0.0947
316.0941	0.0984
316.3053	0.0965
316.5165	0.0836
316.7277	0.0889
316.9389	0.1018
317.1501	0.1079
317.3613	0.1038
317.5724	0.089
317.7836	0.11
317.9947	0.0955
318.2058	0.0889
318.417	0.0945
318.6281	0.0818
318.8391	0.0936
319.0502	0.0865
319.2613	0.0884
319.4723	0.0973
319.6834	0.0851
319.8944	0.0901
320.1054	0.0909
320.3164	0.0933
320.5274	0.0937
320.7383	0.0807
320.9493	0.101
321.1602	0.1055
321.3712	0.0845
321.5821	0.0854
321.793	0.0875
322.0039	0.0883
322.2148	0.0914
322.4257	0.1034
322.6365	0.0924
322.8474	0.1025
323.0582	0.0871
323.269	0.1016
323.4798	0.1059
323.6906	0.1009
323.9014	0.0988
324.1122	0.1032
324.3229	0.0988
324.5337	0.0993
324.7444	0.0922
324.9551	0.1126
325.1658	0.0978
325.3765	0.102
325.5872	0.0909
325.7979	0.0962
326.0085	0.098
326.2192	0.099
326.4298	0.0926
326.6404	0.0965
326.851	0.0966
327.0616	0.0919
327.2722	0.1024
327.4828	0.1073
327.6933	0.0942
327.9039	0.1028
328.1144	0.1026
328.3249	0.1097
328.5354	0.0941
328.7459	0.0983
328.9564	0.1016
329.1669	0.1117
329.3773	0.1019
329.5878	0.0971
329.7982	0.1017
330.0086	0.0948
330.219	0.1046
330.4294	0.1045
330.6398	0.1004
330.8502	0.0946
331.0605	0.0936
331.2708	0.111
331.4812	0.1013
331.6915	0.1049
331.9018	0.1043
332.1121	0.0928
332.3224	0.0988
332.5326	0.1043
332.7429	0.0997
332.9531	0.1174
333.1633	0.1001
333.3735	0.1033
333.5837	0.0959
333.7939	0.0946
334.0041	0.1014
334.2143	0.1069
334.4244	0.099
334.6346	0.0886
334.8447	0.1099
335.0548	0.0933
335.2649	0.0941
335.475	0.1095
335.685	0.0956
335.8951	0.1129
336.1051	0.1084
336.3152	0.105
336.5252	0.1011
336.7352	0.1052
336.9452	0.1157
337.1552	0.1123
337.3652	0.0918
337.5751	0.0955
337.7851	0.1081
337.995	0.0948
338.2049	0.1082
338.4148	0.1009
338.6247	0.1019
338.8346	0.1028
339.0445	0.0909
339.2543	0.0994
339.4642	0.108
339.674	0.095
339.8838	0.1066
340.0936	0.1056
340.3034	0.1101
340.5132	0.1054
340.7229	0.1023
340.9327	0.1072
341.1424	0.0977
341.3522	0.1275
341.5619	0.1189
341.7716	0.1179
341.9813	0.1165
342.1909	0.1039
342.4006	0.1136
342.6102	0.1176
342.8199	0.1143
343.0295	0.1173
343.2391	0.1081
343.4487	0.122
343.6583	0.1037
343.8679	0.113
344.0774	0.1189
344.287	0.1168
344.4965	0.1271
344.706	0.1315
344.9155	0.1221
345.125	0.1188
345.3345	0.134
345.544	0.1209
345.7534	0.121
345.9629	0.1269
346.1723	0.1252
346.3817	0.1177
346.5911	0.1233
346.8005	0.1264
347.0099	0.1202
347.2193	0.1371
347.4286	0.1264
347.638	0.1224
347.8473	0.1316
348.0566	0.1329
348.2659	0.1194
348.4752	0.1223
348.6845	0.1257
348.8937	0.1235
349.103	0.1391
349.3122	0.127
349.5214	0.1318
349.7306	0.1355
349.9398	0.1271
350.149	0.1255
350.3582	0.132
350.5674	0.1487
350.7765	0.1385
350.9856	0.1326
351.1948	0.1339
351.4039	0.1127
351.613	0.1362
351.822	0.1368
352.0311	0.1434
352.2402	0.1317
352.4492	0.1437
352.6582	0.1404
352.8672	0.1483
353.0762	0.1548
353.2852	0.1419
353.4942	0.1385
353.7032	0.142
353.9121	0.1495
354.1211	0.1387
354.33	0.1496
354.5389	0.1466
354.7478	0.1382
354.9567	0.1448
355.1655	0.1426
355.3744	0.1474
355.5833	0.1537
355.7921	0.154
356.0009	0.146
356.2097	0.1689
356.4185	0.1663
356.6273	0.1604
356.8361	0.1648
357.0448	0.1568
357.2536	0.149
357.4623	0.1442
357.671	0.1573
357.8797	0.1608
358.0884	0.1711
358.2971	0.1508
358.5057	0.148
358.7144	0.1634
358.923	0.1615
359.1316	0.1784
359.3402	0.1604
359.5488	0.1653
359.7574	0.158
359.966	0.1811
360.1746	0.1652
360.3831	0.1813
360.5916	0.1648
360.8002	0.1714
361.0087	0.1895
361.2172	0.1687
361.4256	0.1738
361.6341	0.2042
361.8426	0.174
362.051	0.1677
362.2594	0.1797
362.4678	0.1807
362.6762	0.2017
362.8846	0.1761
363.093	0.1804
363.3014	0.174
363.5097	0.1739
363.718	0.19
363.9264	0.1748
364.1347	0.1894
364.343	0.1961
364.5513	0.2088
364.7595	0.2021
364.9678	0.1959
365.176	0.1917
365.3842	0.203
365.5925	0.1874
365.8007	0.1952
366.0089	0.2034
366.217	0.1806
366.4252	0.2034
366.6333	0.202
366.8415	0.1922
367.0496	0.1909
367.2577	0.1944
367.4658	0.211
367.6739	0.2053
367.882	0.1951
368.09	0.1904
368.2981	0.2213
368.5061	0.1942
368.7141	0.214
368.9221	0.2291
369.1301	0.2078
369.3381	0.1969
369.5461	0.2128
369.754	0.2128
369.962	0.2416
370.1699	0.2111
370.3778	0.2221
370.5857	0.2138
370.7936	0.2033
371.0015	0.2153
371.2093	0.2145
371.4172	0.2238
371.625	0.2252
371.8328	0.2072
372.0406	0.2273
372.2484	0.2221
372.4562	0.2309
372.664	0.222
372.8717	0.2343
373.0795	0.1964
373.2872	0.236
373.4949	0.2382
373.7026	0.2307
373.9103	0.2167
374.118	0.2391
374.3256	0.2084
374.5333	0.2296
374.7409	0.2058
374.9485	0.2272
375.1561	0.2239
375.3637	0.2386
375.5713	0.2376
375.7789	0.2358
375.9864	0.2562
376.194	0.2382
376.4015	0.2461
376.609	0.2438
376.8165	0.234
377.024	0.23
377.2315	0.2312
377.4389	0.2463
377.6464	0.2449
377.8538	0.2473
378.0612	0.2385
378.2686	0.2446
378.476	0.2671
378.6834	0.2649
378.8908	0.2383
379.0981	0.2479
379.3055	0.2646
379.5128	0.239
379.7201	0.2544
379.9274	0.2508
380.1347	0.2547
380.342	0.2803
380.5492	0.2476
380.7565	0.2625
380.9637	0.2588
381.1709	0.2487
381.3781	0.2577
381.5853	0.2771
381.7925	0.2602
381.9997	0.2552
382.2068	0.2686
382.4139	0.2566
382.6211	0.2457
382.8282	0.2444
383.0353	0.2567
383.2424	0.2457
383.4494	0.2673
383.6565	0.2585
383.8635	0.2679
384.0706	0.2777
384.2776	0.2752
384.4846	0.2579
384.6916	0.2545
384.8986	0.2393
385.1055	0.2602
385.3125	0.2596
385.5194	0.244
385.7263	0.2594
385.9333	0.2682
386.1402	0.2487
386.347	0.2665
386.5539	0.2433
386.7608	0.2649
386.9676	0.2456
387.1744	0.2579
387.3813	0.2577
387.5881	0.2744
387.7948	0.2477
388.0016	0.2583
388.2084	0.2461
388.4151	0.2435
388.6219	0.2509
388.8286	0.2591
389.0353	0.2704
389.242	0.2511
389.4487	0.2362
389.6553	0.2408
389.862	0.2368
390.0686	0.2626
390.2753	0.2626
390.4819	0.2462
390.6885	0.242
390.8951	0.2649
391.1016	0.2614
391.3082	0.2305
391.5147	0.2446
391.7213	0.2458
391.9278	0.2427
392.1343	0.2239
392.3408	0.2367
392.5473	0.2483
392.7537	0.2383
392.9602	0.2339
393.1666	0.2457
393.373	0.2351
393.5794	0.2643
393.7858	0.2417
393.9922	0.2342
394.1986	0.2392
394.4049	0.2497
394.6113	0.2121
394.8176	0.2142
395.0239	0.2316
395.2302	0.2329
395.4365	0.2241
395.6428	0.2279
395.8491	0.2352
396.0553	0.2419
396.2615	0.2346
396.4678	0.226
396.674	0.2021
396.8802	0.2206
397.0863	0.2463
397.2925	0.2071
397.4987	0.2095
397.7048	0.2215
397.9109	0.2335
398.117	0.214
398.3231	0.2297
398.5292	0.2227
398.7353	0.2325
398.9413	0.2319
399.1474	0.2096
399.3534	0.2149
399.5594	0.1972
399.7654	0.2339
399.9714	0.2262
400.1774	0.2131
400.3833	0.2325
400.5893	0.2157
400.7952	0.2273
401.0011	0.2248
401.207	0.2204
401.4129	0.2229
401.6188	0.2152
401.8247	0.2156
402.0305	0.2122
402.2364	0.2192
402.4422	0.2177
402.648	0.24
402.8538	0.2242
403.0596	0.2146
403.2654	0.2211
403.4711	0.2133
403.6768	0.223
403.8826	0.2293
404.0883	0.2304
404.294	0.2305
404.4997	0.2105
404.7054	0.213
404.911	0.2012
405.1167	0.2076
405.3223	0.2414
405.5279	0.2209
405.7335	0.2257
405.9391	0.2371
406.1447	0.2029
406.3502	0.2333
406.5558	0.225
406.7613	0.2312
406.9668	0.2444
407.1724	0.229
407.3778	0.2018
407.5833	0.2228
407.7888	0.2101
407.9942	0.2122
408.1997	0.232
408.4051	0.2106
408.6105	0.2242
408.8159	0.2189
409.0213	0.2116
409.2267	0.2257
409.432	0.2132
409.6374	0.2273
409.8427	0.2121
410.048	0.2121
410.2533	0.2127
410.4586	0.1993
410.6639	0.1996
410.8691	0.1983
411.0744	0.2152
411.2796	0.2131
411.4848	0.2376
411.69	0.1984
411.8952	0.238
412.1004	0.2083
412.3056	0.2163
412.5107	0.2257
412.7158	0.2243
412.921	0.2156
413.1261	0.2121
413.3312	0.203
413.5362	0.2125
413.7413	0.2114
413.9464	0.2142
414.1514	0.2088
414.3564	0.2062
414.5614	0.1917
414.7664	0.2068
414.9714	0.2232
415.1764	0.2191
415.3813	0.224
415.5863	0.2239
415.7912	0.224
415.9961	0.2182
416.201	0.2127
416.4059	0.228
416.6108	0.2063
416.8156	0.2197
417.0205	0.2061
417.2253	0.1948
417.4301	0.2073
417.6349	0.2081
417.8397	0.2025
418.0445	0.2186
418.2492	0.2063
418.454	0.2142
418.6587	0.218
418.8634	0.2117
419.0681	0.198
419.2728	0.1998
419.4775	0.1998
419.6822	0.1842
419.8868	0.1851
420.0915	0.2095
420.2961	0.1882
420.5007	0.1899
420.7053	0.1837
420.9099	0.2126
421.1144	0.1951
421.319	0.1845
421.5235	0.203
421.728	0.2026
421.9325	0.2004
422.137	0.2142
422.3415	0.1999
422.546	0.2081
422.7504	0.2032
422.9549	0.1983
423.1593	0.1749
423.3637	0.2002
423.5681	0.1793
423.7725	0.1724
423.9769	0.1695
424.1812	0.1836
424.3856	0.1933
424.5899	0.1742
424.7942	0.1753
424.9985	0.1761
425.2028	0.1799
425.4071	0.2087
425.6113	0.1546
425.8156	0.1752
426.0198	0.1909
426.224	0.1816
426.4282	0.1779
426.6324	0.1775
