Data from MonoPyChalIsomerACN10uM340nmA_Absorbance_14-14-18-965.txt Node
Date: Fri Jul 05 14:14:18 BST 2024
User: LASERRRRR
Spectrometer: FLMT03099
Trigger mode: 0
Integration Time (sec): 1.000000E-1
Scans to average: 1
Electric dark correction enabled: true
Nonlinearity correction enabled: false
Boxcar width: 0
XAxis mode: Wavelengths
Number of Pixels in Spectrum: 3648
>>>>>Begin Spectral Data<<<<<
179.3399	0.2686
179.5586	0.2686
179.7771	0.2686
179.9957	-0
180.2143	0.4167
180.4329	0.1202
180.6514	-0
180.8699	-0
181.0885	-0.0293
181.307	-0.2154
181.5255	-0
181.744	-0.7878
181.9625	-0.2269
182.181	-0
182.3994	-0
182.6179	-0
182.8363	0.1158
183.0547	-0.1043
183.2732	0.1306
183.4916	0.0048
183.71	0.0163
183.9284	0.0047
184.1467	0.0522
184.3651	0.0149
184.5835	-0.1726
184.8018	0.1329
185.0201	-0.164
185.2385	-0.1704
185.4568	0.1716
185.6751	-0.1066
185.8934	0.2621
186.1117	0.0824
186.3299	0.0546
186.5482	0.0894
186.7664	-0.1708
186.9847	-0.0787
187.2029	0.0485
187.4211	0.1875
187.6393	0.2704
187.8575	0.0065
188.0757	0.1985
188.2939	0.275
188.512	0.1417
188.7302	0.0005
188.9483	0.007
189.1665	0.019
189.3846	-0.1573
189.6027	0.1183
189.8208	0.3242
190.0389	0.0211
190.257	0.2668
190.475	0.2945
190.6931	0.0518
190.9111	0.3631
191.1292	0.1817
191.3472	0.3881
191.5652	0.3104
191.7832	0.2237
192.0012	0.3368
192.2192	0.4236
192.4371	0.5233
192.6551	0.2969
192.873	0.3799
193.091	0.385
193.3089	0.4266
193.5268	0.4451
193.7447	0.5328
193.9626	0.4619
194.1805	0.6224
194.3984	0.504
194.6162	0.589
194.8341	0.4905
195.0519	0.4639
195.2697	1.1684
195.4875	0.4977
195.7054	0.6535
195.9231	0.6926
196.1409	0.6152
196.3587	0.5928
196.5765	0.6129
196.7942	0.5939
197.012	0.4411
197.2297	0.5238
197.4474	0.7329
197.6651	0.5815
197.8828	0.5271
198.1005	0.5189
198.3182	0.5473
198.5358	0.6457
198.7535	0.6219
198.9711	0.5925
199.1888	0.6726
199.4064	0.6212
199.624	0.5493
199.8416	0.5458
200.0592	0.5375
200.2767	0.6144
200.4943	0.7145
200.7119	0.6788
200.9294	0.7671
201.1469	0.5276
201.3645	0.5569
201.582	0.5063
201.7995	0.5864
202.017	0.4815
202.2344	0.6557
202.4519	0.6854
202.6694	0.6415
202.8868	0.5887
203.1042	0.5717
203.3217	0.6698
203.5391	0.5836
203.7565	0.6904
203.9739	0.6
204.1913	0.626
204.4086	0.7224
204.626	0.6748
204.8433	0.617
205.0607	0.7143
205.278	0.6367
205.4953	0.6769
205.7126	0.5979
205.9299	0.8012
206.1472	0.6661
206.3644	0.6239
206.5817	0.6024
206.7989	0.6486
207.0162	0.6309
207.2334	0.6805
207.4506	0.6974
207.6678	0.6322
207.885	0.6355
208.1022	0.6345
208.3194	0.6153
208.5365	0.6239
208.7537	0.6188
208.9708	0.5367
209.1879	0.6499
209.405	0.684
209.6222	0.6502
209.8392	0.6978
210.0563	0.6157
210.2734	0.6
210.4905	0.5981
210.7075	0.6079
210.9245	0.596
211.1416	0.6624
211.3586	0.6228
211.5756	0.5573
211.7926	0.5893
212.0096	0.5993
212.2265	0.5744
212.4435	0.6297
212.6604	0.585
212.8774	0.5603
213.0943	0.589
213.3112	0.5637
213.5281	0.4898
213.745	0.5166
213.9619	0.5273
214.1788	0.4699
214.3956	0.4463
214.6125	0.4641
214.8293	0.4314
215.0461	0.4893
215.2629	0.4686
215.4798	0.4421
215.6965	0.4074
215.9133	0.4793
216.1301	0.3901
216.3469	0.4157
216.5636	0.4464
216.7803	0.3948
216.9971	0.3988
217.2138	0.401
217.4305	0.368
217.6472	0.3607
217.8639	0.3712
218.0805	0.3477
218.2972	0.3484
218.5138	0.308
218.7305	0.3079
218.9471	0.3408
219.1637	0.2885
219.3803	0.3064
219.5969	0.2697
219.8135	0.2447
220.0301	0.2775
220.2466	0.2791
220.4632	0.2568
220.6797	0.2479
220.8962	0.242
221.1127	0.2406
221.3292	0.2423
221.5457	0.2415
221.7622	0.2171
221.9787	0.2605
222.1951	0.2285
222.4116	0.2667
222.628	0.2662
222.8444	0.2613
223.0608	0.238
223.2772	0.2704
223.4936	0.271
223.71	0.2548
223.9264	0.2465
224.1427	0.2609
224.3591	0.2563
224.5754	0.2621
224.7917	0.249
225.008	0.2754
225.2243	0.2469
225.4406	0.2949
225.6569	0.2685
225.8732	0.2932
226.0894	0.2674
226.3057	0.2787
226.5219	0.2905
226.7381	0.2735
226.9543	0.2903
227.1705	0.285
227.3867	0.2632
227.6029	0.3089
227.8191	0.2772
228.0352	0.2946
228.2513	0.3183
228.4675	0.3072
228.6836	0.3269
228.8997	0.2862
229.1158	0.3164
229.3319	0.3081
229.548	0.3179
229.764	0.335
229.9801	0.327
230.1961	0.318
230.4121	0.3288
230.6282	0.3448
230.8442	0.3053
231.0602	0.3522
231.2761	0.3589
231.4921	0.3503
231.7081	0.3459
231.924	0.3474
232.14	0.3592
232.3559	0.3265
232.5718	0.3684
232.7877	0.3493
233.0036	0.3515
233.2195	0.3704
233.4353	0.3699
233.6512	0.3704
233.867	0.3519
234.0829	0.3586
234.2987	0.3448
234.5145	0.377
234.7303	0.3582
234.9461	0.3925
235.1619	0.3957
235.3776	0.3793
235.5934	0.3761
235.8091	0.373
236.0249	0.3757
236.2406	0.3749
236.4563	0.3941
236.672	0.3999
236.8877	0.3982
237.1034	0.3995
237.319	0.3797
237.5347	0.4059
237.7503	0.3903
237.966	0.4019
238.1816	0.4063
238.3972	0.4163
238.6128	0.3832
238.8284	0.4201
239.0439	0.425
239.2595	0.4032
239.475	0.3991
239.6906	0.4296
239.9061	0.4063
240.1216	0.3973
240.3371	0.4028
240.5526	0.3958
240.7681	0.414
240.9836	0.3966
241.199	0.3962
241.4145	0.4088
241.6299	0.3863
241.8453	0.3745
242.0607	0.3857
242.2761	0.3454
242.4915	0.3648
242.7069	0.3667
242.9223	0.3494
243.1376	0.3466
243.353	0.3444
243.5683	0.3446
243.7836	0.3159
243.9989	0.3159
244.2142	0.3025
244.4295	0.3267
244.6448	0.3039
244.86	0.3123
245.0753	0.2837
245.2905	0.2917
245.5057	0.2714
245.721	0.2613
245.9362	0.2758
246.1514	0.2862
246.3665	0.2439
246.5817	0.2487
246.7969	0.2532
247.012	0.2521
247.2271	0.248
247.4423	0.2517
247.6574	0.2406
247.8725	0.2372
248.0876	0.2204
248.3026	0.2263
248.5177	0.2129
248.7328	0.2116
248.9478	0.2107
249.1628	0.2175
249.3779	0.215
249.5929	0.2041
249.8079	0.2068
250.0228	0.1992
250.2378	0.197
250.4528	0.2077
250.6677	0.1744
250.8827	0.1931
251.0976	0.1951
251.3125	0.1888
251.5274	0.1726
251.7423	0.1855
251.9572	0.1717
252.172	0.181
252.3869	0.1757
252.6017	0.1694
252.8166	0.1683
253.0314	0.1652
253.2462	0.1654
253.461	0.1878
253.6758	0.1672
253.8906	0.1817
254.1053	0.1653
254.3201	0.1631
254.5348	0.1778
254.7496	0.1738
254.9643	0.1653
255.179	0.1756
255.3937	0.1566
255.6083	0.1621
255.823	0.1798
256.0377	0.1655
256.2523	0.1739
256.467	0.1511
256.6816	0.1716
256.8962	0.1649
257.1108	0.1576
257.3254	0.169
257.54	0.1681
257.7545	0.1736
257.9691	0.1768
258.1836	0.1697
258.3981	0.1766
258.6127	0.1806
258.8272	0.165
259.0417	0.158
259.2561	0.162
259.4706	0.1628
259.6851	0.1701
259.8995	0.1619
260.114	0.1582
260.3284	0.1593
260.5428	0.1582
260.7572	0.1543
260.9716	0.1663
261.186	0.1448
261.4003	0.1587
261.6147	0.1703
261.829	0.1601
262.0433	0.162
262.2577	0.1561
262.472	0.1633
262.6863	0.1606
262.9005	0.1611
263.1148	0.1695
263.3291	0.1366
263.5433	0.1604
263.7576	0.1669
263.9718	0.1644
264.186	0.1509
264.4002	0.164
264.6144	0.146
264.8286	0.1706
265.0427	0.1605
265.2569	0.1711
265.471	0.1517
265.6851	0.158
265.8993	0.1565
266.1134	0.138
266.3275	0.1502
266.5415	0.1534
266.7556	0.1618
266.9697	0.1618
267.1837	0.1623
267.3978	0.1553
267.6118	0.1619
267.8258	0.1702
268.0398	0.1522
268.2538	0.1714
268.4677	0.1596
268.6817	0.153
268.8957	0.1608
269.1096	0.1534
269.3235	0.1597
269.5374	0.1638
269.7514	0.1457
269.9652	0.1603
270.1791	0.1463
270.393	0.1524
270.6068	0.1494
270.8207	0.1491
271.0345	0.1347
271.2483	0.1445
271.4622	0.1386
271.676	0.1531
271.8897	0.1394
272.1035	0.1397
272.3173	0.147
272.531	0.1413
272.7448	0.1494
272.9585	0.1429
273.1722	0.1325
273.3859	0.1374
273.5996	0.1257
273.8133	0.1402
274.0269	0.1303
274.2406	0.1495
274.4542	0.1368
274.6679	0.1269
274.8815	0.1344
275.0951	0.1376
275.3087	0.1448
275.5223	0.1477
275.7358	0.1361
275.9494	0.1332
276.1629	0.1376
276.3765	0.1355
276.59	0.1392
276.8035	0.1402
277.017	0.1465
277.2305	0.1409
277.444	0.1475
277.6574	0.1386
277.8709	0.1436
278.0843	0.1407
278.2978	0.1321
278.5112	0.1285
278.7246	0.1375
278.938	0.1453
279.1513	0.1385
279.3647	0.1514
279.5781	0.145
279.7914	0.1441
280.0047	0.1502
280.2181	0.1445
280.4314	0.1495
280.6447	0.1461
280.8579	0.1485
281.0712	0.1455
281.2845	0.1418
281.4977	0.1548
281.711	0.1402
281.9242	0.1407
282.1374	0.1562
282.3506	0.1388
282.5638	0.1512
282.7769	0.1473
282.9901	0.1451
283.2033	0.1499
283.4164	0.1528
283.6295	0.1529
283.8426	0.1396
284.0557	0.1545
284.2688	0.157
284.4819	0.1612
284.695	0.1508
284.908	0.1582
285.1211	0.1491
285.3341	0.1449
285.5471	0.1633
285.7601	0.156
285.9731	0.152
286.1861	0.1478
286.3991	0.1621
286.612	0.1623
286.825	0.152
287.0379	0.1629
287.2508	0.1528
287.4637	0.1559
287.6766	0.1493
287.8895	0.1679
288.1024	0.1723
288.3152	0.1694
288.5281	0.153
288.7409	0.1785
288.9538	0.1608
289.1666	0.1508
289.3794	0.1644
289.5922	0.1478
289.8049	0.1608
290.0177	0.1611
290.2304	0.158
290.4432	0.1741
290.6559	0.1636
290.8686	0.1736
291.0813	0.1599
291.294	0.1617
291.5067	0.1709
291.7194	0.1621
291.932	0.1889
292.1447	0.1604
292.3573	0.1602
292.5699	0.1681
292.7825	0.1639
292.9951	0.1641
293.2077	0.1489
293.4203	0.1675
293.6328	0.1613
293.8454	0.1749
294.0579	0.16
294.2704	0.1572
294.4829	0.1567
294.6954	0.1616
294.9079	0.1623
295.1204	0.1676
295.3328	0.1648
295.5453	0.1665
295.7577	0.1693
295.9701	0.1562
296.1825	0.1657
296.3949	0.1575
296.6073	0.159
296.8197	0.1567
297.0321	0.1852
297.2444	0.1621
297.4567	0.1683
297.6691	0.1612
297.8814	0.1582
298.0937	0.172
298.306	0.1641
298.5182	0.168
298.7305	0.1655
298.9428	0.1659
299.155	0.1605
299.3672	0.1615
299.5794	0.1509
299.7916	0.1567
300.0038	0.1794
300.216	0.1726
300.4282	0.1586
300.6403	0.163
300.8525	0.1613
301.0646	0.1634
301.2767	0.1688
301.4888	0.1602
301.7009	0.1626
301.913	0.1657
302.125	0.1664
302.3371	0.1694
302.5491	0.1625
302.7612	0.1727
302.9732	0.1695
303.1852	0.1667
303.3972	0.1749
303.6092	0.1669
303.8211	0.1498
304.0331	0.1553
304.245	0.152
304.457	0.1604
304.6689	0.1572
304.8808	0.1516
305.0927	0.1541
305.3046	0.1442
305.5164	0.1701
305.7283	0.1476
305.9401	0.1576
306.152	0.1467
306.3638	0.1529
306.5756	0.1414
306.7874	0.1486
306.9992	0.1519
307.2109	0.1431
307.4227	0.1332
307.6344	0.127
307.8462	0.1391
308.0579	0.1291
308.2696	0.1376
308.4813	0.1315
308.693	0.1338
308.9046	0.1332
309.1163	0.1295
309.328	0.1254
309.5396	0.1208
309.7512	0.1148
309.9628	0.1256
310.1744	0.1164
310.386	0.1162
310.5976	0.1225
310.8091	0.111
311.0207	0.1177
311.2322	0.1178
311.4437	0.0978
311.6552	0.116
311.8667	0.1158
312.0782	0.1088
312.2897	0.1003
312.5012	0.1112
312.7126	0.1068
312.924	0.1015
313.1355	0.1136
313.3469	0.1087
313.5583	0.1014
313.7696	0.1112
313.981	0.1148
314.1924	0.099
314.4037	0.1005
314.6151	0.1084
314.8264	0.0981
315.0377	0.1031
315.249	0.0927
315.4603	0.098
315.6716	0.1003
315.8828	0.0903
316.0941	0.0878
316.3053	0.0912
316.5165	0.0887
316.7277	0.0846
316.9389	0.1069
317.1501	0.0849
317.3613	0.0975
317.5724	0.0784
317.7836	0.0967
317.9947	0.0946
318.2058	0.1024
318.417	0.0822
318.6281	0.0905
318.8391	0.0825
319.0502	0.0951
319.2613	0.0941
319.4723	0.1024
319.6834	0.0927
319.8944	0.085
320.1054	0.0922
320.3164	0.0936
320.5274	0.087
320.7383	0.0916
320.9493	0.0913
321.1602	0.1085
321.3712	0.0879
321.5821	0.0979
321.793	0.0892
322.0039	0.1041
322.2148	0.0889
322.4257	0.1018
322.6365	0.0925
322.8474	0.1037
323.0582	0.0835
323.269	0.0954
323.4798	0.1054
323.6906	0.0969
323.9014	0.1004
324.1122	0.1036
324.3229	0.0882
324.5337	0.0996
324.7444	0.0932
324.9551	0.107
325.1658	0.0985
325.3765	0.1025
325.5872	0.0948
325.7979	0.1026
326.0085	0.0953
326.2192	0.0961
326.4298	0.1137
326.6404	0.0887
326.851	0.0842
327.0616	0.0783
327.2722	0.0981
327.4828	0.1021
327.6933	0.086
327.9039	0.1033
328.1144	0.0968
328.3249	0.1018
328.5354	0.097
328.7459	0.1012
328.9564	0.0958
329.1669	0.0928
329.3773	0.0982
329.5878	0.0992
329.7982	0.0923
330.0086	0.1027
330.219	0.0989
330.4294	0.0961
330.6398	0.0982
330.8502	0.0996
331.0605	0.1035
331.2708	0.0997
331.4812	0.0997
331.6915	0.0902
331.9018	0.1022
332.1121	0.0952
332.3224	0.0979
332.5326	0.1035
332.7429	0.1032
332.9531	0.1132
333.1633	0.1154
333.3735	0.0959
333.5837	0.1035
333.7939	0.0903
334.0041	0.1112
334.2143	0.1102
334.4244	0.1022
334.6346	0.0966
334.8447	0.1152
335.0548	0.1021
335.2649	0.104
335.475	0.1129
335.685	0.0996
335.8951	0.1148
336.1051	0.1044
336.3152	0.1089
336.5252	0.0961
336.7352	0.1093
336.9452	0.1154
337.1552	0.1211
337.3652	0.0927
337.5751	0.1049
337.7851	0.1084
337.995	0.1013
338.2049	0.1046
338.4148	0.1087
338.6247	0.108
338.8346	0.1033
339.0445	0.0959
339.2543	0.0934
339.4642	0.0989
339.674	0.0937
339.8838	0.1107
340.0936	0.0942
340.3034	0.1248
340.5132	0.1197
340.7229	0.1102
340.9327	0.1046
341.1424	0.0985
341.3522	0.1265
341.5619	0.1152
341.7716	0.1151
341.9813	0.1127
342.1909	0.1042
342.4006	0.1112
342.6102	0.1222
342.8199	0.1148
343.0295	0.1044
343.2391	0.1303
343.4487	0.1262
343.6583	0.1165
343.8679	0.1224
344.0774	0.1143
344.287	0.1177
344.4965	0.1153
344.706	0.1238
344.9155	0.1105
345.125	0.1231
345.3345	0.1249
345.544	0.1285
345.7534	0.1257
345.9629	0.1146
346.1723	0.1256
346.3817	0.1232
346.5911	0.1241
346.8005	0.1316
347.0099	0.1227
347.2193	0.1294
347.4286	0.1195
347.638	0.1351
347.8473	0.132
348.0566	0.1171
348.2659	0.1337
348.4752	0.1253
348.6845	0.1185
348.8937	0.1204
349.103	0.1337
349.3122	0.1273
349.5214	0.1301
349.7306	0.1313
349.9398	0.1363
350.149	0.1319
350.3582	0.1275
350.5674	0.1551
350.7765	0.1367
350.9856	0.1382
351.1948	0.1257
351.4039	0.136
351.613	0.1225
351.822	0.139
352.0311	0.1524
352.2402	0.1493
352.4492	0.1389
352.6582	0.1335
352.8672	0.1371
353.0762	0.1563
353.2852	0.1445
353.4942	0.1295
353.7032	0.153
353.9121	0.1398
354.1211	0.1595
354.33	0.1506
354.5389	0.1625
354.7478	0.1423
354.9567	0.1516
355.1655	0.1234
355.3744	0.1495
355.5833	0.1595
355.7921	0.1583
356.0009	0.1621
356.2097	0.1666
356.4185	0.152
356.6273	0.1572
356.8361	0.159
357.0448	0.1598
357.2536	0.1617
357.4623	0.1536
357.671	0.1528
357.8797	0.1648
358.0884	0.1681
358.2971	0.1651
358.5057	0.169
358.7144	0.1625
358.923	0.166
359.1316	0.1696
359.3402	0.1658
359.5488	0.1696
359.7574	0.1549
359.966	0.1709
360.1746	0.1758
360.3831	0.17
360.5916	0.1633
360.8002	0.1639
361.0087	0.1704
361.2172	0.1799
361.4256	0.1921
361.6341	0.1871
361.8426	0.1868
362.051	0.1764
362.2594	0.1847
362.4678	0.1883
362.6762	0.199
362.8846	0.1857
363.093	0.18
363.3014	0.1768
363.5097	0.1768
363.718	0.1894
363.9264	0.1852
364.1347	0.1782
364.343	0.196
364.5513	0.2036
364.7595	0.2072
364.9678	0.1927
365.176	0.1907
365.3842	0.1949
365.5925	0.1962
365.8007	0.1952
366.0089	0.2102
366.217	0.1963
366.4252	0.2085
366.6333	0.2146
366.8415	0.1891
367.0496	0.2069
367.2577	0.2111
367.4658	0.2136
367.6739	0.2128
367.882	0.2113
368.09	0.1915
368.2981	0.2003
368.5061	0.2222
368.7141	0.2185
368.9221	0.2211
369.1301	0.2014
369.3381	0.2139
369.5461	0.2183
369.754	0.2175
369.962	0.22
370.1699	0.2173
370.3778	0.228
370.5857	0.2078
370.7936	0.22
371.0015	0.2001
371.2093	0.2104
371.4172	0.2217
371.625	0.2115
371.8328	0.2033
372.0406	0.2188
372.2484	0.2268
372.4562	0.228
372.664	0.2179
372.8717	0.2445
373.0795	0.201
373.2872	0.2292
373.4949	0.2173
373.7026	0.2309
373.9103	0.2485
374.118	0.2362
374.3256	0.2162
374.5333	0.2219
374.7409	0.239
374.9485	0.238
375.1561	0.2311
375.3637	0.2282
375.5713	0.243
375.7789	0.231
375.9864	0.226
376.194	0.2389
376.4015	0.2474
376.609	0.2622
376.8165	0.234
377.024	0.2241
377.2315	0.2165
377.4389	0.2465
377.6464	0.2468
377.8538	0.2473
378.0612	0.254
378.2686	0.2528
378.476	0.2627
378.6834	0.2569
378.8908	0.2477
379.0981	0.2407
379.3055	0.2452
379.5128	0.2429
379.7201	0.2592
379.9274	0.2473
380.1347	0.2586
380.342	0.2707
380.5492	0.2495
380.7565	0.2427
380.9637	0.2642
381.1709	0.2469
381.3781	0.2544
381.5853	0.2567
381.7925	0.2672
381.9997	0.2569
382.2068	0.2658
382.4139	0.2559
382.6211	0.2537
382.8282	0.2412
383.0353	0.2498
383.2424	0.2583
383.4494	0.2588
383.6565	0.2538
383.8635	0.2725
384.0706	0.2656
384.2776	0.2783
384.4846	0.2379
384.6916	0.2857
384.8986	0.2442
385.1055	0.2674
385.3125	0.2638
385.5194	0.2376
385.7263	0.2813
385.9333	0.2825
386.1402	0.2426
386.347	0.2534
386.5539	0.2547
386.7608	0.2713
386.9676	0.2518
387.1744	0.2697
387.3813	0.2444
387.5881	0.264
387.7948	0.252
388.0016	0.2494
388.2084	0.2495
388.4151	0.2488
388.6219	0.2557
388.8286	0.2531
389.0353	0.2738
389.242	0.2776
389.4487	0.2357
389.6553	0.2469
389.862	0.2482
390.0686	0.2431
390.2753	0.2585
390.4819	0.241
390.6885	0.2523
390.8951	0.2507
391.1016	0.2308
391.3082	0.2401
391.5147	0.2408
391.7213	0.2388
391.9278	0.2436
392.1343	0.2367
392.3408	0.2488
392.5473	0.2456
392.7537	0.2357
392.9602	0.2383
393.1666	0.2309
393.373	0.2444
393.5794	0.2526
393.7858	0.2385
393.9922	0.2278
394.1986	0.2567
394.4049	0.2272
394.6113	0.2106
394.8176	0.2359
395.0239	0.2225
395.2302	0.2368
395.4365	0.2287
395.6428	0.2312
395.8491	0.2308
396.0553	0.2252
396.2615	0.2211
396.4678	0.237
396.674	0.2067
396.8802	0.2101
397.0863	0.2236
397.2925	0.2169
397.4987	0.2163
397.7048	0.2287
397.9109	0.213
398.117	0.2222
398.3231	0.222
398.5292	0.2276
398.7353	0.2464
398.9413	0.2267
399.1474	0.2254
399.3534	0.2145
399.5594	0.1961
399.7654	0.226
399.9714	0.2036
400.1774	0.221
400.3833	0.2186
400.5893	0.2113
400.7952	0.2154
401.0011	0.217
401.207	0.2357
401.4129	0.2236
401.6188	0.2108
401.8247	0.2102
402.0305	0.2014
402.2364	0.2208
402.4422	0.2236
402.648	0.2091
402.8538	0.2306
403.0596	0.2055
403.2654	0.2151
403.4711	0.2067
403.6768	0.2119
403.8826	0.2209
404.0883	0.2081
404.294	0.2245
404.4997	0.2242
404.7054	0.2186
404.911	0.2017
405.1167	0.2223
405.3223	0.2165
405.5279	0.2328
405.7335	0.24
405.9391	0.2218
406.1447	0.2072
406.3502	0.2255
406.5558	0.2289
406.7613	0.219
406.9668	0.1986
407.1724	0.2061
407.3778	0.2099
407.5833	0.2061
407.7888	0.1987
407.9942	0.2357
408.1997	0.223
408.4051	0.2309
408.6105	0.2214
408.8159	0.205
409.0213	0.2222
409.2267	0.2331
409.432	0.2035
409.6374	0.2346
409.8427	0.2042
410.048	0.2218
410.2533	0.2083
410.4586	0.2264
410.6639	0.1998
410.8691	0.2129
411.0744	0.2244
411.2796	0.2309
411.4848	0.2299
411.69	0.2136
411.8952	0.2245
412.1004	0.2213
412.3056	0.2253
412.5107	0.2083
412.7158	0.2385
412.921	0.2195
413.1261	0.2213
413.3312	0.2124
413.5362	0.21
413.7413	0.2128
413.9464	0.2045
414.1514	0.2207
414.3564	0.193
414.5614	0.1972
414.7664	0.2025
414.9714	0.2125
415.1764	0.2068
415.3813	0.2067
415.5863	0.2254
415.7912	0.2089
415.9961	0.2177
416.201	0.2029
416.4059	0.22
416.6108	0.2126
416.8156	0.2251
417.0205	0.2081
417.2253	0.2192
417.4301	0.2301
417.6349	0.1818
417.8397	0.1926
418.0445	0.2251
418.2492	0.2132
418.454	0.1929
418.6587	0.2033
418.8634	0.2145
419.0681	0.1936
419.2728	0.19
419.4775	0.212
419.6822	0.1951
419.8868	0.174
420.0915	0.2075
420.2961	0.1906
420.5007	0.191
420.7053	0.2072
420.9099	0.2043
421.1144	0.1932
421.319	0.1965
421.5235	0.1901
421.728	0.1951
421.9325	0.187
422.137	0.2132
422.3415	0.1985
422.546	0.1963
422.7504	0.1903
422.9549	0.2024
423.1593	0.1901
423.3637	0.1932
423.5681	0.1873
423.7725	0.1816
423.9769	0.1864
424.1812	0.1798
424.3856	0.1687
424.5899	0.1813
424.7942	0.1771
424.9985	0.1836
425.2028	0.1794
425.4071	0.1997
425.6113	0.1606
425.8156	0.1963
426.0198	0.1873
426.224	0.1631
426.4282	0.1694
426.6324	0.1789
