Data from MonoPyChalIsomerACN10uM410nmA_Absorbance_14-53-31-873.txt Node
Date: Fri Jul 05 14:53:31 BST 2024
User: LASERRRRR
Spectrometer: FLMT03099
Trigger mode: 0
Integration Time (sec): 1.000000E-1
Scans to average: 1
Electric dark correction enabled: true
Nonlinearity correction enabled: false
Boxcar width: 0
XAxis mode: Wavelengths
Number of Pixels in Spectrum: 3648
>>>>>Begin Spectral Data<<<<<
179.3399	-0.4609
179.5586	-0.4609
179.7771	-0.4609
179.9957	0.6508
180.2143	0.0414
180.4329	-0.1349
180.6514	-0
180.8699	-0
181.0885	-0.1013
181.307	0.2976
181.5255	-0
181.744	0.0107
181.9625	-0.6804
182.181	-0
182.3994	0.1519
182.6179	-0
182.8363	-0.0691
183.0547	0.226
183.2732	0.0157
183.4916	0.1208
183.71	0.1576
183.9284	0.0307
184.1467	-0.0519
184.3651	0.039
184.5835	0.0038
184.8018	-0.0836
185.0201	0.079
185.2385	0.1795
185.4568	0.1494
185.6751	0.4723
185.8934	0.2035
186.1117	0.1656
186.3299	0.145
186.5482	0.1048
186.7664	-0.0668
186.9847	0.1073
187.2029	0.1102
187.4211	0.2217
187.6393	0.3311
187.8575	0.1213
188.0757	0.2506
188.2939	0.148
188.512	0.2377
188.7302	0.1684
188.9483	0.1404
189.1665	0.2875
189.3846	-0
189.6027	0.1907
189.8208	0.2226
190.0389	0.2581
190.257	0.1995
190.475	0.4023
190.6931	0.3471
190.9111	0.5202
191.1292	0.3458
191.3472	0.5343
191.5652	0.341
191.7832	0.3807
192.0012	0.7961
192.2192	0.3249
192.4371	1.0071
192.6551	0.4231
192.873	0.473
193.091	0.3798
193.3089	1.2535
193.5268	0.8023
193.7447	0.6107
193.9626	0.5413
194.1805	0.9445
194.3984	0.811
194.6162	0.4813
194.8341	0.5994
195.0519	0.7695
195.2697	0.5807
195.4875	0.7474
195.7054	0.5945
195.9231	0.5329
196.1409	0.6469
196.3587	0.5998
196.5765	0.601
196.7942	0.7254
197.012	0.7407
197.2297	0.6792
197.4474	0.6601
197.6651	0.7792
197.8828	0.6749
198.1005	0.5621
198.3182	0.7419
198.5358	0.7919
198.7535	0.7759
198.9711	0.6456
199.1888	0.6225
199.4064	0.8612
199.624	0.5782
199.8416	0.579
200.0592	0.8224
200.2767	0.6578
200.4943	0.7377
200.7119	0.672
200.9294	0.6369
201.1469	0.5506
201.3645	0.5301
201.582	0.514
201.7995	0.6573
202.017	0.5919
202.2344	0.7074
202.4519	0.7627
202.6694	0.6813
202.8868	0.686
203.1042	0.8842
203.3217	0.6561
203.5391	0.7974
203.7565	0.601
203.9739	0.6236
204.1913	0.693
204.4086	0.746
204.626	0.7538
204.8433	0.7118
205.0607	0.6354
205.278	0.632
205.4953	0.6856
205.7126	0.7805
205.9299	0.7458
206.1472	0.8205
206.3644	0.6906
206.5817	0.7382
206.7989	0.7794
207.0162	0.7374
207.2334	0.6182
207.4506	0.682
207.6678	0.7102
207.885	0.8006
208.1022	0.6895
208.3194	0.7426
208.5365	0.679
208.7537	0.6967
208.9708	0.6356
209.1879	0.6675
209.405	0.7526
209.6222	0.6666
209.8392	0.7116
210.0563	0.6139
210.2734	0.6654
210.4905	0.6137
210.7075	0.6675
210.9245	0.5898
211.1416	0.7018
211.3586	0.6457
211.5756	0.6076
211.7926	0.602
212.0096	0.5659
212.2265	0.5377
212.4435	0.5557
212.6604	0.601
212.8774	0.5837
213.0943	0.6095
213.3112	0.5923
213.5281	0.5491
213.745	0.4815
213.9619	0.5158
214.1788	0.4843
214.3956	0.4686
214.6125	0.4777
214.8293	0.4284
215.0461	0.4851
215.2629	0.4641
215.4798	0.4791
215.6965	0.4135
215.9133	0.4844
216.1301	0.445
216.3469	0.4476
216.5636	0.3866
216.7803	0.3874
216.9971	0.4223
217.2138	0.4015
217.4305	0.3957
217.6472	0.3657
217.8639	0.4067
218.0805	0.3134
218.2972	0.3279
218.5138	0.3212
218.7305	0.3301
218.9471	0.3147
219.1637	0.285
219.3803	0.2865
219.5969	0.3072
219.8135	0.2616
220.0301	0.269
220.2466	0.2673
220.4632	0.2644
220.6797	0.2235
220.8962	0.246
221.1127	0.2438
221.3292	0.2372
221.5457	0.2499
221.7622	0.223
221.9787	0.2588
222.1951	0.2407
222.4116	0.2587
222.628	0.2372
222.8444	0.2629
223.0608	0.2516
223.2772	0.2279
223.4936	0.2656
223.71	0.248
223.9264	0.2583
224.1427	0.2442
224.3591	0.2444
224.5754	0.2791
224.7917	0.2524
225.008	0.2502
225.2243	0.251
225.4406	0.2936
225.6569	0.259
225.8732	0.2549
226.0894	0.2679
226.3057	0.2505
226.5219	0.2674
226.7381	0.2529
226.9543	0.277
227.1705	0.2809
227.3867	0.2639
227.6029	0.2941
227.8191	0.2852
228.0352	0.2806
228.2513	0.3256
228.4675	0.296
228.6836	0.3162
228.8997	0.2894
229.1158	0.3138
229.3319	0.3019
229.548	0.3093
229.764	0.3207
229.9801	0.3155
230.1961	0.3032
230.4121	0.3195
230.6282	0.3237
230.8442	0.3116
231.0602	0.3434
231.2761	0.3468
231.4921	0.335
231.7081	0.3587
231.924	0.3532
232.14	0.3465
232.3559	0.3479
232.5718	0.3758
232.7877	0.3362
233.0036	0.3312
233.2195	0.3373
233.4353	0.3457
233.6512	0.3464
233.867	0.3593
234.0829	0.3524
234.2987	0.3486
234.5145	0.3652
234.7303	0.3647
234.9461	0.3829
235.1619	0.3563
235.3776	0.3801
235.5934	0.3705
235.8091	0.3676
236.0249	0.3584
236.2406	0.3936
236.4563	0.379
236.672	0.3897
236.8877	0.3924
237.1034	0.3989
237.319	0.3973
237.5347	0.3929
237.7503	0.3794
237.966	0.3851
238.1816	0.4073
238.3972	0.3938
238.6128	0.3968
238.8284	0.3972
239.0439	0.4076
239.2595	0.4024
239.475	0.4081
239.6906	0.3989
239.9061	0.4121
240.1216	0.4049
240.3371	0.3958
240.5526	0.402
240.7681	0.41
240.9836	0.395
241.199	0.4017
241.4145	0.3777
241.6299	0.3795
241.8453	0.3943
242.0607	0.3881
242.2761	0.3781
242.4915	0.3753
242.7069	0.3825
242.9223	0.3664
243.1376	0.3736
243.353	0.355
243.5683	0.3646
243.7836	0.3502
243.9989	0.3548
244.2142	0.3333
244.4295	0.3423
244.6448	0.3356
244.86	0.3111
245.0753	0.3139
245.2905	0.3109
245.5057	0.2961
245.721	0.2977
245.9362	0.287
246.1514	0.3001
246.3665	0.2769
246.5817	0.2731
246.7969	0.2721
247.012	0.2675
247.2271	0.2642
247.4423	0.2663
247.6574	0.2652
247.8725	0.2549
248.0876	0.252
248.3026	0.2427
248.5177	0.2349
248.7328	0.2296
248.9478	0.2256
249.1628	0.2213
249.3779	0.2245
249.5929	0.2186
249.8079	0.233
250.0228	0.2124
250.2378	0.1971
250.4528	0.2188
250.6677	0.1999
250.8827	0.2052
251.0976	0.21
251.3125	0.1986
251.5274	0.1835
251.7423	0.1909
251.9572	0.2044
252.172	0.1887
252.3869	0.1839
252.6017	0.1999
252.8166	0.1745
253.0314	0.1656
253.2462	0.1761
253.461	0.1849
253.6758	0.1816
253.8906	0.1749
254.1053	0.1655
254.3201	0.1701
254.5348	0.1832
254.7496	0.1739
254.9643	0.1725
255.179	0.1667
255.3937	0.1531
255.6083	0.1734
255.823	0.1789
256.0377	0.16
256.2523	0.1733
256.467	0.1446
256.6816	0.1723
256.8962	0.1611
257.1108	0.1605
257.3254	0.1758
257.54	0.163
257.7545	0.1753
257.9691	0.1686
258.1836	0.1733
258.3981	0.1669
258.6127	0.1778
258.8272	0.158
259.0417	0.1597
259.2561	0.1687
259.4706	0.1598
259.6851	0.1708
259.8995	0.1668
260.114	0.1622
260.3284	0.179
260.5428	0.159
260.7572	0.1696
260.9716	0.1654
261.186	0.1604
261.4003	0.1687
261.6147	0.161
261.829	0.1694
262.0433	0.1655
262.2577	0.1694
262.472	0.1687
262.6863	0.1492
262.9005	0.1716
263.1148	0.176
263.3291	0.1469
263.5433	0.1771
263.7576	0.1776
263.9718	0.1735
264.186	0.166
264.4002	0.1544
264.6144	0.1657
264.8286	0.1797
265.0427	0.1647
265.2569	0.1743
265.471	0.1635
265.6851	0.1697
265.8993	0.1703
266.1134	0.1695
266.3275	0.1612
266.5415	0.1574
266.7556	0.1864
266.9697	0.1737
267.1837	0.1709
267.3978	0.1729
267.6118	0.1804
267.8258	0.1913
268.0398	0.1622
268.2538	0.179
268.4677	0.1601
268.6817	0.1734
268.8957	0.1797
269.1096	0.1818
269.3235	0.1775
269.5374	0.1662
269.7514	0.1683
269.9652	0.1648
270.1791	0.1696
270.393	0.1625
270.6068	0.1686
270.8207	0.1653
271.0345	0.1499
271.2483	0.1639
271.4622	0.1534
271.676	0.1663
271.8897	0.16
272.1035	0.1573
272.3173	0.1697
272.531	0.1623
272.7448	0.1759
272.9585	0.1592
273.1722	0.1654
273.3859	0.1631
273.5996	0.15
273.8133	0.1592
274.0269	0.1756
274.2406	0.1598
274.4542	0.1692
274.6679	0.1471
274.8815	0.163
275.0951	0.1792
275.3087	0.1737
275.5223	0.1786
275.7358	0.1619
275.9494	0.1673
276.1629	0.1556
276.3765	0.163
276.59	0.1663
276.8035	0.1777
277.017	0.1607
277.2305	0.1682
277.444	0.1825
277.6574	0.1593
277.8709	0.1702
278.0843	0.1599
278.2978	0.1766
278.5112	0.1646
278.7246	0.1728
278.938	0.1662
279.1513	0.1782
279.3647	0.1858
279.5781	0.1727
279.7914	0.1659
280.0047	0.1789
280.2181	0.1686
280.4314	0.1677
280.6447	0.1786
280.8579	0.1768
281.0712	0.1695
281.2845	0.1789
281.4977	0.1662
281.711	0.1695
281.9242	0.1662
282.1374	0.171
282.3506	0.1613
282.5638	0.1728
282.7769	0.171
282.9901	0.1671
283.2033	0.1722
283.4164	0.1858
283.6295	0.1585
283.8426	0.1748
284.0557	0.1709
284.2688	0.1757
284.4819	0.1767
284.695	0.163
284.908	0.172
285.1211	0.1662
285.3341	0.164
285.5471	0.1643
285.7601	0.1685
285.9731	0.1591
286.1861	0.1612
286.3991	0.1733
286.612	0.1741
286.825	0.1591
287.0379	0.1639
287.2508	0.1525
287.4637	0.1646
287.6766	0.1462
287.8895	0.1662
288.1024	0.1646
288.3152	0.1431
288.5281	0.1588
288.7409	0.1532
288.9538	0.1617
289.1666	0.1672
289.3794	0.1516
289.5922	0.1573
289.8049	0.1483
290.0177	0.1493
290.2304	0.1464
290.4432	0.1559
290.6559	0.1638
290.8686	0.1598
291.0813	0.1423
291.294	0.152
291.5067	0.1538
291.7194	0.1438
291.932	0.1619
292.1447	0.1414
292.3573	0.1464
292.5699	0.1487
292.7825	0.1543
292.9951	0.1432
293.2077	0.1438
293.4203	0.1498
293.6328	0.1389
293.8454	0.1553
294.0579	0.1435
294.2704	0.1474
294.4829	0.1445
294.6954	0.1548
294.9079	0.1412
295.1204	0.1453
295.3328	0.1369
295.5453	0.1447
295.7577	0.1475
295.9701	0.138
296.1825	0.1456
296.3949	0.1366
296.6073	0.1474
296.8197	0.1326
297.0321	0.1546
297.2444	0.1464
297.4567	0.1472
297.6691	0.1456
297.8814	0.1476
298.0937	0.1483
298.306	0.153
298.5182	0.1488
298.7305	0.1479
298.9428	0.1423
299.155	0.1375
299.3672	0.1348
299.5794	0.1329
299.7916	0.1395
300.0038	0.1491
300.216	0.1518
300.4282	0.1464
300.6403	0.137
300.8525	0.1496
301.0646	0.1287
301.2767	0.1415
301.4888	0.1488
301.7009	0.1452
301.913	0.1439
302.125	0.1443
302.3371	0.1318
302.5491	0.1405
302.7612	0.1494
302.9732	0.1313
303.1852	0.1468
303.3972	0.1408
303.6092	0.1367
303.8211	0.1284
304.0331	0.1304
304.245	0.1303
304.457	0.1285
304.6689	0.1422
304.8808	0.1452
305.0927	0.1414
305.3046	0.1401
305.5164	0.1391
305.7283	0.1309
305.9401	0.1361
306.152	0.1407
306.3638	0.1403
306.5756	0.1304
306.7874	0.1365
306.9992	0.1475
307.2109	0.1276
307.4227	0.1231
307.6344	0.1318
307.8462	0.1387
308.0579	0.1255
308.2696	0.1325
308.4813	0.126
308.693	0.1218
308.9046	0.1337
309.1163	0.1315
309.328	0.127
309.5396	0.1172
309.7512	0.1254
309.9628	0.1163
310.1744	0.132
310.386	0.1141
310.5976	0.1098
310.8091	0.1219
311.0207	0.1119
311.2322	0.1286
311.4437	0.1125
311.6552	0.1095
311.8667	0.122
312.0782	0.1015
312.2897	0.112
312.5012	0.1197
312.7126	0.1042
312.924	0.1141
313.1355	0.1178
313.3469	0.1165
313.5583	0.12
313.7696	0.1197
313.981	0.1158
314.1924	0.1123
314.4037	0.0999
314.6151	0.1157
314.8264	0.1054
315.0377	0.105
315.249	0.11
315.4603	0.1234
315.6716	0.118
315.8828	0.1015
316.0941	0.1189
316.3053	0.106
316.5165	0.1008
316.7277	0.0993
316.9389	0.114
317.1501	0.1149
317.3613	0.1135
317.5724	0.1002
317.7836	0.1159
317.9947	0.1089
318.2058	0.1049
318.417	0.1008
318.6281	0.0956
318.8391	0.1052
319.0502	0.1008
319.2613	0.1141
319.4723	0.1156
319.6834	0.1124
319.8944	0.0962
320.1054	0.1253
320.3164	0.1084
320.5274	0.1215
320.7383	0.1054
320.9493	0.1129
321.1602	0.1381
321.3712	0.1025
321.5821	0.1123
321.793	0.1066
322.0039	0.1168
322.2148	0.1145
322.4257	0.1179
322.6365	0.129
322.8474	0.1208
323.0582	0.1156
323.269	0.1152
323.4798	0.1213
323.6906	0.1236
323.9014	0.1181
324.1122	0.121
324.3229	0.1198
324.5337	0.1143
324.7444	0.1049
324.9551	0.1328
325.1658	0.1176
325.3765	0.1206
325.5872	0.1217
325.7979	0.1211
326.0085	0.1171
326.2192	0.1352
326.4298	0.1211
326.6404	0.1187
326.851	0.1108
327.0616	0.1144
327.2722	0.1148
327.4828	0.1317
327.6933	0.1229
327.9039	0.1294
328.1144	0.1294
328.3249	0.1247
328.5354	0.1156
328.7459	0.1231
328.9564	0.1153
329.1669	0.1322
329.3773	0.123
329.5878	0.1193
329.7982	0.1205
330.0086	0.1378
330.219	0.1258
330.4294	0.1198
330.6398	0.1253
330.8502	0.1166
331.0605	0.1169
331.2708	0.1169
331.4812	0.1215
331.6915	0.1342
331.9018	0.1241
332.1121	0.1281
332.3224	0.1144
332.5326	0.1291
332.7429	0.1161
332.9531	0.133
333.1633	0.1145
333.3735	0.1214
333.5837	0.1206
333.7939	0.1317
334.0041	0.1258
334.2143	0.1244
334.4244	0.1169
334.6346	0.1064
334.8447	0.1414
335.0548	0.1189
335.2649	0.117
335.475	0.13
335.685	0.1297
335.8951	0.1311
336.1051	0.135
336.3152	0.1356
336.5252	0.1278
336.7352	0.1329
336.9452	0.1182
337.1552	0.1384
337.3652	0.1254
337.5751	0.1199
337.7851	0.1253
337.995	0.1258
338.2049	0.1289
338.4148	0.1331
338.6247	0.1349
338.8346	0.1207
339.0445	0.1142
339.2543	0.1195
339.4642	0.1348
339.674	0.1204
339.8838	0.1307
340.0936	0.1172
340.3034	0.1342
340.5132	0.1306
340.7229	0.1392
340.9327	0.1337
341.1424	0.1388
341.3522	0.1452
341.5619	0.148
341.7716	0.1381
341.9813	0.1432
342.1909	0.1306
342.4006	0.1398
342.6102	0.1529
342.8199	0.1438
343.0295	0.1399
343.2391	0.151
343.4487	0.1477
343.6583	0.1358
343.8679	0.1397
344.0774	0.1544
344.287	0.1465
344.4965	0.1364
344.706	0.1528
344.9155	0.1466
345.125	0.1349
345.3345	0.1613
345.544	0.1365
345.7534	0.1447
345.9629	0.1407
346.1723	0.133
346.3817	0.1433
346.5911	0.1271
346.8005	0.1416
347.0099	0.1332
347.2193	0.1504
347.4286	0.1346
347.638	0.1539
347.8473	0.151
348.0566	0.1463
348.2659	0.1616
348.4752	0.1423
348.6845	0.1422
348.8937	0.1536
349.103	0.1524
349.3122	0.154
349.5214	0.1378
349.7306	0.1379
349.9398	0.1505
350.149	0.1444
350.3582	0.1508
350.5674	0.159
350.7765	0.1531
350.9856	0.15
351.1948	0.151
351.4039	0.145
351.613	0.1524
351.822	0.1417
352.0311	0.1471
352.2402	0.1441
352.4492	0.1543
352.6582	0.1558
352.8672	0.1576
353.0762	0.1566
353.2852	0.1499
353.4942	0.1445
353.7032	0.1574
353.9121	0.1584
354.1211	0.1548
354.33	0.1692
354.5389	0.159
354.7478	0.1541
354.9567	0.1576
355.1655	0.1536
355.3744	0.1419
355.5833	0.1687
355.7921	0.1701
356.0009	0.1605
356.2097	0.169
356.4185	0.164
356.6273	0.1702
356.8361	0.1646
357.0448	0.1548
357.2536	0.1532
357.4623	0.164
357.671	0.1747
357.8797	0.1649
358.0884	0.1684
358.2971	0.1696
358.5057	0.1678
358.7144	0.169
358.923	0.1586
359.1316	0.171
359.3402	0.1649
359.5488	0.1675
359.7574	0.1542
359.966	0.1638
360.1746	0.1691
360.3831	0.1749
360.5916	0.1611
360.8002	0.1568
361.0087	0.1802
361.2172	0.1781
361.4256	0.1658
361.6341	0.1749
361.8426	0.1768
362.051	0.1761
362.2594	0.1629
362.4678	0.1647
362.6762	0.1928
362.8846	0.1788
363.093	0.1724
363.3014	0.1709
363.5097	0.1642
363.718	0.1699
363.9264	0.1608
364.1347	0.1796
364.343	0.1883
364.5513	0.174
364.7595	0.1886
364.9678	0.1784
365.176	0.1927
365.3842	0.1907
365.5925	0.1763
365.8007	0.1812
366.0089	0.181
366.217	0.1758
366.4252	0.1912
366.6333	0.207
366.8415	0.1922
367.0496	0.1896
367.2577	0.1879
367.4658	0.1937
367.6739	0.1878
367.882	0.2009
368.09	0.191
368.2981	0.1844
368.5061	0.1732
368.7141	0.1964
368.9221	0.1941
369.1301	0.1881
369.3381	0.1835
369.5461	0.1966
369.754	0.1903
369.962	0.2085
370.1699	0.1918
370.3778	0.2069
370.5857	0.1835
370.7936	0.1953
371.0015	0.1878
371.2093	0.1919
371.4172	0.2009
371.625	0.1944
371.8328	0.1956
372.0406	0.1973
372.2484	0.1916
372.4562	0.1842
372.664	0.195
372.8717	0.2004
373.0795	0.1681
373.2872	0.19
373.4949	0.1967
373.7026	0.1866
373.9103	0.2158
374.118	0.1985
374.3256	0.1909
374.5333	0.1915
374.7409	0.1843
374.9485	0.2044
375.1561	0.1896
375.3637	0.1943
375.5713	0.1958
375.7789	0.1951
375.9864	0.204
376.194	0.1866
376.4015	0.1944
376.609	0.2002
376.8165	0.2048
377.024	0.1878
377.2315	0.1868
377.4389	0.2124
377.6464	0.2012
377.8538	0.1971
378.0612	0.1938
378.2686	0.2043
378.476	0.215
378.6834	0.2065
378.8908	0.2062
379.0981	0.2016
379.3055	0.2029
379.5128	0.2049
379.7201	0.213
379.9274	0.2075
380.1347	0.1997
380.342	0.211
380.5492	0.1832
380.7565	0.2065
380.9637	0.2169
381.1709	0.1975
381.3781	0.1895
381.5853	0.1949
381.7925	0.206
381.9997	0.2127
382.2068	0.2198
382.4139	0.2154
382.6211	0.1825
382.8282	0.1943
383.0353	0.196
383.2424	0.2066
383.4494	0.2062
383.6565	0.1986
383.8635	0.1988
384.0706	0.2006
384.2776	0.204
384.4846	0.2098
384.6916	0.1965
384.8986	0.1946
385.1055	0.2139
385.3125	0.235
385.5194	0.1949
385.7263	0.2307
385.9333	0.1979
386.1402	0.1983
386.347	0.2007
386.5539	0.1989
386.7608	0.1957
386.9676	0.1879
387.1744	0.1985
387.3813	0.1744
387.5881	0.2036
387.7948	0.1827
388.0016	0.1965
388.2084	0.2003
388.4151	0.1804
388.6219	0.2088
388.8286	0.1896
389.0353	0.2099
389.242	0.2115
389.4487	0.1885
389.6553	0.1971
389.862	0.1733
390.0686	0.192
390.2753	0.2049
390.4819	0.1858
390.6885	0.1808
390.8951	0.205
391.1016	0.188
391.3082	0.1643
391.5147	0.1848
391.7213	0.1891
391.9278	0.1619
392.1343	0.1868
392.3408	0.1964
392.5473	0.1782
392.7537	0.1814
392.9602	0.1725
393.1666	0.1817
393.373	0.1848
393.5794	0.1768
393.7858	0.1713
393.9922	0.1779
394.1986	0.1841
394.4049	0.1701
394.6113	0.178
394.8176	0.1609
395.0239	0.1804
395.2302	0.1752
395.4365	0.171
395.6428	0.1685
395.8491	0.167
396.0553	0.1644
396.2615	0.1557
396.4678	0.1728
396.674	0.1621
396.8802	0.1641
397.0863	0.17
397.2925	0.1563
397.4987	0.1539
397.7048	0.1533
397.9109	0.1645
398.117	0.1625
398.3231	0.1565
398.5292	0.1755
398.7353	0.1677
398.9413	0.1624
399.1474	0.1739
399.3534	0.1689
399.5594	0.1325
399.7654	0.1662
399.9714	0.1594
400.1774	0.1567
400.3833	0.1566
400.5893	0.1673
400.7952	0.1655
401.0011	0.1497
401.207	0.1763
401.4129	0.1587
401.6188	0.1631
401.8247	0.1635
402.0305	0.1536
402.2364	0.1489
402.4422	0.1588
402.648	0.1741
402.8538	0.1715
403.0596	0.142
403.2654	0.1653
403.4711	0.151
403.6768	0.1511
403.8826	0.176
404.0883	0.1729
404.294	0.1661
404.4997	0.1555
404.7054	0.1515
404.911	0.1403
405.1167	0.158
405.3223	0.1786
405.5279	0.1795
405.7335	0.1643
405.9391	0.176
406.1447	0.1637
406.3502	0.1773
406.5558	0.1643
406.7613	0.1625
406.9668	0.1602
407.1724	0.143
407.3778	0.1569
407.5833	0.1615
407.7888	0.1535
407.9942	0.1748
408.1997	0.157
408.4051	0.1788
408.6105	0.1402
408.8159	0.1463
409.0213	0.1558
409.2267	0.1742
409.432	0.1509
409.6374	0.1577
409.8427	0.1385
410.048	0.1616
410.2533	0.1507
410.4586	0.142
410.6639	0.1449
410.8691	0.1363
411.0744	0.1407
411.2796	0.1474
411.4848	0.1433
411.69	0.1473
411.8952	0.1606
412.1004	0.1354
412.3056	0.1704
412.5107	0.1469
412.7158	0.1647
412.921	0.1326
413.1261	0.1518
413.3312	0.1387
413.5362	0.1511
413.7413	0.1602
413.9464	0.1479
414.1514	0.1407
414.3564	0.1488
414.5614	0.1279
414.7664	0.1442
414.9714	0.1552
415.1764	0.1559
415.3813	0.1503
415.5863	0.139
415.7912	0.1643
415.9961	0.1613
416.201	0.1453
416.4059	0.1501
416.6108	0.1425
416.8156	0.1559
417.0205	0.1376
417.2253	0.1326
417.4301	0.1637
417.6349	0.135
417.8397	0.1234
418.0445	0.1519
418.2492	0.1509
418.454	0.1416
418.6587	0.1311
418.8634	0.1493
419.0681	0.1382
419.2728	0.1358
419.4775	0.1526
419.6822	0.138
419.8868	0.1109
420.0915	0.1356
420.2961	0.136
420.5007	0.1236
420.7053	0.1434
420.9099	0.151
421.1144	0.1432
421.319	0.1365
421.5235	0.1378
421.728	0.1346
421.9325	0.1314
422.137	0.1352
422.3415	0.1216
422.546	0.1271
422.7504	0.1228
422.9549	0.1545
423.1593	0.1434
423.3637	0.141
423.5681	0.1217
423.7725	0.1288
423.9769	0.1154
424.1812	0.121
424.3856	0.1127
424.5899	0.1359
424.7942	0.1293
424.9985	0.1389
425.2028	0.1137
425.4071	0.1381
425.6113	0.1121
425.8156	0.1175
426.0198	0.1277
426.224	0.1261
426.4282	0.13
426.6324	0.1128
426.8366	0.1295
