Data from MonoPyChalIsomerACN10uM410nmA_Absorbance_14-53-31-173.txt Node
Date: Fri Jul 05 14:53:31 BST 2024
User: LASERRRRR
Spectrometer: FLMT03099
Trigger mode: 0
Integration Time (sec): 1.000000E-1
Scans to average: 1
Electric dark correction enabled: true
Nonlinearity correction enabled: false
Boxcar width: 0
XAxis mode: Wavelengths
Number of Pixels in Spectrum: 3648
>>>>>Begin Spectral Data<<<<<
179.3399	-0
179.5586	-0
179.7771	-0
179.9957	0.6144
180.2143	-0
180.4329	-0.1274
180.6514	0.116
180.8699	-0
181.0885	-0.2516
181.307	0.1942
181.5255	-0
181.744	-0.0257
181.9625	-0
182.181	-0.4935
182.3994	0.4557
182.6179	0.2334
182.8363	2.1314
183.0547	-0.2814
183.2732	-0.0689
183.4916	0.0742
183.71	-0.0359
183.9284	-0.0276
184.1467	-0.1481
184.3651	-0.1256
184.5835	0.0157
184.8018	0.1595
185.0201	0.1812
185.2385	-0.2182
185.4568	0.203
185.6751	0.0142
185.8934	0.1837
186.1117	0.013
186.3299	-0.1135
186.5482	0.1566
186.7664	-0.1037
186.9847	-0.1245
187.2029	-0.0332
187.4211	-0.115
187.6393	0.065
187.8575	-0.1213
188.0757	0.1777
188.2939	0.0935
188.512	0.1928
188.7302	-0.1109
188.9483	-0.1384
189.1665	0.141
189.3846	-0.1968
189.6027	0.4803
189.8208	0.1678
190.0389	0.0606
190.257	0.1365
190.475	0.14
190.6931	-0.0114
190.9111	0.2
191.1292	0.1208
191.3472	0.283
191.5652	0.293
191.7832	0.1227
192.0012	0.3932
192.2192	0.2411
192.4371	0.4844
192.6551	0.193
192.873	0.3536
193.091	0.3578
193.3089	0.3954
193.5268	0.3782
193.7447	0.5054
193.9626	0.4759
194.1805	0.537
194.3984	0.7035
194.6162	0.4385
194.8341	0.4993
195.0519	0.5166
195.2697	0.6354
195.4875	0.8009
195.7054	0.5347
195.9231	0.715
196.1409	0.5232
196.3587	0.4341
196.5765	0.506
196.7942	0.561
197.012	0.5571
197.2297	0.487
197.4474	0.4833
197.6651	0.5932
197.8828	0.5358
198.1005	0.5199
198.3182	0.5697
198.5358	0.6846
198.7535	0.6534
198.9711	0.4399
199.1888	0.5746
199.4064	0.6441
199.624	0.5957
199.8416	0.5081
200.0592	0.5943
200.2767	0.607
200.4943	0.5964
200.7119	0.6648
200.9294	0.6986
201.1469	0.5497
201.3645	0.5064
201.582	0.57
201.7995	0.5698
202.017	0.5183
202.2344	0.5695
202.4519	0.6201
202.6694	0.6423
202.8868	0.5611
203.1042	0.6426
203.3217	0.6475
203.5391	0.7173
203.7565	0.6249
203.9739	0.6504
204.1913	0.5611
204.4086	0.6102
204.626	0.6355
204.8433	0.7132
205.0607	0.59
205.278	0.629
205.4953	0.5748
205.7126	0.5639
205.9299	0.7322
206.1472	0.6259
206.3644	0.6356
206.5817	0.706
206.7989	0.6439
207.0162	0.6072
207.2334	0.6125
207.4506	0.6329
207.6678	0.6533
207.885	0.6224
208.1022	0.6191
208.3194	0.6869
208.5365	0.6422
208.7537	0.6528
208.9708	0.5665
209.1879	0.6003
209.405	0.633
209.6222	0.6425
209.8392	0.6352
210.0563	0.6311
210.2734	0.6328
210.4905	0.5857
210.7075	0.67
210.9245	0.6337
211.1416	0.6377
211.3586	0.6088
211.5756	0.5828
211.7926	0.6364
212.0096	0.5346
212.2265	0.5498
212.4435	0.5479
212.6604	0.5917
212.8774	0.6188
213.0943	0.5186
213.3112	0.5096
213.5281	0.4858
213.745	0.4894
213.9619	0.4831
214.1788	0.4677
214.3956	0.4331
214.6125	0.4373
214.8293	0.4076
215.0461	0.4792
215.2629	0.4368
215.4798	0.4264
215.6965	0.4113
215.9133	0.4563
216.1301	0.4142
216.3469	0.389
216.5636	0.402
216.7803	0.355
216.9971	0.4109
217.2138	0.3627
217.4305	0.3426
217.6472	0.3401
217.8639	0.3483
218.0805	0.3397
218.2972	0.2853
218.5138	0.3348
218.7305	0.2919
218.9471	0.3035
219.1637	0.274
219.3803	0.2505
219.5969	0.2801
219.8135	0.2405
220.0301	0.2588
220.2466	0.251
220.4632	0.2628
220.6797	0.2414
220.8962	0.2242
221.1127	0.259
221.3292	0.2209
221.5457	0.2204
221.7622	0.2013
221.9787	0.2223
222.1951	0.2332
222.4116	0.2665
222.628	0.2312
222.8444	0.2286
223.0608	0.2244
223.2772	0.2441
223.4936	0.2528
223.71	0.2427
223.9264	0.2516
224.1427	0.237
224.3591	0.2201
224.5754	0.2616
224.7917	0.2452
225.008	0.2588
225.2243	0.2574
225.4406	0.2606
225.6569	0.2609
225.8732	0.2485
226.0894	0.2609
226.3057	0.2555
226.5219	0.2785
226.7381	0.2423
226.9543	0.2603
227.1705	0.2766
227.3867	0.26
227.6029	0.2849
227.8191	0.2883
228.0352	0.2691
228.2513	0.2967
228.4675	0.2905
228.6836	0.2915
228.8997	0.2933
229.1158	0.3074
229.3319	0.2993
229.548	0.2919
229.764	0.3038
229.9801	0.3165
230.1961	0.3069
230.4121	0.3229
230.6282	0.303
230.8442	0.3236
231.0602	0.3399
231.2761	0.3357
231.4921	0.3216
231.7081	0.3572
231.924	0.33
232.14	0.3466
232.3559	0.3256
232.5718	0.3578
232.7877	0.3489
233.0036	0.3391
233.2195	0.3524
233.4353	0.3414
233.6512	0.3537
233.867	0.3539
234.0829	0.3454
234.2987	0.3616
234.5145	0.3444
234.7303	0.3528
234.9461	0.3707
235.1619	0.38
235.3776	0.3709
235.5934	0.3505
235.8091	0.3472
236.0249	0.3734
236.2406	0.3607
236.4563	0.3731
236.672	0.3784
236.8877	0.3818
237.1034	0.3783
237.319	0.3974
237.5347	0.4039
237.7503	0.3767
237.966	0.3929
238.1816	0.3942
238.3972	0.3883
238.6128	0.3803
238.8284	0.3889
239.0439	0.3972
239.2595	0.3995
239.475	0.4024
239.6906	0.4239
239.9061	0.4025
240.1216	0.3938
240.3371	0.3931
240.5526	0.3789
240.7681	0.3884
240.9836	0.3897
241.199	0.4063
241.4145	0.3889
241.6299	0.3731
241.8453	0.3734
242.0607	0.4113
242.2761	0.3606
242.4915	0.3809
242.7069	0.3661
242.9223	0.3633
243.1376	0.3497
243.353	0.3543
243.5683	0.3558
243.7836	0.3368
243.9989	0.338
244.2142	0.3172
244.4295	0.3257
244.6448	0.3238
244.86	0.3232
245.0753	0.3013
245.2905	0.309
245.5057	0.2947
245.721	0.2978
245.9362	0.2835
246.1514	0.2952
246.3665	0.2773
246.5817	0.2617
246.7969	0.262
247.012	0.2597
247.2271	0.2546
247.4423	0.2564
247.6574	0.2457
247.8725	0.2455
248.0876	0.2309
248.3026	0.2277
248.5177	0.2335
248.7328	0.2103
248.9478	0.2224
249.1628	0.2268
249.3779	0.2271
249.5929	0.2083
249.8079	0.225
250.0228	0.2057
250.2378	0.2127
250.4528	0.2013
250.6677	0.188
250.8827	0.2134
251.0976	0.2015
251.3125	0.1896
251.5274	0.1785
251.7423	0.1807
251.9572	0.1797
252.172	0.201
252.3869	0.1757
252.6017	0.1817
252.8166	0.1674
253.0314	0.1699
253.2462	0.1675
253.461	0.1715
253.6758	0.1652
253.8906	0.1761
254.1053	0.1697
254.3201	0.1694
254.5348	0.1834
254.7496	0.1871
254.9643	0.1669
255.179	0.1648
255.3937	0.16
255.6083	0.172
255.823	0.1744
256.0377	0.1654
256.2523	0.161
256.467	0.1601
256.6816	0.165
256.8962	0.158
257.1108	0.1659
257.3254	0.1743
257.54	0.1538
257.7545	0.1723
257.9691	0.1659
258.1836	0.1641
258.3981	0.1728
258.6127	0.161
258.8272	0.1588
259.0417	0.1625
259.2561	0.1518
259.4706	0.1515
259.6851	0.1626
259.8995	0.1569
260.114	0.1728
260.3284	0.167
260.5428	0.1573
260.7572	0.1638
260.9716	0.1632
261.186	0.1529
261.4003	0.1691
261.6147	0.1666
261.829	0.1548
262.0433	0.1653
262.2577	0.1602
262.472	0.1692
262.6863	0.1609
262.9005	0.1587
263.1148	0.1609
263.3291	0.1451
263.5433	0.166
263.7576	0.1607
263.9718	0.1607
264.186	0.1639
264.4002	0.1507
264.6144	0.1627
264.8286	0.1795
265.0427	0.1607
265.2569	0.1616
265.471	0.1658
265.6851	0.1612
265.8993	0.1623
266.1134	0.1539
266.3275	0.1613
266.5415	0.1592
266.7556	0.1736
266.9697	0.1658
267.1837	0.1588
267.3978	0.1707
267.6118	0.172
267.8258	0.1764
268.0398	0.156
268.2538	0.1679
268.4677	0.1678
268.6817	0.1594
268.8957	0.1657
269.1096	0.1618
269.3235	0.1713
269.5374	0.1678
269.7514	0.1705
269.9652	0.1572
270.1791	0.1793
270.393	0.16
270.6068	0.1801
270.8207	0.1552
271.0345	0.1669
271.2483	0.1572
271.4622	0.1582
271.676	0.1661
271.8897	0.1478
272.1035	0.1518
272.3173	0.1501
272.531	0.1646
272.7448	0.1471
272.9585	0.1554
273.1722	0.1555
273.3859	0.1584
273.5996	0.1638
273.8133	0.1658
274.0269	0.1528
274.2406	0.1587
274.4542	0.1674
274.6679	0.1513
274.8815	0.1596
275.0951	0.1639
275.3087	0.1777
275.5223	0.1594
275.7358	0.1549
275.9494	0.1543
276.1629	0.1476
276.3765	0.1565
276.59	0.1738
276.8035	0.1605
277.017	0.1612
277.2305	0.1649
277.444	0.1633
277.6574	0.1556
277.8709	0.1598
278.0843	0.1586
278.2978	0.1593
278.5112	0.1616
278.7246	0.1611
278.938	0.154
279.1513	0.1636
279.3647	0.1653
279.5781	0.1522
279.7914	0.1672
280.0047	0.1756
280.2181	0.1666
280.4314	0.1621
280.6447	0.1785
280.8579	0.1711
281.0712	0.1747
281.2845	0.1713
281.4977	0.1604
281.711	0.1546
281.9242	0.1653
282.1374	0.177
282.3506	0.1757
282.5638	0.1634
282.7769	0.1571
282.9901	0.16
283.2033	0.1646
283.4164	0.17
283.6295	0.1607
283.8426	0.1609
284.0557	0.162
284.2688	0.1803
284.4819	0.1596
284.695	0.1501
284.908	0.1642
285.1211	0.1672
285.3341	0.167
285.5471	0.1687
285.7601	0.1546
285.9731	0.1516
286.1861	0.1515
286.3991	0.1644
286.612	0.1744
286.825	0.159
287.0379	0.1667
287.2508	0.156
287.4637	0.1563
287.6766	0.1534
287.8895	0.1584
288.1024	0.1811
288.3152	0.1571
288.5281	0.1485
288.7409	0.1581
288.9538	0.1518
289.1666	0.1557
289.3794	0.1564
289.5922	0.1541
289.8049	0.1583
290.0177	0.1514
290.2304	0.1506
290.4432	0.1606
290.6559	0.1501
290.8686	0.147
291.0813	0.1511
291.294	0.1564
291.5067	0.1508
291.7194	0.1419
291.932	0.1543
292.1447	0.1443
292.3573	0.143
292.5699	0.1393
292.7825	0.1651
292.9951	0.1451
293.2077	0.1442
293.4203	0.1438
293.6328	0.1373
293.8454	0.1526
294.0579	0.1386
294.2704	0.1499
294.4829	0.1361
294.6954	0.1501
294.9079	0.1429
295.1204	0.1418
295.3328	0.1445
295.5453	0.1473
295.7577	0.144
295.9701	0.1357
296.1825	0.1502
296.3949	0.1402
296.6073	0.1407
296.8197	0.1421
297.0321	0.1544
297.2444	0.1344
297.4567	0.149
297.6691	0.1462
297.8814	0.1484
298.0937	0.1386
298.306	0.1375
298.5182	0.1427
298.7305	0.1617
298.9428	0.1289
299.155	0.1447
299.3672	0.1375
299.5794	0.1299
299.7916	0.1312
300.0038	0.1519
300.216	0.1455
300.4282	0.1355
300.6403	0.1403
300.8525	0.1426
301.0646	0.1312
301.2767	0.1493
301.4888	0.1348
301.7009	0.1342
301.913	0.1468
302.125	0.1443
302.3371	0.129
302.5491	0.1375
302.7612	0.1521
302.9732	0.1413
303.1852	0.1548
303.3972	0.1472
303.6092	0.1377
303.8211	0.1348
304.0331	0.1348
304.245	0.1221
304.457	0.1276
304.6689	0.1317
304.8808	0.1538
305.0927	0.1279
305.3046	0.1277
305.5164	0.1539
305.7283	0.1224
305.9401	0.1401
306.152	0.1302
306.3638	0.1398
306.5756	0.1233
306.7874	0.1339
306.9992	0.1358
307.2109	0.1291
307.4227	0.1216
307.6344	0.1352
307.8462	0.1212
308.0579	0.1271
308.2696	0.1288
308.4813	0.1175
308.693	0.1261
308.9046	0.1199
309.1163	0.1227
309.328	0.1152
309.5396	0.115
309.7512	0.1149
309.9628	0.1118
310.1744	0.1184
310.386	0.1114
310.5976	0.1159
310.8091	0.118
311.0207	0.1155
311.2322	0.1212
311.4437	0.105
311.6552	0.1019
311.8667	0.1217
312.0782	0.0897
312.2897	0.1014
312.5012	0.1199
312.7126	0.1051
312.924	0.1086
313.1355	0.1198
313.3469	0.118
313.5583	0.1145
313.7696	0.114
313.981	0.1085
314.1924	0.108
314.4037	0.1041
314.6151	0.1066
314.8264	0.1037
315.0377	0.1016
315.249	0.1116
315.4603	0.117
315.6716	0.1169
315.8828	0.0945
316.0941	0.097
316.3053	0.0984
316.5165	0.1056
316.7277	0.1022
316.9389	0.1143
317.1501	0.0964
317.3613	0.1175
317.5724	0.099
317.7836	0.1138
317.9947	0.1027
318.2058	0.104
318.417	0.0987
318.6281	0.0878
318.8391	0.1022
319.0502	0.1124
319.2613	0.1044
319.4723	0.1163
319.6834	0.1011
319.8944	0.1003
320.1054	0.1091
320.3164	0.1149
320.5274	0.1042
320.7383	0.1132
320.9493	0.1118
321.1602	0.1264
321.3712	0.1035
321.5821	0.1081
321.793	0.1167
322.0039	0.1122
322.2148	0.1023
322.4257	0.1018
322.6365	0.123
322.8474	0.1161
323.0582	0.1072
323.269	0.1116
323.4798	0.118
323.6906	0.1118
323.9014	0.1192
324.1122	0.1202
324.3229	0.106
324.5337	0.1035
324.7444	0.1088
324.9551	0.1324
325.1658	0.1242
325.3765	0.1096
325.5872	0.1143
325.7979	0.115
326.0085	0.113
326.2192	0.1147
326.4298	0.12
326.6404	0.1034
326.851	0.1059
327.0616	0.1166
327.2722	0.124
327.4828	0.1149
327.6933	0.1129
327.9039	0.1162
328.1144	0.1296
328.3249	0.128
328.5354	0.1149
328.7459	0.1084
328.9564	0.1184
329.1669	0.1218
329.3773	0.1166
329.5878	0.1254
329.7982	0.1187
330.0086	0.1115
330.219	0.1215
330.4294	0.114
330.6398	0.1232
330.8502	0.1105
331.0605	0.1116
331.2708	0.1252
331.4812	0.1121
331.6915	0.1122
331.9018	0.1232
332.1121	0.1116
332.3224	0.1162
332.5326	0.1343
332.7429	0.1204
332.9531	0.1266
333.1633	0.1268
333.3735	0.1141
333.5837	0.1255
333.7939	0.1222
334.0041	0.1253
334.2143	0.1347
334.4244	0.1174
334.6346	0.0995
334.8447	0.1278
335.0548	0.125
335.2649	0.1102
335.475	0.126
335.685	0.1233
335.8951	0.1274
336.1051	0.1302
336.3152	0.1227
336.5252	0.1168
336.7352	0.1187
336.9452	0.1274
337.1552	0.1289
337.3652	0.1165
337.5751	0.1188
337.7851	0.1248
337.995	0.1163
338.2049	0.1261
338.4148	0.1187
338.6247	0.1217
338.8346	0.127
339.0445	0.118
339.2543	0.109
339.4642	0.1213
339.674	0.1027
339.8838	0.1245
340.0936	0.1256
340.3034	0.1424
340.5132	0.129
340.7229	0.1249
340.9327	0.117
341.1424	0.1376
341.3522	0.14
341.5619	0.1357
341.7716	0.1312
341.9813	0.1372
342.1909	0.1296
342.4006	0.1445
342.6102	0.1401
342.8199	0.1302
343.0295	0.143
343.2391	0.1304
343.4487	0.1438
343.6583	0.1411
343.8679	0.138
344.0774	0.1479
344.287	0.1436
344.4965	0.1326
344.706	0.1442
344.9155	0.1335
345.125	0.1322
345.3345	0.1439
345.544	0.1393
345.7534	0.1399
345.9629	0.1405
346.1723	0.1395
346.3817	0.1278
346.5911	0.1407
346.8005	0.1494
347.0099	0.1372
347.2193	0.1432
347.4286	0.1356
347.638	0.1397
347.8473	0.1363
348.0566	0.1373
348.2659	0.1366
348.4752	0.1367
348.6845	0.131
348.8937	0.1511
349.103	0.1521
349.3122	0.1315
349.5214	0.1376
349.7306	0.1518
349.9398	0.147
350.149	0.1442
350.3582	0.1454
350.5674	0.1601
350.7765	0.1434
350.9856	0.1387
351.1948	0.1463
351.4039	0.1426
351.613	0.1463
351.822	0.1521
352.0311	0.1517
352.2402	0.1508
352.4492	0.1449
352.6582	0.1487
352.8672	0.1408
353.0762	0.1529
353.2852	0.1381
353.4942	0.1364
353.7032	0.1558
353.9121	0.1576
354.1211	0.1487
354.33	0.1431
354.5389	0.1462
354.7478	0.1467
354.9567	0.1608
355.1655	0.1475
355.3744	0.1571
355.5833	0.1726
355.7921	0.1584
356.0009	0.1482
356.2097	0.1673
356.4185	0.1755
356.6273	0.1646
356.8361	0.1716
357.0448	0.1509
357.2536	0.1306
357.4623	0.1528
357.671	0.1669
357.8797	0.1742
358.0884	0.1574
358.2971	0.1542
358.5057	0.1692
358.7144	0.1681
358.923	0.1742
359.1316	0.1601
359.3402	0.1643
359.5488	0.1628
359.7574	0.169
359.966	0.1639
360.1746	0.1743
360.3831	0.1621
360.5916	0.1677
360.8002	0.1677
361.0087	0.1762
361.2172	0.1724
361.4256	0.1775
361.6341	0.1774
361.8426	0.1755
362.051	0.1774
362.2594	0.17
362.4678	0.1715
362.6762	0.1991
362.8846	0.1734
363.093	0.1651
363.3014	0.1725
363.5097	0.1505
363.718	0.1743
363.9264	0.1769
364.1347	0.1759
364.343	0.1822
364.5513	0.179
364.7595	0.1963
364.9678	0.184
365.176	0.1746
365.3842	0.1572
365.5925	0.1798
365.8007	0.1881
366.0089	0.1867
366.217	0.1672
366.4252	0.1957
366.6333	0.1949
366.8415	0.1754
367.0496	0.1818
367.2577	0.1875
367.4658	0.1766
367.6739	0.1783
367.882	0.1857
368.09	0.1801
368.2981	0.1776
368.5061	0.1752
368.7141	0.1805
368.9221	0.2005
369.1301	0.1917
369.3381	0.182
369.5461	0.1672
369.754	0.1755
369.962	0.1884
370.1699	0.1827
370.3778	0.1843
370.5857	0.1769
370.7936	0.1842
371.0015	0.1906
371.2093	0.1905
371.4172	0.1949
371.625	0.1725
371.8328	0.1894
372.0406	0.1744
372.2484	0.1824
372.4562	0.1939
372.664	0.1851
372.8717	0.1998
373.0795	0.1755
373.2872	0.1956
373.4949	0.1961
373.7026	0.1884
373.9103	0.1999
374.118	0.1996
374.3256	0.1879
374.5333	0.1886
374.7409	0.1849
374.9485	0.1984
375.1561	0.1982
375.3637	0.2071
375.5713	0.1899
375.7789	0.1909
375.9864	0.1869
376.194	0.1887
376.4015	0.2152
376.609	0.1989
376.8165	0.1824
377.024	0.1965
377.2315	0.1951
377.4389	0.2008
377.6464	0.1964
377.8538	0.1882
378.0612	0.1875
378.2686	0.2022
378.476	0.2286
378.6834	0.2123
378.8908	0.197
379.0981	0.1964
379.3055	0.2096
379.5128	0.1966
379.7201	0.2193
379.9274	0.1776
380.1347	0.192
380.342	0.2172
380.5492	0.2026
380.7565	0.1943
380.9637	0.209
381.1709	0.1974
381.3781	0.2065
381.5853	0.2103
381.7925	0.1998
381.9997	0.2104
382.2068	0.2146
382.4139	0.1999
382.6211	0.1926
382.8282	0.1919
383.0353	0.1989
383.2424	0.1987
383.4494	0.2019
383.6565	0.1939
383.8635	0.2069
384.0706	0.2034
384.2776	0.2259
384.4846	0.1971
384.6916	0.2028
384.8986	0.1967
385.1055	0.2082
385.3125	0.2074
385.5194	0.1876
385.7263	0.2095
385.9333	0.2154
386.1402	0.1986
386.347	0.1899
386.5539	0.1865
386.7608	0.2149
386.9676	0.1905
387.1744	0.2074
387.3813	0.196
387.5881	0.2086
387.7948	0.1933
388.0016	0.1983
388.2084	0.2018
388.4151	0.1887
388.6219	0.1963
388.8286	0.2056
389.0353	0.2227
389.242	0.1997
389.4487	0.1918
389.6553	0.1915
389.862	0.1773
390.0686	0.1839
390.2753	0.1962
390.4819	0.2044
390.6885	0.1803
390.8951	0.1919
391.1016	0.1871
391.3082	0.1855
391.5147	0.1812
391.7213	0.1878
391.9278	0.176
392.1343	0.1775
392.3408	0.1747
392.5473	0.1785
392.7537	0.1714
392.9602	0.1757
393.1666	0.1794
393.373	0.1847
393.5794	0.1915
393.7858	0.1732
393.9922	0.1787
394.1986	0.1775
394.4049	0.171
394.6113	0.1885
394.8176	0.1645
395.0239	0.1776
395.2302	0.1702
395.4365	0.1669
395.6428	0.1678
395.8491	0.1592
396.0553	0.1715
396.2615	0.1678
396.4678	0.1652
396.674	0.154
396.8802	0.1652
397.0863	0.1944
397.2925	0.1514
397.4987	0.1469
397.7048	0.151
397.9109	0.1719
398.117	0.1538
398.3231	0.162
398.5292	0.1679
398.7353	0.1682
398.9413	0.1663
399.1474	0.1561
399.3534	0.1648
399.5594	0.135
399.7654	0.1746
399.9714	0.1601
400.1774	0.1562
400.3833	0.1627
400.5893	0.1545
400.7952	0.176
401.0011	0.1545
401.207	0.1703
401.4129	0.1732
401.6188	0.1634
401.8247	0.1513
402.0305	0.1383
402.2364	0.1546
402.4422	0.1682
402.648	0.1434
402.8538	0.1727
403.0596	0.156
403.2654	0.1691
403.4711	0.1523
403.6768	0.1735
403.8826	0.1693
404.0883	0.1627
404.294	0.1572
404.4997	0.1564
404.7054	0.1534
404.911	0.1563
405.1167	0.1618
405.3223	0.1496
405.5279	0.1621
405.7335	0.1691
405.9391	0.1769
406.1447	0.1655
406.3502	0.1697
406.5558	0.1329
406.7613	0.1584
406.9668	0.161
407.1724	0.1599
407.3778	0.1571
407.5833	0.1533
407.7888	0.1545
407.9942	0.1788
408.1997	0.1517
408.4051	0.1512
408.6105	0.1596
408.8159	0.1552
409.0213	0.1427
409.2267	0.1687
409.432	0.1487
409.6374	0.149
409.8427	0.1551
410.048	0.1609
410.2533	0.1449
410.4586	0.1513
410.6639	0.1455
410.8691	0.1299
411.0744	0.1478
411.2796	0.1411
411.4848	0.1508
411.69	0.152
411.8952	0.1542
412.1004	0.1425
412.3056	0.1594
412.5107	0.1364
412.7158	0.1646
412.921	0.1337
413.1261	0.1465
413.3312	0.1426
413.5362	0.1418
413.7413	0.1443
413.9464	0.1409
414.1514	0.1498
414.3564	0.121
414.5614	0.1405
414.7664	0.1443
414.9714	0.1464
415.1764	0.1702
415.3813	0.1739
415.5863	0.1512
415.7912	0.1504
415.9961	0.1451
416.201	0.1609
416.4059	0.1465
416.6108	0.1255
416.8156	0.1587
417.0205	0.144
417.2253	0.1361
417.4301	0.1468
417.6349	0.1394
417.8397	0.1325
418.0445	0.1422
418.2492	0.1472
418.454	0.1261
418.6587	0.1437
418.8634	0.1363
419.0681	0.1304
419.2728	0.1364
419.4775	0.1382
419.6822	0.1386
419.8868	0.125
420.0915	0.1509
420.2961	0.1361
420.5007	0.1214
420.7053	0.1354
420.9099	0.1287
421.1144	0.1309
421.319	0.1288
421.5235	0.1384
421.728	0.1329
421.9325	0.1331
422.137	0.1372
422.3415	0.1251
422.546	0.1268
422.7504	0.1207
422.9549	0.1313
423.1593	0.1357
423.3637	0.1241
423.5681	0.1125
423.7725	0.1117
423.9769	0.1262
424.1812	0.113
424.3856	0.1185
424.5899	0.1234
424.7942	0.1178
424.9985	0.1221
425.2028	0.1151
425.4071	0.1426
425.6113	0.1147
425.8156	0.1237
426.0198	0.1386
426.224	0.1049
426.4282	0.1204
426.6324	0.1161
