Data from MonoPyChalIsomerACN10uM410nmA_Absorbance_14-53-25-073.txt Node
Date: Fri Jul 05 14:53:25 BST 2024
User: LASERRRRR
Spectrometer: FLMT03099
Trigger mode: 0
Integration Time (sec): 1.000000E-1
Scans to average: 1
Electric dark correction enabled: true
Nonlinearity correction enabled: false
Boxcar width: 0
XAxis mode: Wavelengths
Number of Pixels in Spectrum: 3648
>>>>>Begin Spectral Data<<<<<
179.3399	0.0747
179.5586	0.0747
179.7771	0.0747
179.9957	0.1177
180.2143	1.2333
180.4329	-0
180.6514	-0
180.8699	0.3703
181.0885	0.2255
181.307	0.1192
181.5255	-0.0113
181.744	-0
181.9625	-0
182.181	-0.7864
182.3994	0.8182
182.6179	-0.1174
182.8363	1.6543
183.0547	-0.0569
183.2732	0.0119
183.4916	0.1041
183.71	0.1993
183.9284	0.3647
184.1467	-0.1264
184.3651	0.152
184.5835	0.0324
184.8018	0.0541
185.0201	0.0045
185.2385	0.0424
185.4568	0.2302
185.6751	0.3953
185.8934	0.6665
186.1117	0.1293
186.3299	0.1827
186.5482	0.3937
186.7664	-0.0456
186.9847	0.1985
187.2029	0.094
187.4211	-0.0127
187.6393	0.2688
187.8575	-0.0765
188.0757	0.0297
188.2939	0.1598
188.512	-0
188.7302	0.4192
188.9483	0.5271
189.1665	0.3587
189.3846	0.0826
189.6027	0.1965
189.8208	0.2624
190.0389	0.2087
190.257	0.0602
190.475	0.327
190.6931	0.4817
190.9111	0.5718
191.1292	0.2534
191.3472	0.8917
191.5652	0.263
191.7832	0.3001
192.0012	0.4978
192.2192	0.4006
192.4371	0.5672
192.6551	0.397
192.873	0.3654
193.091	0.5641
193.3089	0.5898
193.5268	0.5363
193.7447	0.7917
193.9626	0.491
194.1805	1.0292
194.3984	0.5564
194.6162	0.5497
194.8341	0.5542
195.0519	0.631
195.2697	0.7105
195.4875	0.7037
195.7054	0.5589
195.9231	0.4869
196.1409	0.5635
196.3587	0.5428
196.5765	0.5666
196.7942	0.6176
197.012	0.5088
197.2297	0.6523
197.4474	0.7666
197.6651	0.5879
197.8828	0.6752
198.1005	0.6461
198.3182	0.6355
198.5358	0.7011
198.7535	0.6623
198.9711	0.5395
199.1888	0.6753
199.4064	0.7629
199.624	0.6631
199.8416	0.507
200.0592	0.6073
200.2767	0.6458
200.4943	0.6349
200.7119	0.8856
200.9294	0.669
201.1469	0.5899
201.3645	0.5823
201.582	0.6028
201.7995	0.6487
202.017	0.6532
202.2344	0.5858
202.4519	0.7437
202.6694	0.5877
202.8868	0.7131
203.1042	0.719
203.3217	0.6694
203.5391	0.6231
203.7565	0.6455
203.9739	0.6279
204.1913	0.5964
204.4086	0.694
204.626	0.7674
204.8433	0.6845
205.0607	0.6439
205.278	0.6835
205.4953	0.6566
205.7126	0.5852
205.9299	0.8277
206.1472	0.6877
206.3644	0.5834
206.5817	0.7361
206.7989	0.7451
207.0162	0.7291
207.2334	0.6573
207.4506	0.7105
207.6678	0.6124
207.885	0.6697
208.1022	0.7302
208.3194	0.6726
208.5365	0.6112
208.7537	0.638
208.9708	0.6168
209.1879	0.5968
209.405	0.7238
209.6222	0.716
209.8392	0.6529
210.0563	0.6522
210.2734	0.6882
210.4905	0.6044
210.7075	0.6442
210.9245	0.597
211.1416	0.7224
211.3586	0.7012
211.5756	0.5978
211.7926	0.6242
212.0096	0.6376
212.2265	0.5556
212.4435	0.6074
212.6604	0.5848
212.8774	0.6467
213.0943	0.5825
213.3112	0.5517
213.5281	0.5414
213.745	0.5025
213.9619	0.4994
214.1788	0.5037
214.3956	0.4841
214.6125	0.4851
214.8293	0.4313
215.0461	0.5015
215.2629	0.4809
215.4798	0.4366
215.6965	0.432
215.9133	0.4566
216.1301	0.4581
216.3469	0.4404
216.5636	0.4341
216.7803	0.4132
216.9971	0.4112
217.2138	0.4046
217.4305	0.3901
217.6472	0.3471
217.8639	0.3759
218.0805	0.3714
218.2972	0.3197
218.5138	0.329
218.7305	0.3417
218.9471	0.3103
219.1637	0.3188
219.3803	0.2886
219.5969	0.2719
219.8135	0.2564
220.0301	0.2898
220.2466	0.2733
220.4632	0.263
220.6797	0.2275
220.8962	0.2667
221.1127	0.2641
221.3292	0.2467
221.5457	0.2506
221.7622	0.2452
221.9787	0.2698
222.1951	0.2312
222.4116	0.2644
222.628	0.268
222.8444	0.2574
223.0608	0.233
223.2772	0.2476
223.4936	0.257
223.71	0.2532
223.9264	0.274
224.1427	0.2369
224.3591	0.2418
224.5754	0.2742
224.7917	0.2785
225.008	0.2796
225.2243	0.2615
225.4406	0.294
225.6569	0.259
225.8732	0.2655
226.0894	0.2528
226.3057	0.2695
226.5219	0.2845
226.7381	0.2689
226.9543	0.2992
227.1705	0.2869
227.3867	0.2871
227.6029	0.3036
227.8191	0.2975
228.0352	0.2825
228.2513	0.3068
228.4675	0.3096
228.6836	0.2892
228.8997	0.3021
229.1158	0.3233
229.3319	0.3291
229.548	0.3176
229.764	0.3399
229.9801	0.3318
230.1961	0.3366
230.4121	0.319
230.6282	0.3282
230.8442	0.314
231.0602	0.3618
231.2761	0.3438
231.4921	0.3548
231.7081	0.3316
231.924	0.3334
232.14	0.3844
232.3559	0.3407
232.5718	0.3721
232.7877	0.3705
233.0036	0.3523
233.2195	0.3591
233.4353	0.3621
233.6512	0.3579
233.867	0.3631
234.0829	0.3624
234.2987	0.3716
234.5145	0.3899
234.7303	0.3769
234.9461	0.3746
235.1619	0.3742
235.3776	0.3896
235.5934	0.3827
235.8091	0.3883
236.0249	0.3563
236.2406	0.39
236.4563	0.3921
236.672	0.3995
236.8877	0.3973
237.1034	0.4028
237.319	0.3957
237.5347	0.3992
237.7503	0.3828
237.966	0.4144
238.1816	0.4087
238.3972	0.3902
238.6128	0.4028
238.8284	0.4258
239.0439	0.4321
239.2595	0.4087
239.475	0.4276
239.6906	0.4224
239.9061	0.4263
240.1216	0.3919
240.3371	0.4066
240.5526	0.3773
240.7681	0.4065
240.9836	0.3809
241.199	0.3912
241.4145	0.3878
241.6299	0.3715
241.8453	0.38
242.0607	0.3874
242.2761	0.3521
242.4915	0.3772
242.7069	0.3549
242.9223	0.3545
243.1376	0.3405
243.353	0.3515
243.5683	0.3354
243.7836	0.3295
243.9989	0.3257
244.2142	0.315
244.4295	0.3029
244.6448	0.3128
244.86	0.299
245.0753	0.2934
245.2905	0.2886
245.5057	0.2751
245.721	0.2786
245.9362	0.2609
246.1514	0.2689
246.3665	0.2591
246.5817	0.2584
246.7969	0.2384
247.012	0.2524
247.2271	0.2292
247.4423	0.2452
247.6574	0.233
247.8725	0.2352
248.0876	0.2264
248.3026	0.2194
248.5177	0.2288
248.7328	0.2158
248.9478	0.2059
249.1628	0.2152
249.3779	0.2125
249.5929	0.2003
249.8079	0.1993
250.0228	0.1931
250.2378	0.212
250.4528	0.1964
250.6677	0.1854
250.8827	0.2075
251.0976	0.2016
251.3125	0.1833
251.5274	0.1801
251.7423	0.183
251.9572	0.1929
252.172	0.1731
252.3869	0.1793
252.6017	0.1784
252.8166	0.1736
253.0314	0.1706
253.2462	0.1712
253.461	0.1847
253.6758	0.1654
253.8906	0.1791
254.1053	0.1691
254.3201	0.1629
254.5348	0.1839
254.7496	0.1849
254.9643	0.1605
255.179	0.1748
255.3937	0.1606
255.6083	0.1775
255.823	0.1681
256.0377	0.167
256.2523	0.1815
256.467	0.1535
256.6816	0.1731
256.8962	0.164
257.1108	0.1573
257.3254	0.182
257.54	0.1652
257.7545	0.1693
257.9691	0.1743
258.1836	0.1636
258.3981	0.1741
258.6127	0.1862
258.8272	0.1711
259.0417	0.1723
259.2561	0.1699
259.4706	0.1522
259.6851	0.1726
259.8995	0.1599
260.114	0.1651
260.3284	0.1535
260.5428	0.1644
260.7572	0.1776
260.9716	0.1854
261.186	0.1631
261.4003	0.1632
261.6147	0.1813
261.829	0.1554
262.0433	0.1612
262.2577	0.1646
262.472	0.1736
262.6863	0.1428
262.9005	0.1656
263.1148	0.1638
263.3291	0.1399
263.5433	0.1682
263.7576	0.1606
263.9718	0.1653
264.186	0.1611
264.4002	0.1616
264.6144	0.1555
264.8286	0.1762
265.0427	0.164
265.2569	0.1534
265.471	0.1496
265.6851	0.1577
265.8993	0.1653
266.1134	0.1541
266.3275	0.1602
266.5415	0.1434
266.7556	0.15
266.9697	0.1599
267.1837	0.1722
267.3978	0.1633
267.6118	0.1807
267.8258	0.1746
268.0398	0.1455
268.2538	0.1578
268.4677	0.1569
268.6817	0.1475
268.8957	0.1612
269.1096	0.1693
269.3235	0.1674
269.5374	0.1598
269.7514	0.1561
269.9652	0.147
270.1791	0.148
270.393	0.1536
270.6068	0.1482
270.8207	0.1411
271.0345	0.139
271.2483	0.1507
271.4622	0.1449
271.676	0.1538
271.8897	0.1383
272.1035	0.1444
272.3173	0.1348
272.531	0.1475
272.7448	0.1422
272.9585	0.1296
273.1722	0.1351
273.3859	0.1422
273.5996	0.1253
273.8133	0.1467
274.0269	0.13
274.2406	0.1302
274.4542	0.1447
274.6679	0.1297
274.8815	0.1475
275.0951	0.1323
275.3087	0.1404
275.5223	0.147
275.7358	0.1442
275.9494	0.1433
276.1629	0.1335
276.3765	0.1364
276.59	0.142
276.8035	0.1446
277.017	0.1388
277.2305	0.1401
277.444	0.1542
277.6574	0.1328
277.8709	0.1491
278.0843	0.1324
278.2978	0.1525
278.5112	0.1251
278.7246	0.1301
278.938	0.1456
279.1513	0.1583
279.3647	0.1494
279.5781	0.1464
279.7914	0.1368
280.0047	0.1548
280.2181	0.1505
280.4314	0.1545
280.6447	0.1508
280.8579	0.1446
281.0712	0.1529
281.2845	0.1561
281.4977	0.1525
281.711	0.1371
281.9242	0.154
282.1374	0.1609
282.3506	0.1515
282.5638	0.1496
282.7769	0.1612
282.9901	0.1447
283.2033	0.1555
283.4164	0.1623
283.6295	0.1439
283.8426	0.1515
284.0557	0.1551
284.2688	0.1656
284.4819	0.1606
284.695	0.1564
284.908	0.1672
285.1211	0.1433
285.3341	0.172
285.5471	0.1606
285.7601	0.1583
285.9731	0.1448
286.1861	0.1466
286.3991	0.1592
286.612	0.1637
286.825	0.1492
287.0379	0.1701
287.2508	0.1595
287.4637	0.1639
287.6766	0.1564
287.8895	0.182
288.1024	0.196
288.3152	0.1624
288.5281	0.1588
288.7409	0.1717
288.9538	0.1753
289.1666	0.1655
289.3794	0.1515
289.5922	0.149
289.8049	0.1551
290.0177	0.1681
290.2304	0.1664
290.4432	0.17
290.6559	0.1662
290.8686	0.1806
291.0813	0.1645
291.294	0.1748
291.5067	0.1826
291.7194	0.1652
291.932	0.1735
292.1447	0.1653
292.3573	0.1644
292.5699	0.1633
292.7825	0.167
292.9951	0.1733
293.2077	0.1711
293.4203	0.1586
293.6328	0.1613
293.8454	0.1768
294.0579	0.1689
294.2704	0.1736
294.4829	0.156
294.6954	0.1686
294.9079	0.1687
295.1204	0.1758
295.3328	0.1739
295.5453	0.1675
295.7577	0.1725
295.9701	0.1606
296.1825	0.159
296.3949	0.1618
296.6073	0.1639
296.8197	0.1659
297.0321	0.172
297.2444	0.156
297.4567	0.17
297.6691	0.1565
297.8814	0.1718
298.0937	0.1681
298.306	0.1702
298.5182	0.163
298.7305	0.1678
298.9428	0.1703
299.155	0.1694
299.3672	0.1605
299.5794	0.1607
299.7916	0.169
300.0038	0.1625
300.216	0.1725
300.4282	0.1664
300.6403	0.1711
300.8525	0.1655
301.0646	0.1624
301.2767	0.1725
301.4888	0.1671
301.7009	0.1711
301.913	0.1643
302.125	0.164
302.3371	0.152
302.5491	0.1699
302.7612	0.1692
302.9732	0.1643
303.1852	0.1628
303.3972	0.1577
303.6092	0.155
303.8211	0.1619
304.0331	0.1604
304.245	0.1473
304.457	0.1541
304.6689	0.1489
304.8808	0.1651
305.0927	0.1463
305.3046	0.1574
305.5164	0.1539
305.7283	0.1474
305.9401	0.1512
306.152	0.1485
306.3638	0.1589
306.5756	0.1431
306.7874	0.1432
306.9992	0.1436
307.2109	0.1409
307.4227	0.1301
307.6344	0.1465
307.8462	0.1422
308.0579	0.137
308.2696	0.1365
308.4813	0.1367
308.693	0.1323
308.9046	0.1449
309.1163	0.1353
309.328	0.1277
309.5396	0.1278
309.7512	0.1359
309.9628	0.1361
310.1744	0.1256
310.386	0.1197
310.5976	0.125
310.8091	0.1192
311.0207	0.1211
311.2322	0.1239
311.4437	0.1083
311.6552	0.1076
311.8667	0.1157
312.0782	0.0955
312.2897	0.1041
312.5012	0.1016
312.7126	0.1052
312.924	0.1044
313.1355	0.1049
313.3469	0.1005
313.5583	0.0962
313.7696	0.1079
313.981	0.1132
314.1924	0.0972
314.4037	0.0986
314.6151	0.1133
314.8264	0.1031
315.0377	0.0985
315.249	0.0998
315.4603	0.1069
315.6716	0.097
315.8828	0.0952
316.0941	0.0955
316.3053	0.0922
316.5165	0.098
316.7277	0.0862
316.9389	0.1036
317.1501	0.0842
317.3613	0.099
317.5724	0.0843
317.7836	0.0889
317.9947	0.0933
318.2058	0.0964
318.417	0.0866
318.6281	0.0828
318.8391	0.0995
319.0502	0.0959
319.2613	0.1019
319.4723	0.0984
319.6834	0.095
319.8944	0.0856
320.1054	0.0859
320.3164	0.0982
320.5274	0.093
320.7383	0.0909
320.9493	0.1077
321.1602	0.1007
321.3712	0.086
321.5821	0.0872
321.793	0.1059
322.0039	0.0968
322.2148	0.0952
322.4257	0.0938
322.6365	0.1054
322.8474	0.0985
323.0582	0.091
323.269	0.1
323.4798	0.1041
323.6906	0.1018
323.9014	0.1102
324.1122	0.0961
324.3229	0.1002
324.5337	0.0942
324.7444	0.0974
324.9551	0.1151
325.1658	0.1015
325.3765	0.1047
325.5872	0.0968
325.7979	0.0924
326.0085	0.0982
326.2192	0.102
326.4298	0.1046
326.6404	0.0975
326.851	0.0916
327.0616	0.0984
327.2722	0.1049
327.4828	0.1126
327.6933	0.0993
327.9039	0.1076
328.1144	0.1163
328.3249	0.1053
328.5354	0.1063
328.7459	0.1073
328.9564	0.1018
329.1669	0.0901
329.3773	0.093
329.5878	0.1036
329.7982	0.0994
330.0086	0.0996
330.219	0.1149
330.4294	0.1024
330.6398	0.1023
330.8502	0.0956
331.0605	0.1111
331.2708	0.0987
331.4812	0.1098
331.6915	0.0995
331.9018	0.097
332.1121	0.1001
332.3224	0.1059
332.5326	0.1184
332.7429	0.0989
332.9531	0.1105
333.1633	0.1081
333.3735	0.1124
333.5837	0.0979
333.7939	0.1013
334.0041	0.1175
334.2143	0.1089
334.4244	0.1093
334.6346	0.1005
334.8447	0.1218
335.0548	0.0961
335.2649	0.1068
335.475	0.1166
335.685	0.1042
335.8951	0.1099
336.1051	0.1238
336.3152	0.116
336.5252	0.0972
336.7352	0.1116
336.9452	0.1064
337.1552	0.1119
337.3652	0.1097
337.5751	0.1121
337.7851	0.108
337.995	0.1113
338.2049	0.1177
338.4148	0.102
338.6247	0.1097
338.8346	0.096
339.0445	0.1023
339.2543	0.102
339.4642	0.1156
339.674	0.1205
339.8838	0.116
340.0936	0.1089
340.3034	0.1218
340.5132	0.1178
340.7229	0.122
340.9327	0.1216
341.1424	0.1098
341.3522	0.1237
341.5619	0.1116
341.7716	0.1172
341.9813	0.1021
342.1909	0.117
342.4006	0.1218
342.6102	0.1286
342.8199	0.1278
343.0295	0.1314
343.2391	0.1203
343.4487	0.1253
343.6583	0.1256
343.8679	0.1215
344.0774	0.1252
344.287	0.1212
344.4965	0.1298
344.706	0.1216
344.9155	0.1252
345.125	0.1281
345.3345	0.1223
345.544	0.1215
345.7534	0.1255
345.9629	0.1131
346.1723	0.1349
346.3817	0.122
346.5911	0.1056
346.8005	0.129
347.0099	0.1077
347.2193	0.1307
347.4286	0.1285
347.638	0.1234
347.8473	0.1312
348.0566	0.1134
348.2659	0.1352
348.4752	0.1426
348.6845	0.1361
348.8937	0.138
349.103	0.1399
349.3122	0.1406
349.5214	0.1355
349.7306	0.1422
349.9398	0.146
350.149	0.143
350.3582	0.1424
350.5674	0.1486
350.7765	0.1367
350.9856	0.1383
351.1948	0.1372
351.4039	0.1343
351.613	0.136
351.822	0.148
352.0311	0.144
352.2402	0.1429
352.4492	0.1373
352.6582	0.1472
352.8672	0.1347
353.0762	0.1468
353.2852	0.1379
353.4942	0.1416
353.7032	0.1554
353.9121	0.1403
354.1211	0.1518
354.33	0.1443
354.5389	0.1495
354.7478	0.1441
354.9567	0.1545
355.1655	0.1377
355.3744	0.1486
355.5833	0.1598
355.7921	0.1735
356.0009	0.1531
356.2097	0.1617
356.4185	0.1651
356.6273	0.1613
356.8361	0.1588
357.0448	0.1481
357.2536	0.1555
357.4623	0.1522
357.671	0.1471
357.8797	0.1559
358.0884	0.1691
358.2971	0.1641
358.5057	0.1635
358.7144	0.1787
358.923	0.1669
359.1316	0.1642
359.3402	0.173
359.5488	0.1641
359.7574	0.1614
359.966	0.1721
360.1746	0.188
360.3831	0.174
360.5916	0.1757
360.8002	0.1597
361.0087	0.1809
361.2172	0.1788
361.4256	0.1782
361.6341	0.1809
361.8426	0.186
362.051	0.1934
362.2594	0.1865
362.4678	0.1799
362.6762	0.1974
362.8846	0.1913
363.093	0.1767
363.3014	0.192
363.5097	0.1678
363.718	0.1827
363.9264	0.1989
364.1347	0.1812
364.343	0.1986
364.5513	0.2065
364.7595	0.1981
364.9678	0.2029
365.176	0.192
365.3842	0.1949
365.5925	0.1938
365.8007	0.2066
366.0089	0.194
366.217	0.1933
366.4252	0.2125
366.6333	0.2111
366.8415	0.2135
367.0496	0.1942
367.2577	0.2251
367.4658	0.2197
367.6739	0.2232
367.882	0.2248
368.09	0.2204
368.2981	0.2084
368.5061	0.2039
368.7141	0.2159
368.9221	0.2317
369.1301	0.2208
369.3381	0.2041
369.5461	0.2169
369.754	0.2143
369.962	0.2149
370.1699	0.2294
370.3778	0.2288
370.5857	0.2284
370.7936	0.2221
371.0015	0.2197
371.2093	0.2246
371.4172	0.2329
371.625	0.2103
371.8328	0.2253
372.0406	0.2328
372.2484	0.2183
372.4562	0.2521
372.664	0.2175
372.8717	0.2383
373.0795	0.235
373.2872	0.2279
373.4949	0.2128
373.7026	0.2175
373.9103	0.2441
374.118	0.232
374.3256	0.2482
374.5333	0.2223
374.7409	0.2223
374.9485	0.2421
375.1561	0.2169
375.3637	0.2413
375.5713	0.2453
375.7789	0.2428
375.9864	0.2291
376.194	0.2277
376.4015	0.2436
376.609	0.2471
376.8165	0.2273
377.024	0.2559
377.2315	0.2361
377.4389	0.2513
377.6464	0.2526
377.8538	0.2532
378.0612	0.2521
378.2686	0.2559
378.476	0.2591
378.6834	0.2794
378.8908	0.2509
379.0981	0.2553
379.3055	0.2514
379.5128	0.2506
379.7201	0.2654
379.9274	0.2392
380.1347	0.2597
380.342	0.2798
380.5492	0.2406
380.7565	0.2479
380.9637	0.2532
381.1709	0.2539
381.3781	0.2712
381.5853	0.268
381.7925	0.2859
381.9997	0.2688
382.2068	0.2741
382.4139	0.2679
382.6211	0.2567
382.8282	0.272
383.0353	0.2527
383.2424	0.2685
383.4494	0.2766
383.6565	0.2471
383.8635	0.2744
384.0706	0.2658
384.2776	0.2672
384.4846	0.259
384.6916	0.2595
384.8986	0.2588
385.1055	0.2725
385.3125	0.2625
385.5194	0.2546
385.7263	0.2646
385.9333	0.2686
386.1402	0.2545
386.347	0.2643
386.5539	0.2581
386.7608	0.2798
386.9676	0.2532
387.1744	0.2739
387.3813	0.2434
387.5881	0.2403
387.7948	0.2584
388.0016	0.27
388.2084	0.2724
388.4151	0.2471
388.6219	0.2767
388.8286	0.2748
389.0353	0.2669
389.242	0.2638
389.4487	0.2603
389.6553	0.2592
389.862	0.2492
390.0686	0.231
390.2753	0.258
390.4819	0.2452
390.6885	0.2424
390.8951	0.2593
391.1016	0.2606
391.3082	0.2493
391.5147	0.2557
391.7213	0.2338
391.9278	0.2371
392.1343	0.2385
392.3408	0.2608
392.5473	0.2298
392.7537	0.2172
392.9602	0.2387
393.1666	0.259
393.373	0.247
393.5794	0.2494
393.7858	0.2327
393.9922	0.2335
394.1986	0.2506
394.4049	0.2501
394.6113	0.2316
394.8176	0.2176
395.0239	0.2426
395.2302	0.2279
395.4365	0.2249
395.6428	0.251
395.8491	0.2241
396.0553	0.2475
396.2615	0.2178
396.4678	0.2238
396.674	0.2134
396.8802	0.2334
397.0863	0.2333
397.2925	0.2169
397.4987	0.213
397.7048	0.2139
397.9109	0.2155
398.117	0.2084
398.3231	0.2171
398.5292	0.2253
398.7353	0.2342
398.9413	0.2353
399.1474	0.2276
399.3534	0.2393
399.5594	0.2245
399.7654	0.2548
399.9714	0.2437
400.1774	0.221
400.3833	0.2138
400.5893	0.2222
400.7952	0.2324
401.0011	0.2245
401.207	0.2411
401.4129	0.2197
401.6188	0.2278
401.8247	0.2322
402.0305	0.2092
402.2364	0.2164
402.4422	0.2436
402.648	0.2318
402.8538	0.2158
403.0596	0.2307
403.2654	0.2379
403.4711	0.1985
403.6768	0.2164
403.8826	0.2266
404.0883	0.2117
404.294	0.2125
404.4997	0.2272
404.7054	0.2213
404.911	0.2154
405.1167	0.2147
405.3223	0.2191
405.5279	0.2467
405.7335	0.2402
405.9391	0.2245
406.1447	0.221
406.3502	0.2448
406.5558	0.219
406.7613	0.2231
406.9668	0.2157
407.1724	0.2358
407.3778	0.2276
407.5833	0.2271
407.7888	0.2188
407.9942	0.233
408.1997	0.2153
408.4051	0.214
408.6105	0.2273
408.8159	0.2117
409.0213	0.2137
409.2267	0.2328
409.432	0.2116
409.6374	0.2245
409.8427	0.2135
410.048	0.22
410.2533	0.2088
410.4586	0.2241
410.6639	0.2108
410.8691	0.2347
411.0744	0.2179
411.2796	0.2112
411.4848	0.2078
411.69	0.209
411.8952	0.2328
412.1004	0.232
412.3056	0.227
412.5107	0.2104
412.7158	0.2209
412.921	0.2129
413.1261	0.2232
413.3312	0.2163
413.5362	0.1959
413.7413	0.2108
413.9464	0.2268
414.1514	0.2072
414.3564	0.2069
414.5614	0.211
414.7664	0.2231
414.9714	0.2169
415.1764	0.2155
415.3813	0.2152
415.5863	0.2298
415.7912	0.2168
415.9961	0.1992
416.201	0.2181
416.4059	0.2298
416.6108	0.1884
416.8156	0.2112
417.0205	0.1933
417.2253	0.1982
417.4301	0.232
417.6349	0.1894
417.8397	0.2246
418.0445	0.2018
418.2492	0.2224
418.454	0.2001
418.6587	0.2027
418.8634	0.2063
419.0681	0.201
419.2728	0.2113
419.4775	0.196
419.6822	0.1948
419.8868	0.1897
420.0915	0.202
420.2961	0.1946
420.5007	0.2012
420.7053	0.204
420.9099	0.222
421.1144	0.1873
421.319	0.1917
421.5235	0.2073
421.728	0.1947
421.9325	0.1865
422.137	0.2043
422.3415	0.194
422.546	0.1969
422.7504	0.2075
422.9549	0.2109
423.1593	0.1865
423.3637	0.1809
423.5681	0.1747
423.7725	0.1907
423.9769	0.1836
424.1812	0.1717
424.3856	0.1677
424.5899	0.1964
424.7942	0.1922
424.9985	0.1945
425.2028	0.1853
425.4071	0.2128
425.6113	0.1723
425.8156	0.1837
426.0198	0.1918
426.224	0.1612
426.4282	0.1762
426.6324	0.177
