Data from MonoPyChalIsomerACN10uM410nmA_Absorbance_14-53-26-973.txt Node
Date: Fri Jul 05 14:53:26 BST 2024
User: LASERRRRR
Spectrometer: FLMT03099
Trigger mode: 0
Integration Time (sec): 1.000000E-1
Scans to average: 1
Electric dark correction enabled: true
Nonlinearity correction enabled: false
Boxcar width: 0
XAxis mode: Wavelengths
Number of Pixels in Spectrum: 3648
>>>>>Begin Spectral Data<<<<<
179.3399	-0.0285
179.5586	-0.0285
179.7771	-0.0285
179.9957	-0.0248
180.2143	-0
180.4329	-0.2467
180.6514	-0
180.8699	-0.1345
181.0885	-0.0514
181.307	0.1363
181.5255	-0.85
181.744	-0
181.9625	-0
182.181	-0.1978
182.3994	-0.2186
182.6179	-0
182.8363	-0
183.0547	-0.0182
183.2732	0.1077
183.4916	0.1145
183.71	0.1353
183.9284	0.334
184.1467	-0.0275
184.3651	-0.0332
184.5835	-0.0273
184.8018	0.0728
185.0201	0.401
185.2385	0.0038
185.4568	0.5266
185.6751	0.1021
185.8934	0.2465
186.1117	-0.0156
186.3299	0.092
186.5482	0.1217
186.7664	0.0654
186.9847	-0.0361
187.2029	0.1493
187.4211	0.0788
187.6393	-0.0367
187.8575	0.0904
188.0757	0.2155
188.2939	0.1709
188.512	0.0226
188.7302	0.0479
188.9483	0.1486
189.1665	0.2213
189.3846	-0.0277
189.6027	0.0864
189.8208	0.1905
190.0389	0.1306
190.257	0.1762
190.475	0.1947
190.6931	0.3323
190.9111	0.5389
191.1292	0.2017
191.3472	0.8742
191.5652	0.4311
191.7832	0.2737
192.0012	0.5621
192.2192	0.4552
192.4371	0.5274
192.6551	0.4119
192.873	0.4996
193.091	0.4141
193.3089	0.7233
193.5268	0.6749
193.7447	0.4231
193.9626	0.4483
194.1805	0.7137
194.3984	0.6106
194.6162	0.5582
194.8341	0.7076
195.0519	0.5809
195.2697	0.894
195.4875	0.6361
195.7054	0.6112
195.9231	0.459
196.1409	0.6183
196.3587	0.695
196.5765	0.671
196.7942	0.5008
197.012	0.589
197.2297	0.5749
197.4474	0.6151
197.6651	0.5944
197.8828	0.534
198.1005	0.6744
198.3182	0.6932
198.5358	0.8666
198.7535	0.5924
198.9711	0.5368
199.1888	0.5703
199.4064	1.1293
199.624	0.6777
199.8416	0.6038
200.0592	0.7236
200.2767	0.6637
200.4943	0.6876
200.7119	1.0091
200.9294	0.6715
201.1469	0.5824
201.3645	0.5932
201.582	0.5803
201.7995	0.6511
202.017	0.5584
202.2344	0.668
202.4519	0.7041
202.6694	0.6131
202.8868	0.5351
203.1042	0.6265
203.3217	0.6559
203.5391	0.6822
203.7565	0.587
203.9739	0.6424
204.1913	0.6611
204.4086	0.7716
204.626	0.7108
204.8433	0.654
205.0607	0.5851
205.278	0.7664
205.4953	0.6541
205.7126	0.7073
205.9299	0.7207
206.1472	0.858
206.3644	0.5898
206.5817	0.7403
206.7989	0.6946
207.0162	0.6173
207.2334	0.7251
207.4506	0.5516
207.6678	0.6333
207.885	0.7006
208.1022	0.6875
208.3194	0.6418
208.5365	0.625
208.7537	0.6662
208.9708	0.646
209.1879	0.6933
209.405	0.7059
209.6222	0.7195
209.8392	0.6267
210.0563	0.6424
210.2734	0.6797
210.4905	0.6082
210.7075	0.6424
210.9245	0.6367
211.1416	0.7135
211.3586	0.6264
211.5756	0.6163
211.7926	0.6734
212.0096	0.6122
212.2265	0.6223
212.4435	0.541
212.6604	0.6687
212.8774	0.5892
213.0943	0.6836
213.3112	0.5745
213.5281	0.5569
213.745	0.5102
213.9619	0.4939
214.1788	0.4478
214.3956	0.4922
214.6125	0.4956
214.8293	0.4433
215.0461	0.4907
215.2629	0.4424
215.4798	0.4646
215.6965	0.4248
215.9133	0.4412
216.1301	0.4483
216.3469	0.4332
216.5636	0.4117
216.7803	0.4001
216.9971	0.458
217.2138	0.399
217.4305	0.4073
217.6472	0.3641
217.8639	0.3811
218.0805	0.3622
218.2972	0.3306
218.5138	0.3185
218.7305	0.3192
218.9471	0.3011
219.1637	0.2944
219.3803	0.2853
219.5969	0.2935
219.8135	0.2442
220.0301	0.2777
220.2466	0.2872
220.4632	0.245
220.6797	0.2411
220.8962	0.2439
221.1127	0.2634
221.3292	0.246
221.5457	0.2536
221.7622	0.2236
221.9787	0.2542
222.1951	0.2413
222.4116	0.2416
222.628	0.2557
222.8444	0.2526
223.0608	0.2491
223.2772	0.2364
223.4936	0.2594
223.71	0.2577
223.9264	0.2727
224.1427	0.2574
224.3591	0.259
224.5754	0.2614
224.7917	0.2535
225.008	0.2675
225.2243	0.2572
225.4406	0.2879
225.6569	0.2621
225.8732	0.2554
226.0894	0.2705
226.3057	0.2717
226.5219	0.2856
226.7381	0.2765
226.9543	0.2742
227.1705	0.2787
227.3867	0.2807
227.6029	0.303
227.8191	0.2922
228.0352	0.299
228.2513	0.2973
228.4675	0.3055
228.6836	0.313
228.8997	0.2815
229.1158	0.3198
229.3319	0.317
229.548	0.32
229.764	0.3326
229.9801	0.3224
230.1961	0.3173
230.4121	0.3312
230.6282	0.3485
230.8442	0.321
231.0602	0.3297
231.2761	0.3338
231.4921	0.3403
231.7081	0.3379
231.924	0.3374
232.14	0.3433
232.3559	0.3291
232.5718	0.379
232.7877	0.3471
233.0036	0.345
233.2195	0.3547
233.4353	0.3406
233.6512	0.3695
233.867	0.3638
234.0829	0.367
234.2987	0.3545
234.5145	0.3756
234.7303	0.3578
234.9461	0.3796
235.1619	0.3845
235.3776	0.4059
235.5934	0.3809
235.8091	0.3718
236.0249	0.3743
236.2406	0.3767
236.4563	0.3929
236.672	0.4042
236.8877	0.3876
237.1034	0.3742
237.319	0.3906
237.5347	0.408
237.7503	0.3948
237.966	0.4122
238.1816	0.4084
238.3972	0.3833
238.6128	0.3962
238.8284	0.4004
239.0439	0.4037
239.2595	0.4113
239.475	0.4198
239.6906	0.418
239.9061	0.3971
240.1216	0.3872
240.3371	0.425
240.5526	0.4033
240.7681	0.4026
240.9836	0.3955
241.199	0.404
241.4145	0.3913
241.6299	0.393
241.8453	0.36
242.0607	0.371
242.2761	0.3671
242.4915	0.3629
242.7069	0.3697
242.9223	0.3716
243.1376	0.3518
243.353	0.3589
243.5683	0.3506
243.7836	0.3239
243.9989	0.3283
244.2142	0.3146
244.4295	0.3284
244.6448	0.3137
244.86	0.2917
245.0753	0.3087
245.2905	0.2872
245.5057	0.2831
245.721	0.2765
245.9362	0.2748
246.1514	0.2677
246.3665	0.2664
246.5817	0.2609
246.7969	0.2427
247.012	0.249
247.2271	0.2374
247.4423	0.2503
247.6574	0.2468
247.8725	0.2231
248.0876	0.222
248.3026	0.2213
248.5177	0.2209
248.7328	0.2211
248.9478	0.2199
249.1628	0.2148
249.3779	0.2211
249.5929	0.2096
249.8079	0.221
250.0228	0.2014
250.2378	0.2074
250.4528	0.1984
250.6677	0.1784
250.8827	0.1958
251.0976	0.195
251.3125	0.1843
251.5274	0.1883
251.7423	0.1884
251.9572	0.1929
252.172	0.1797
252.3869	0.188
252.6017	0.1808
252.8166	0.1665
253.0314	0.1723
253.2462	0.1639
253.461	0.1832
253.6758	0.1643
253.8906	0.1822
254.1053	0.1672
254.3201	0.1671
254.5348	0.1832
254.7496	0.1724
254.9643	0.1718
255.179	0.1706
255.3937	0.1489
255.6083	0.1806
255.823	0.168
256.0377	0.1684
256.2523	0.1566
256.467	0.1502
256.6816	0.174
256.8962	0.1659
257.1108	0.1552
257.3254	0.1595
257.54	0.1595
257.7545	0.171
257.9691	0.173
258.1836	0.1645
258.3981	0.1746
258.6127	0.1661
258.8272	0.1576
259.0417	0.1712
259.2561	0.1671
259.4706	0.1647
259.6851	0.1649
259.8995	0.1567
260.114	0.1588
260.3284	0.1593
260.5428	0.1653
260.7572	0.1609
260.9716	0.1672
261.186	0.157
261.4003	0.1565
261.6147	0.165
261.829	0.1639
262.0433	0.1652
262.2577	0.1555
262.472	0.1674
262.6863	0.1501
262.9005	0.1679
263.1148	0.1642
263.3291	0.1513
263.5433	0.1657
263.7576	0.1676
263.9718	0.1708
264.186	0.155
264.4002	0.1479
264.6144	0.1659
264.8286	0.1688
265.0427	0.1637
265.2569	0.1578
265.471	0.1578
265.6851	0.1615
265.8993	0.1668
266.1134	0.1471
266.3275	0.1521
266.5415	0.1542
266.7556	0.166
266.9697	0.161
267.1837	0.1721
267.3978	0.1729
267.6118	0.1654
267.8258	0.1711
268.0398	0.1592
268.2538	0.1715
268.4677	0.1602
268.6817	0.1436
268.8957	0.1707
269.1096	0.1663
269.3235	0.1704
269.5374	0.1702
269.7514	0.1582
269.9652	0.1644
270.1791	0.1541
270.393	0.144
270.6068	0.1702
270.8207	0.1543
271.0345	0.14
271.2483	0.1596
271.4622	0.1556
271.676	0.1498
271.8897	0.1431
272.1035	0.1434
272.3173	0.1501
272.531	0.1493
272.7448	0.145
272.9585	0.1382
273.1722	0.148
273.3859	0.1546
273.5996	0.1397
273.8133	0.1423
274.0269	0.1455
274.2406	0.1413
274.4542	0.1536
274.6679	0.1282
274.8815	0.1461
275.0951	0.1547
275.3087	0.1582
275.5223	0.14
275.7358	0.146
275.9494	0.1501
276.1629	0.143
276.3765	0.1427
276.59	0.1469
276.8035	0.1545
277.017	0.1572
277.2305	0.1506
277.444	0.1499
277.6574	0.1497
277.8709	0.1614
278.0843	0.1434
278.2978	0.1534
278.5112	0.145
278.7246	0.1502
278.938	0.1551
279.1513	0.1574
279.3647	0.1617
279.5781	0.1586
279.7914	0.1619
280.0047	0.1705
280.2181	0.1599
280.4314	0.1569
280.6447	0.1536
280.8579	0.1543
281.0712	0.1517
281.2845	0.1583
281.4977	0.1516
281.711	0.1482
281.9242	0.1588
282.1374	0.1512
282.3506	0.1433
282.5638	0.1612
282.7769	0.1502
282.9901	0.1601
283.2033	0.1657
283.4164	0.1678
283.6295	0.1475
283.8426	0.152
284.0557	0.1643
284.2688	0.167
284.4819	0.1581
284.695	0.1503
284.908	0.1709
285.1211	0.1503
285.3341	0.1658
285.5471	0.1611
285.7601	0.1623
285.9731	0.1538
286.1861	0.1514
286.3991	0.1705
286.612	0.1748
286.825	0.1608
287.0379	0.1596
287.2508	0.1604
287.4637	0.1618
287.6766	0.1579
287.8895	0.1678
288.1024	0.1793
288.3152	0.1775
288.5281	0.1568
288.7409	0.1572
288.9538	0.1545
289.1666	0.1554
289.3794	0.1569
289.5922	0.1469
289.8049	0.1686
290.0177	0.1589
290.2304	0.1732
290.4432	0.1698
290.6559	0.1536
290.8686	0.1681
291.0813	0.1611
291.294	0.152
291.5067	0.1528
291.7194	0.1674
291.932	0.1607
292.1447	0.1592
292.3573	0.1551
292.5699	0.163
292.7825	0.153
292.9951	0.1574
293.2077	0.1655
293.4203	0.1641
293.6328	0.1583
293.8454	0.1583
294.0579	0.1622
294.2704	0.1553
294.4829	0.1551
294.6954	0.1596
294.9079	0.1587
295.1204	0.1707
295.3328	0.1585
295.5453	0.1627
295.7577	0.1648
295.9701	0.1523
296.1825	0.165
296.3949	0.1591
296.6073	0.1512
296.8197	0.1566
297.0321	0.1644
297.2444	0.1432
297.4567	0.1613
297.6691	0.1563
297.8814	0.1529
298.0937	0.1611
298.306	0.1671
298.5182	0.1599
298.7305	0.1604
298.9428	0.146
299.155	0.1596
299.3672	0.1477
299.5794	0.1553
299.7916	0.1489
300.0038	0.1634
300.216	0.1578
300.4282	0.1425
300.6403	0.1561
300.8525	0.1617
301.0646	0.1425
301.2767	0.164
301.4888	0.1424
301.7009	0.1513
301.913	0.1645
302.125	0.1616
302.3371	0.146
302.5491	0.1562
302.7612	0.1733
302.9732	0.1611
303.1852	0.164
303.3972	0.1583
303.6092	0.1443
303.8211	0.1554
304.0331	0.1511
304.245	0.1539
304.457	0.1546
304.6689	0.1451
304.8808	0.1576
305.0927	0.1421
305.3046	0.1528
305.5164	0.154
305.7283	0.1464
305.9401	0.1507
306.152	0.1459
306.3638	0.1577
306.5756	0.1454
306.7874	0.1425
306.9992	0.1447
307.2109	0.135
307.4227	0.1353
307.6344	0.1457
307.8462	0.1336
308.0579	0.1308
308.2696	0.1336
308.4813	0.1185
308.693	0.1306
308.9046	0.1278
309.1163	0.1191
309.328	0.1161
309.5396	0.1233
309.7512	0.1204
309.9628	0.1184
310.1744	0.1228
310.386	0.117
310.5976	0.1285
310.8091	0.1138
311.0207	0.1239
311.2322	0.1175
311.4437	0.1102
311.6552	0.1137
311.8667	0.1148
312.0782	0.0971
312.2897	0.1033
312.5012	0.1128
312.7126	0.0998
312.924	0.1025
313.1355	0.1148
313.3469	0.0963
313.5583	0.105
313.7696	0.1187
313.981	0.1059
314.1924	0.1023
314.4037	0.1065
314.6151	0.1175
314.8264	0.0996
315.0377	0.103
315.249	0.1008
315.4603	0.1096
315.6716	0.1084
315.8828	0.0923
316.0941	0.1026
316.3053	0.104
316.5165	0.096
316.7277	0.0966
316.9389	0.1003
317.1501	0.1006
317.3613	0.0932
317.5724	0.0853
317.7836	0.1036
317.9947	0.0963
318.2058	0.1029
318.417	0.0953
318.6281	0.0881
318.8391	0.0978
319.0502	0.099
319.2613	0.0968
319.4723	0.1069
319.6834	0.1095
319.8944	0.0895
320.1054	0.0988
320.3164	0.1039
320.5274	0.0924
320.7383	0.1045
320.9493	0.097
321.1602	0.1145
321.3712	0.1019
321.5821	0.1087
321.793	0.1128
322.0039	0.1026
322.2148	0.0993
322.4257	0.0988
322.6365	0.1158
322.8474	0.1024
323.0582	0.1127
323.269	0.1003
323.4798	0.1155
323.6906	0.1074
323.9014	0.1081
324.1122	0.11
324.3229	0.1004
324.5337	0.106
324.7444	0.0975
324.9551	0.1154
325.1658	0.1056
325.3765	0.1095
325.5872	0.1053
325.7979	0.0955
326.0085	0.1152
326.2192	0.1177
326.4298	0.112
326.6404	0.1012
326.851	0.0961
327.0616	0.096
327.2722	0.1018
327.4828	0.1067
327.6933	0.0998
327.9039	0.1195
328.1144	0.1189
328.3249	0.1138
328.5354	0.1062
328.7459	0.0988
328.9564	0.1019
329.1669	0.1009
329.3773	0.1193
329.5878	0.1068
329.7982	0.1042
330.0086	0.1101
330.219	0.1066
330.4294	0.1038
330.6398	0.1018
330.8502	0.093
331.0605	0.1183
331.2708	0.105
331.4812	0.1124
331.6915	0.1088
331.9018	0.1115
332.1121	0.1066
332.3224	0.111
332.5326	0.106
332.7429	0.1135
332.9531	0.1268
333.1633	0.1115
333.3735	0.1027
333.5837	0.1106
333.7939	0.1124
334.0041	0.1217
334.2143	0.1161
334.4244	0.1056
334.6346	0.0872
334.8447	0.1142
335.0548	0.1023
335.2649	0.1051
335.475	0.1189
335.685	0.1013
335.8951	0.1244
336.1051	0.1074
336.3152	0.1322
336.5252	0.1126
336.7352	0.1234
336.9452	0.1181
337.1552	0.1142
337.3652	0.1136
337.5751	0.1186
337.7851	0.1029
337.995	0.1006
338.2049	0.1213
338.4148	0.1126
338.6247	0.1116
338.8346	0.1111
339.0445	0.1153
339.2543	0.1108
339.4642	0.1097
339.674	0.1038
339.8838	0.122
340.0936	0.116
340.3034	0.1341
340.5132	0.1208
340.7229	0.1221
340.9327	0.11
341.1424	0.1156
341.3522	0.1198
341.5619	0.1326
341.7716	0.1253
341.9813	0.1196
342.1909	0.1253
342.4006	0.1245
342.6102	0.1387
342.8199	0.1254
343.0295	0.1376
343.2391	0.1303
343.4487	0.1321
343.6583	0.1275
343.8679	0.1198
344.0774	0.1262
344.287	0.1318
344.4965	0.1277
344.706	0.1342
344.9155	0.126
345.125	0.1264
345.3345	0.1271
345.544	0.131
345.7534	0.1341
345.9629	0.1316
346.1723	0.1315
346.3817	0.1194
346.5911	0.1221
346.8005	0.1442
347.0099	0.1463
347.2193	0.1407
347.4286	0.13
347.638	0.1413
347.8473	0.1395
348.0566	0.136
348.2659	0.1391
348.4752	0.1358
348.6845	0.1281
348.8937	0.1345
349.103	0.1503
349.3122	0.1404
349.5214	0.1304
349.7306	0.1449
349.9398	0.1466
350.149	0.1553
350.3582	0.1421
350.5674	0.1415
350.7765	0.1345
350.9856	0.1575
351.1948	0.1491
351.4039	0.1301
351.613	0.1384
351.822	0.1549
352.0311	0.155
352.2402	0.1451
352.4492	0.1367
352.6582	0.1521
352.8672	0.1448
353.0762	0.1595
353.2852	0.1585
353.4942	0.1488
353.7032	0.1588
353.9121	0.1506
354.1211	0.1506
354.33	0.1456
354.5389	0.1662
354.7478	0.1443
354.9567	0.1437
355.1655	0.1328
355.3744	0.1495
355.5833	0.1569
355.7921	0.1811
356.0009	0.1553
356.2097	0.1812
356.4185	0.1684
356.6273	0.1712
356.8361	0.1674
357.0448	0.1482
357.2536	0.16
357.4623	0.1621
357.671	0.1549
357.8797	0.1557
358.0884	0.1659
358.2971	0.159
358.5057	0.1728
358.7144	0.1699
358.923	0.1723
359.1316	0.1598
359.3402	0.1781
359.5488	0.1675
359.7574	0.1589
359.966	0.1746
360.1746	0.1771
360.3831	0.1669
360.5916	0.1681
360.8002	0.1649
361.0087	0.1787
361.2172	0.1772
361.4256	0.1635
361.6341	0.1777
361.8426	0.1752
362.051	0.169
362.2594	0.179
362.4678	0.1755
362.6762	0.1954
362.8846	0.1839
363.093	0.1923
363.3014	0.1853
363.5097	0.1771
363.718	0.1787
363.9264	0.1949
364.1347	0.17
364.343	0.1874
364.5513	0.2061
364.7595	0.202
364.9678	0.1928
365.176	0.1929
365.3842	0.195
365.5925	0.1917
365.8007	0.1798
366.0089	0.1897
366.217	0.1867
366.4252	0.2006
366.6333	0.2021
366.8415	0.2006
367.0496	0.1997
367.2577	0.2021
367.4658	0.2098
367.6739	0.1996
367.882	0.2147
368.09	0.1989
368.2981	0.2177
368.5061	0.1889
368.7141	0.1953
368.9221	0.2101
369.1301	0.2083
369.3381	0.1987
369.5461	0.1966
369.754	0.2048
369.962	0.2201
370.1699	0.2161
370.3778	0.2122
370.5857	0.2068
370.7936	0.217
371.0015	0.2069
371.2093	0.2181
371.4172	0.2169
371.625	0.1998
371.8328	0.2043
372.0406	0.2134
372.2484	0.2122
372.4562	0.2102
372.664	0.2037
372.8717	0.2303
373.0795	0.1955
373.2872	0.2165
373.4949	0.2111
373.7026	0.2259
373.9103	0.2216
374.118	0.2205
374.3256	0.2043
374.5333	0.2132
374.7409	0.2122
374.9485	0.2384
375.1561	0.2335
375.3637	0.2322
375.5713	0.2352
375.7789	0.2192
375.9864	0.2094
376.194	0.2203
376.4015	0.2351
376.609	0.22
376.8165	0.231
377.024	0.2226
377.2315	0.2141
377.4389	0.2289
377.6464	0.2424
377.8538	0.2402
378.0612	0.2265
378.2686	0.2417
378.476	0.2426
378.6834	0.2311
378.8908	0.2226
379.0981	0.235
379.3055	0.2441
379.5128	0.2304
379.7201	0.2235
379.9274	0.2225
380.1347	0.2463
380.342	0.2525
380.5492	0.2238
380.7565	0.2353
380.9637	0.2401
381.1709	0.2368
381.3781	0.2459
381.5853	0.2432
381.7925	0.2301
381.9997	0.2437
382.2068	0.2585
382.4139	0.2509
382.6211	0.2263
382.8282	0.2364
383.0353	0.2275
383.2424	0.2558
383.4494	0.2451
383.6565	0.2427
383.8635	0.2405
384.0706	0.2533
384.2776	0.2478
384.4846	0.236
384.6916	0.2355
384.8986	0.2285
385.1055	0.2622
385.3125	0.2385
385.5194	0.2218
385.7263	0.2526
385.9333	0.24
386.1402	0.2275
386.347	0.2323
386.5539	0.2307
386.7608	0.2533
386.9676	0.2243
387.1744	0.2656
387.3813	0.2306
387.5881	0.2327
387.7948	0.2362
388.0016	0.2264
388.2084	0.2312
388.4151	0.2348
388.6219	0.2418
388.8286	0.2513
389.0353	0.2543
389.242	0.2444
389.4487	0.2314
389.6553	0.2228
389.862	0.2211
390.0686	0.2267
390.2753	0.2282
390.4819	0.218
390.6885	0.2151
390.8951	0.2362
391.1016	0.2367
391.3082	0.24
391.5147	0.2293
391.7213	0.2299
391.9278	0.203
392.1343	0.2223
392.3408	0.2319
392.5473	0.2121
392.7537	0.2183
392.9602	0.2101
393.1666	0.2201
393.373	0.2174
393.5794	0.2287
393.7858	0.2271
393.9922	0.1926
394.1986	0.2132
394.4049	0.2091
394.6113	0.1944
394.8176	0.2192
395.0239	0.1988
395.2302	0.2117
395.4365	0.2076
395.6428	0.2196
395.8491	0.1975
396.0553	0.208
396.2615	0.1961
396.4678	0.2001
396.674	0.1902
396.8802	0.2046
397.0863	0.2094
397.2925	0.2061
397.4987	0.1873
397.7048	0.1968
397.9109	0.2192
398.117	0.1778
398.3231	0.1947
398.5292	0.2015
398.7353	0.2028
398.9413	0.1981
399.1474	0.2045
399.3534	0.2076
399.5594	0.1879
399.7654	0.2035
399.9714	0.2209
400.1774	0.1858
400.3833	0.1915
400.5893	0.2029
400.7952	0.199
401.0011	0.1963
401.207	0.2119
401.4129	0.1806
401.6188	0.2001
401.8247	0.1911
402.0305	0.2063
402.2364	0.177
402.4422	0.2026
402.648	0.2088
402.8538	0.2051
403.0596	0.1919
403.2654	0.2052
403.4711	0.1923
403.6768	0.218
403.8826	0.2
404.0883	0.1953
404.294	0.2011
404.4997	0.1871
404.7054	0.1918
404.911	0.1813
405.1167	0.1982
405.3223	0.2115
405.5279	0.2237
405.7335	0.1936
405.9391	0.2131
406.1447	0.1937
406.3502	0.203
406.5558	0.1989
406.7613	0.2253
406.9668	0.1999
407.1724	0.1913
407.3778	0.1819
407.5833	0.204
407.7888	0.2033
407.9942	0.199
408.1997	0.1965
408.4051	0.196
408.6105	0.2008
408.8159	0.1846
409.0213	0.1936
409.2267	0.2164
409.432	0.1915
409.6374	0.2109
409.8427	0.1955
410.048	0.1916
410.2533	0.205
410.4586	0.2001
410.6639	0.1915
410.8691	0.1905
411.0744	0.1894
411.2796	0.185
411.4848	0.1911
411.69	0.185
411.8952	0.2074
412.1004	0.1805
412.3056	0.2064
412.5107	0.1931
412.7158	0.2326
412.921	0.1978
413.1261	0.1927
413.3312	0.1983
413.5362	0.1921
413.7413	0.1968
413.9464	0.1726
414.1514	0.1727
414.3564	0.1844
414.5614	0.1762
414.7664	0.2049
414.9714	0.1976
415.1764	0.1901
415.3813	0.1921
415.5863	0.1982
415.7912	0.2048
415.9961	0.2074
416.201	0.1968
416.4059	0.1992
416.6108	0.2009
416.8156	0.2079
417.0205	0.1809
417.2253	0.173
417.4301	0.1898
417.6349	0.1704
417.8397	0.1883
418.0445	0.1978
418.2492	0.1898
418.454	0.1831
418.6587	0.1603
418.8634	0.173
419.0681	0.1658
419.2728	0.1831
419.4775	0.1928
419.6822	0.1734
419.8868	0.1614
420.0915	0.1758
420.2961	0.1596
420.5007	0.1784
420.7053	0.1864
420.9099	0.179
421.1144	0.1776
421.319	0.1772
421.5235	0.1842
421.728	0.1731
421.9325	0.182
422.137	0.1809
422.3415	0.1783
422.546	0.1719
422.7504	0.1751
422.9549	0.1762
423.1593	0.1896
423.3637	0.1726
423.5681	0.1882
423.7725	0.1558
423.9769	0.1562
424.1812	0.1517
424.3856	0.1794
424.5899	0.1857
424.7942	0.166
424.9985	0.1519
425.2028	0.1596
425.4071	0.1834
425.6113	0.1594
425.8156	0.1676
426.0198	0.1585
426.224	0.1394
426.4282	0.1707
426.6324	0.1564
426.8366	0.1581
