Data from MonoPyChalIsomerACN10uM410nmA_Absorbance_14-53-25-373.txt Node
Date: Fri Jul 05 14:53:25 BST 2024
User: LASERRRRR
Spectrometer: FLMT03099
Trigger mode: 0
Integration Time (sec): 1.000000E-1
Scans to average: 1
Electric dark correction enabled: true
Nonlinearity correction enabled: false
Boxcar width: 0
XAxis mode: Wavelengths
Number of Pixels in Spectrum: 3648
>>>>>Begin Spectral Data<<<<<
179.3399	-0.3334
179.5586	-0.3334
179.7771	-0.3334
179.9957	-0
180.2143	-0
180.4329	-0.2155
180.6514	-0
180.8699	-0
181.0885	-0.2937
181.307	0.1669
181.5255	-0.6557
181.744	-0.3317
181.9625	-0
182.181	-0.8498
182.3994	0.2225
182.6179	-0
182.8363	0.1372
183.0547	-0.3228
183.2732	0.0414
183.4916	0.249
183.71	0.0713
183.9284	-0.0459
184.1467	-0.1426
184.3651	-0.0709
184.5835	0.0177
184.8018	-0.0692
185.0201	-0.0598
185.2385	0.2033
185.4568	0.1494
185.6751	0.0955
185.8934	0.2741
186.1117	-0.0117
186.3299	0.0835
186.5482	0.1048
186.7664	-0.0416
186.9847	-0.0186
187.2029	0.044
187.4211	0.0255
187.6393	0.5657
187.8575	-0.0406
188.0757	0.1299
188.2939	0.1518
188.512	0.1174
188.7302	0.0686
188.9483	-0.0604
189.1665	0.2116
189.3846	-0.3767
189.6027	0.207
189.8208	0.1336
190.0389	0.127
190.257	0.0703
190.475	0.274
190.6931	0.3125
190.9111	0.3419
191.1292	-0.0322
191.3472	0.3681
191.5652	0.2113
191.7832	0.227
192.0012	0.3219
192.2192	0.3323
192.4371	0.4542
192.6551	0.2569
192.873	0.4353
193.091	0.3178
193.3089	0.5494
193.5268	0.4926
193.7447	0.5234
193.9626	0.3907
194.1805	0.4702
194.3984	0.662
194.6162	0.5402
194.8341	0.5369
195.0519	0.4762
195.2697	0.7301
195.4875	0.4749
195.7054	0.5473
195.9231	0.4929
196.1409	0.8102
196.3587	0.5571
196.5765	0.4901
196.7942	0.4947
197.012	0.5235
197.2297	0.6432
197.4474	0.5451
197.6651	0.5346
197.8828	0.5753
198.1005	0.5555
198.3182	0.6772
198.5358	1.0158
198.7535	0.7317
198.9711	0.4989
199.1888	0.5406
199.4064	0.8115
199.624	0.5075
199.8416	0.5845
200.0592	0.6533
200.2767	0.7622
200.4943	0.7137
200.7119	0.675
200.9294	0.5943
201.1469	0.5826
201.3645	0.5585
201.582	0.5617
201.7995	0.6633
202.017	0.587
202.2344	0.5557
202.4519	0.666
202.6694	0.783
202.8868	0.5316
203.1042	0.6931
203.3217	0.6718
203.5391	0.522
203.7565	0.5239
203.9739	0.5446
204.1913	0.6097
204.4086	0.656
204.626	0.7086
204.8433	0.6146
205.0607	0.6273
205.278	0.6809
205.4953	0.6926
205.7126	0.647
205.9299	0.8432
206.1472	0.7305
206.3644	0.6252
206.5817	0.7405
206.7989	0.6948
207.0162	0.6174
207.2334	0.68
207.4506	0.6875
207.6678	0.5981
207.885	0.569
208.1022	0.6456
208.3194	0.7034
208.5365	0.6736
208.7537	0.6679
208.9708	0.5632
209.1879	0.5896
209.405	0.6763
209.6222	0.6842
209.8392	0.6108
210.0563	0.6364
210.2734	0.6233
210.4905	0.5849
210.7075	0.6471
210.9245	0.5517
211.1416	0.65
211.3586	0.7091
211.5756	0.5881
211.7926	0.5821
212.0096	0.555
212.2265	0.573
212.4435	0.5039
212.6604	0.575
212.8774	0.596
213.0943	0.6444
213.3112	0.5234
213.5281	0.4895
213.745	0.5253
213.9619	0.5261
214.1788	0.4917
214.3956	0.4545
214.6125	0.4624
214.8293	0.4462
215.0461	0.464
215.2629	0.457
215.4798	0.4813
215.6965	0.428
215.9133	0.4454
216.1301	0.3835
216.3469	0.4645
216.5636	0.3952
216.7803	0.4013
216.9971	0.4235
217.2138	0.3635
217.4305	0.405
217.6472	0.3422
217.8639	0.3994
218.0805	0.3596
218.2972	0.3183
218.5138	0.3176
218.7305	0.3459
218.9471	0.2994
219.1637	0.285
219.3803	0.2796
219.5969	0.2708
219.8135	0.2483
220.0301	0.2867
220.2466	0.3068
220.4632	0.2575
220.6797	0.2528
220.8962	0.2481
221.1127	0.2509
221.3292	0.255
221.5457	0.2575
221.7622	0.2243
221.9787	0.2588
222.1951	0.2432
222.4116	0.2499
222.628	0.242
222.8444	0.277
223.0608	0.2233
223.2772	0.2356
223.4936	0.253
223.71	0.2351
223.9264	0.269
224.1427	0.2454
224.3591	0.2447
224.5754	0.2576
224.7917	0.2371
225.008	0.2517
225.2243	0.2601
225.4406	0.2876
225.6569	0.2641
225.8732	0.2535
226.0894	0.2344
226.3057	0.2436
226.5219	0.2953
226.7381	0.2564
226.9543	0.2756
227.1705	0.2751
227.3867	0.2782
227.6029	0.2918
227.8191	0.2787
228.0352	0.3069
228.2513	0.299
228.4675	0.3044
228.6836	0.2881
228.8997	0.2728
229.1158	0.3011
229.3319	0.3179
229.548	0.3107
229.764	0.3137
229.9801	0.3144
230.1961	0.3391
230.4121	0.3343
230.6282	0.3304
230.8442	0.3119
231.0602	0.3344
231.2761	0.3514
231.4921	0.3384
231.7081	0.345
231.924	0.3399
232.14	0.3553
232.3559	0.3429
232.5718	0.3599
232.7877	0.3495
233.0036	0.3368
233.2195	0.3531
233.4353	0.3394
233.6512	0.3442
233.867	0.3548
234.0829	0.3615
234.2987	0.3601
234.5145	0.3859
234.7303	0.3712
234.9461	0.3656
235.1619	0.3532
235.3776	0.3946
235.5934	0.3902
235.8091	0.371
236.0249	0.3862
236.2406	0.3894
236.4563	0.3737
236.672	0.3862
236.8877	0.3957
237.1034	0.3858
237.319	0.3854
237.5347	0.4212
237.7503	0.4049
237.966	0.4024
238.1816	0.4101
238.3972	0.3987
238.6128	0.3809
238.8284	0.4091
239.0439	0.4047
239.2595	0.3849
239.475	0.4084
239.6906	0.4088
239.9061	0.3919
240.1216	0.3847
240.3371	0.4196
240.5526	0.3947
240.7681	0.417
240.9836	0.3885
241.199	0.4028
241.4145	0.3969
241.6299	0.3657
241.8453	0.3793
242.0607	0.3659
242.2761	0.3558
242.4915	0.3659
242.7069	0.3528
242.9223	0.3342
243.1376	0.3446
243.353	0.337
243.5683	0.3522
243.7836	0.3206
243.9989	0.3256
244.2142	0.2957
244.4295	0.3065
244.6448	0.2995
244.86	0.291
245.0753	0.2938
245.2905	0.2832
245.5057	0.2669
245.721	0.2673
245.9362	0.2579
246.1514	0.2757
246.3665	0.2534
246.5817	0.2583
246.7969	0.261
247.012	0.2519
247.2271	0.2306
247.4423	0.2451
247.6574	0.2338
247.8725	0.2325
248.0876	0.222
248.3026	0.2264
248.5177	0.2257
248.7328	0.2002
248.9478	0.2143
249.1628	0.2142
249.3779	0.2351
249.5929	0.1991
249.8079	0.2163
250.0228	0.1881
250.2378	0.1978
250.4528	0.203
250.6677	0.186
250.8827	0.1918
251.0976	0.1983
251.3125	0.1944
251.5274	0.1886
251.7423	0.1757
251.9572	0.178
252.172	0.175
252.3869	0.1681
252.6017	0.1681
252.8166	0.1691
253.0314	0.1666
253.2462	0.1608
253.461	0.1714
253.6758	0.1559
253.8906	0.1863
254.1053	0.1557
254.3201	0.157
254.5348	0.176
254.7496	0.1842
254.9643	0.1576
255.179	0.17
255.3937	0.162
255.6083	0.1565
255.823	0.1771
256.0377	0.1632
256.2523	0.1653
256.467	0.1528
256.6816	0.1778
256.8962	0.1709
257.1108	0.172
257.3254	0.1776
257.54	0.1541
257.7545	0.1544
257.9691	0.1697
258.1836	0.1682
258.3981	0.1651
258.6127	0.1731
258.8272	0.1575
259.0417	0.1715
259.2561	0.1546
259.4706	0.1563
259.6851	0.1689
259.8995	0.1562
260.114	0.1728
260.3284	0.168
260.5428	0.1527
260.7572	0.1724
260.9716	0.1634
261.186	0.1502
261.4003	0.1613
261.6147	0.1563
261.829	0.1491
262.0433	0.1556
262.2577	0.1594
262.472	0.1667
262.6863	0.1627
262.9005	0.1688
263.1148	0.1677
263.3291	0.1458
263.5433	0.1633
263.7576	0.153
263.9718	0.1565
264.186	0.1667
264.4002	0.1624
264.6144	0.1557
264.8286	0.163
265.0427	0.1593
265.2569	0.1584
265.471	0.1521
265.6851	0.1573
265.8993	0.159
266.1134	0.1653
266.3275	0.1571
266.5415	0.159
266.7556	0.1562
266.9697	0.1586
267.1837	0.1611
267.3978	0.1581
267.6118	0.1741
267.8258	0.1718
268.0398	0.1514
268.2538	0.166
268.4677	0.1554
268.6817	0.1603
268.8957	0.1567
269.1096	0.1596
269.3235	0.163
269.5374	0.1541
269.7514	0.1507
269.9652	0.1459
270.1791	0.1514
270.393	0.1437
270.6068	0.1599
270.8207	0.138
271.0345	0.1486
271.2483	0.1472
271.4622	0.1494
271.676	0.1616
271.8897	0.1366
272.1035	0.1446
272.3173	0.1449
272.531	0.1403
272.7448	0.1414
272.9585	0.1378
273.1722	0.1479
273.3859	0.1503
273.5996	0.1423
273.8133	0.1441
274.0269	0.1314
274.2406	0.1465
274.4542	0.131
274.6679	0.1312
274.8815	0.1423
275.0951	0.1458
275.3087	0.1417
275.5223	0.1508
275.7358	0.141
275.9494	0.1376
276.1629	0.1437
276.3765	0.1307
276.59	0.1537
276.8035	0.1378
277.017	0.143
277.2305	0.1459
277.444	0.1459
277.6574	0.1369
277.8709	0.142
278.0843	0.1388
278.2978	0.1408
278.5112	0.1208
278.7246	0.1406
278.938	0.1465
279.1513	0.1408
279.3647	0.1497
279.5781	0.1329
279.7914	0.1487
280.0047	0.157
280.2181	0.1423
280.4314	0.1538
280.6447	0.1515
280.8579	0.155
281.0712	0.1458
281.2845	0.1484
281.4977	0.1463
281.711	0.1446
281.9242	0.1478
282.1374	0.1543
282.3506	0.1475
282.5638	0.1477
282.7769	0.1553
282.9901	0.1508
283.2033	0.165
283.4164	0.1626
283.6295	0.1333
283.8426	0.1522
284.0557	0.1509
284.2688	0.1682
284.4819	0.1594
284.695	0.1531
284.908	0.1535
285.1211	0.1486
285.3341	0.1498
285.5471	0.1579
285.7601	0.1526
285.9731	0.1426
286.1861	0.1594
286.3991	0.1639
286.612	0.1639
286.825	0.1588
287.0379	0.1605
287.2508	0.1574
287.4637	0.1689
287.6766	0.1596
287.8895	0.1671
288.1024	0.173
288.3152	0.1673
288.5281	0.1559
288.7409	0.157
288.9538	0.1589
289.1666	0.1618
289.3794	0.1621
289.5922	0.1532
289.8049	0.1619
290.0177	0.1649
290.2304	0.162
290.4432	0.1652
290.6559	0.1666
290.8686	0.1731
291.0813	0.1659
291.294	0.1728
291.5067	0.1675
291.7194	0.1607
291.932	0.188
292.1447	0.163
292.3573	0.1633
292.5699	0.1608
292.7825	0.1576
292.9951	0.1618
293.2077	0.1576
293.4203	0.1689
293.6328	0.151
293.8454	0.1721
294.0579	0.1602
294.2704	0.1658
294.4829	0.1624
294.6954	0.1611
294.9079	0.1694
295.1204	0.1629
295.3328	0.1631
295.5453	0.1613
295.7577	0.1802
295.9701	0.1609
296.1825	0.1641
296.3949	0.1602
296.6073	0.1764
296.8197	0.1607
297.0321	0.1784
297.2444	0.1465
297.4567	0.1627
297.6691	0.1639
297.8814	0.1607
298.0937	0.1642
298.306	0.1653
298.5182	0.1683
298.7305	0.1719
298.9428	0.1574
299.155	0.174
299.3672	0.16
299.5794	0.1519
299.7916	0.1584
300.0038	0.1722
300.216	0.1699
300.4282	0.17
300.6403	0.1642
300.8525	0.1773
301.0646	0.1521
301.2767	0.1595
301.4888	0.1642
301.7009	0.1688
301.913	0.1631
302.125	0.1652
302.3371	0.155
302.5491	0.1689
302.7612	0.174
302.9732	0.1619
303.1852	0.1624
303.3972	0.1624
303.6092	0.1579
303.8211	0.1597
304.0331	0.157
304.245	0.162
304.457	0.15
304.6689	0.1589
304.8808	0.1632
305.0927	0.1447
305.3046	0.1472
305.5164	0.1577
305.7283	0.1549
305.9401	0.1559
306.152	0.1488
306.3638	0.1515
306.5756	0.155
306.7874	0.1479
306.9992	0.1541
307.2109	0.1443
307.4227	0.1309
307.6344	0.1361
307.8462	0.1382
308.0579	0.1394
308.2696	0.1268
308.4813	0.1285
308.693	0.1357
308.9046	0.1347
309.1163	0.126
309.328	0.1251
309.5396	0.1172
309.7512	0.1197
309.9628	0.1298
310.1744	0.1214
310.386	0.1219
310.5976	0.1137
310.8091	0.1168
311.0207	0.1135
311.2322	0.1234
311.4437	0.1104
311.6552	0.1102
311.8667	0.1143
312.0782	0.0915
312.2897	0.0948
312.5012	0.1133
312.7126	0.1001
312.924	0.1008
313.1355	0.1085
313.3469	0.1063
313.5583	0.1054
313.7696	0.1136
313.981	0.102
314.1924	0.1063
314.4037	0.1051
314.6151	0.1205
314.8264	0.0981
315.0377	0.0994
315.249	0.0923
315.4603	0.1076
315.6716	0.1017
315.8828	0.0997
316.0941	0.0895
316.3053	0.0945
316.5165	0.0861
316.7277	0.0968
316.9389	0.1006
317.1501	0.0974
317.3613	0.1003
317.5724	0.0859
317.7836	0.0941
317.9947	0.0906
318.2058	0.0972
318.417	0.0838
318.6281	0.0887
318.8391	0.0888
319.0502	0.0863
319.2613	0.0951
319.4723	0.0947
319.6834	0.1043
319.8944	0.0847
320.1054	0.0943
320.3164	0.0987
320.5274	0.0966
320.7383	0.092
320.9493	0.0967
321.1602	0.1013
321.3712	0.0878
321.5821	0.0975
321.793	0.095
322.0039	0.0985
322.2148	0.0992
322.4257	0.091
322.6365	0.0987
322.8474	0.095
323.0582	0.0934
323.269	0.0974
323.4798	0.1089
323.6906	0.096
323.9014	0.104
324.1122	0.0972
324.3229	0.0847
324.5337	0.0964
324.7444	0.0838
324.9551	0.1147
325.1658	0.1021
325.3765	0.1088
325.5872	0.0979
325.7979	0.0937
326.0085	0.1003
326.2192	0.1135
326.4298	0.0997
326.6404	0.0957
326.851	0.0923
327.0616	0.085
327.2722	0.1079
327.4828	0.1087
327.6933	0.096
327.9039	0.1072
328.1144	0.0955
328.3249	0.1005
328.5354	0.0966
328.7459	0.1031
328.9564	0.1013
329.1669	0.0909
329.3773	0.0905
329.5878	0.0961
329.7982	0.0906
330.0086	0.1073
330.219	0.1054
330.4294	0.1089
330.6398	0.1022
330.8502	0.0916
331.0605	0.0955
331.2708	0.104
331.4812	0.1057
331.6915	0.1021
331.9018	0.0954
332.1121	0.0943
332.3224	0.0989
332.5326	0.0979
332.7429	0.1089
332.9531	0.1204
333.1633	0.1139
333.3735	0.106
333.5837	0.1085
333.7939	0.094
334.0041	0.1133
334.2143	0.1077
334.4244	0.1085
334.6346	0.0964
334.8447	0.1118
335.0548	0.0955
335.2649	0.0992
335.475	0.1181
335.685	0.1018
335.8951	0.1122
336.1051	0.1142
336.3152	0.1045
336.5252	0.0987
336.7352	0.1098
336.9452	0.1057
337.1552	0.1028
337.3652	0.105
337.5751	0.1077
337.7851	0.1154
337.995	0.0987
338.2049	0.1118
338.4148	0.104
338.6247	0.1065
338.8346	0.1071
339.0445	0.097
339.2543	0.1053
339.4642	0.1062
339.674	0.1064
339.8838	0.1104
340.0936	0.0988
340.3034	0.1174
340.5132	0.1065
340.7229	0.1066
340.9327	0.1017
341.1424	0.1137
341.3522	0.1132
341.5619	0.1162
341.7716	0.1097
341.9813	0.1194
342.1909	0.1184
342.4006	0.1257
342.6102	0.1273
342.8199	0.1197
343.0295	0.1124
343.2391	0.1249
343.4487	0.1214
343.6583	0.1181
343.8679	0.1233
344.0774	0.1314
344.287	0.1267
344.4965	0.1116
344.706	0.1262
344.9155	0.1193
345.125	0.1199
345.3345	0.1322
345.544	0.1171
345.7534	0.13
345.9629	0.1222
346.1723	0.1235
346.3817	0.1156
346.5911	0.1217
346.8005	0.1258
347.0099	0.1224
347.2193	0.1358
347.4286	0.1275
347.638	0.1334
347.8473	0.1213
348.0566	0.1291
348.2659	0.1421
348.4752	0.1312
348.6845	0.1296
348.8937	0.1229
349.103	0.1357
349.3122	0.1334
349.5214	0.1324
349.7306	0.1478
349.9398	0.1349
350.149	0.1382
350.3582	0.1355
350.5674	0.1499
350.7765	0.131
350.9856	0.1268
351.1948	0.1445
351.4039	0.1242
351.613	0.1233
351.822	0.1362
352.0311	0.1467
352.2402	0.1461
352.4492	0.1524
352.6582	0.1543
352.8672	0.1399
353.0762	0.1449
353.2852	0.1377
353.4942	0.1516
353.7032	0.14
353.9121	0.1356
354.1211	0.1568
354.33	0.1449
354.5389	0.1549
354.7478	0.1516
354.9567	0.1465
355.1655	0.134
355.3744	0.1495
355.5833	0.1503
355.7921	0.1667
356.0009	0.1448
356.2097	0.1572
356.4185	0.1551
356.6273	0.158
356.8361	0.1622
357.0448	0.1607
357.2536	0.1496
357.4623	0.1557
357.671	0.1602
357.8797	0.1723
358.0884	0.1519
358.2971	0.1651
358.5057	0.1675
358.7144	0.1752
358.923	0.1664
359.1316	0.1715
359.3402	0.1611
359.5488	0.1699
359.7574	0.1597
359.966	0.1722
360.1746	0.1819
360.3831	0.1718
360.5916	0.1616
360.8002	0.1507
361.0087	0.1734
361.2172	0.1705
361.4256	0.175
361.6341	0.1807
361.8426	0.1803
362.051	0.1747
362.2594	0.1703
362.4678	0.1818
362.6762	0.1991
362.8846	0.1895
363.093	0.1747
363.3014	0.1904
363.5097	0.1662
363.718	0.1735
363.9264	0.1942
364.1347	0.1788
364.343	0.204
364.5513	0.2025
364.7595	0.1986
364.9678	0.1932
365.176	0.1931
365.3842	0.1899
365.5925	0.187
365.8007	0.1978
366.0089	0.1862
366.217	0.1818
366.4252	0.2031
366.6333	0.1987
366.8415	0.1943
367.0496	0.1988
367.2577	0.201
367.4658	0.2012
367.6739	0.2147
367.882	0.2283
368.09	0.2012
368.2981	0.2137
368.5061	0.2054
368.7141	0.208
368.9221	0.213
369.1301	0.2083
369.3381	0.2003
369.5461	0.2074
369.754	0.2286
369.962	0.2281
370.1699	0.2137
370.3778	0.2171
370.5857	0.1956
370.7936	0.2217
371.0015	0.2106
371.2093	0.2161
371.4172	0.2223
371.625	0.2205
371.8328	0.2037
372.0406	0.2157
372.2484	0.2322
372.4562	0.2246
372.664	0.2134
372.8717	0.2297
373.0795	0.2045
373.2872	0.2219
373.4949	0.2297
373.7026	0.2384
373.9103	0.2363
374.118	0.2377
374.3256	0.2255
374.5333	0.2384
374.7409	0.236
374.9485	0.2447
375.1561	0.2333
375.3637	0.2258
375.5713	0.2451
375.7789	0.2357
375.9864	0.2469
376.194	0.2314
376.4015	0.2601
376.609	0.2509
376.8165	0.2576
377.024	0.24
377.2315	0.2274
377.4389	0.2323
377.6464	0.2411
377.8538	0.2443
378.0612	0.2517
378.2686	0.2559
378.476	0.245
378.6834	0.2549
378.8908	0.2443
379.0981	0.2478
379.3055	0.2608
379.5128	0.2409
379.7201	0.2495
379.9274	0.2413
380.1347	0.2441
380.342	0.2649
380.5492	0.2371
380.7565	0.2729
380.9637	0.2539
381.1709	0.2536
381.3781	0.2453
381.5853	0.261
381.7925	0.2471
381.9997	0.2748
382.2068	0.2523
382.4139	0.2402
382.6211	0.2621
382.8282	0.258
383.0353	0.2595
383.2424	0.2611
383.4494	0.2526
383.6565	0.2582
383.8635	0.2484
384.0706	0.2522
384.2776	0.2618
384.4846	0.2323
384.6916	0.2507
384.8986	0.2379
385.1055	0.2499
385.3125	0.2793
385.5194	0.248
385.7263	0.2682
385.9333	0.2532
386.1402	0.2522
386.347	0.2491
386.5539	0.2298
386.7608	0.2813
386.9676	0.2549
387.1744	0.2529
387.3813	0.2648
387.5881	0.2673
387.7948	0.2494
388.0016	0.2632
388.2084	0.2427
388.4151	0.256
388.6219	0.2452
388.8286	0.2563
389.0353	0.2513
389.242	0.2666
389.4487	0.2426
389.6553	0.2491
389.862	0.2234
390.0686	0.2492
390.2753	0.2539
390.4819	0.2483
390.6885	0.2477
390.8951	0.2423
391.1016	0.2351
391.3082	0.2321
391.5147	0.2431
391.7213	0.239
391.9278	0.2375
392.1343	0.2354
392.3408	0.242
392.5473	0.2374
392.7537	0.2237
392.9602	0.2414
393.1666	0.2275
393.373	0.2381
393.5794	0.2422
393.7858	0.2287
393.9922	0.2268
394.1986	0.2337
394.4049	0.22
394.6113	0.2249
394.8176	0.2132
395.0239	0.2208
395.2302	0.2253
395.4365	0.2207
395.6428	0.2095
395.8491	0.2182
396.0553	0.2194
396.2615	0.218
396.4678	0.2172
396.674	0.2107
396.8802	0.219
397.0863	0.2205
397.2925	0.2031
397.4987	0.2078
397.7048	0.2158
397.9109	0.2196
398.117	0.2054
398.3231	0.2145
398.5292	0.2204
398.7353	0.2234
398.9413	0.2219
399.1474	0.2051
399.3534	0.211
399.5594	0.1959
399.7654	0.2342
399.9714	0.2192
400.1774	0.2249
400.3833	0.2003
400.5893	0.2113
400.7952	0.217
401.0011	0.2109
401.207	0.2296
401.4129	0.2129
401.6188	0.2261
401.8247	0.219
402.0305	0.222
402.2364	0.2043
402.4422	0.2187
402.648	0.2131
402.8538	0.2227
403.0596	0.2102
403.2654	0.2367
403.4711	0.1969
403.6768	0.2197
403.8826	0.2287
404.0883	0.2242
404.294	0.2253
404.4997	0.2159
404.7054	0.221
404.911	0.2012
405.1167	0.2114
405.3223	0.226
405.5279	0.2251
405.7335	0.2263
405.9391	0.225
406.1447	0.2153
406.3502	0.2342
406.5558	0.2142
406.7613	0.2285
406.9668	0.2124
407.1724	0.1982
407.3778	0.2094
407.5833	0.2124
407.7888	0.205
407.9942	0.2457
408.1997	0.2186
408.4051	0.209
408.6105	0.2235
408.8159	0.2008
409.0213	0.2049
409.2267	0.214
409.432	0.2062
409.6374	0.2252
409.8427	0.2073
410.048	0.1958
410.2533	0.2175
410.4586	0.2053
410.6639	0.1824
410.8691	0.2106
411.0744	0.2103
411.2796	0.1938
411.4848	0.1976
411.69	0.21
411.8952	0.2305
412.1004	0.2084
412.3056	0.2283
412.5107	0.2168
412.7158	0.2208
412.921	0.2069
413.1261	0.2011
413.3312	0.1948
413.5362	0.2095
413.7413	0.2103
413.9464	0.2174
414.1514	0.1992
414.3564	0.193
414.5614	0.2039
414.7664	0.2034
414.9714	0.2059
415.1764	0.2175
415.3813	0.2228
415.5863	0.1949
415.7912	0.2122
415.9961	0.2094
416.201	0.2067
416.4059	0.2109
416.6108	0.1904
416.8156	0.204
417.0205	0.2045
417.2253	0.2093
417.4301	0.2255
417.6349	0.1851
417.8397	0.1948
418.0445	0.2232
418.2492	0.223
418.454	0.2063
418.6587	0.1957
418.8634	0.2106
419.0681	0.1928
419.2728	0.1811
419.4775	0.1896
419.6822	0.1833
419.8868	0.1808
420.0915	0.1851
420.2961	0.1772
420.5007	0.1837
420.7053	0.201
420.9099	0.2045
421.1144	0.1934
421.319	0.1894
421.5235	0.1963
421.728	0.1991
421.9325	0.195
422.137	0.2161
422.3415	0.1876
422.546	0.1854
422.7504	0.1884
422.9549	0.1886
423.1593	0.198
423.3637	0.2014
423.5681	0.1862
423.7725	0.1778
423.9769	0.1825
424.1812	0.1608
424.3856	0.1971
424.5899	0.1871
424.7942	0.1883
424.9985	0.1866
425.2028	0.1724
425.4071	0.1845
425.6113	0.1772
425.8156	0.1962
426.0198	0.1799
426.224	0.1647
426.4282	0.1612
426.6324	0.1812
