Data from MonoPyChalIsomerACN10uM410nmA_Absorbance_14-53-29-973.txt Node
Date: Fri Jul 05 14:53:29 BST 2024
User: LASERRRRR
Spectrometer: FLMT03099
Trigger mode: 0
Integration Time (sec): 1.000000E-1
Scans to average: 1
Electric dark correction enabled: true
Nonlinearity correction enabled: false
Boxcar width: 0
XAxis mode: Wavelengths
Number of Pixels in Spectrum: 3648
>>>>>Begin Spectral Data<<<<<
179.3399	0.4158
179.5586	0.4158
179.7771	0.4158
179.9957	-0.0155
180.2143	-0.4091
180.4329	-0.0917
180.6514	-0
180.8699	-0
181.0885	-0.0806
181.307	0.0525
181.5255	-0.9919
181.744	-0
181.9625	-0
182.181	-0.8706
182.3994	0.4042
182.6179	-0.1969
182.8363	-0
183.0547	0.0832
183.2732	-0.0666
183.4916	0.6102
183.71	0.1161
183.9284	0.0181
184.1467	-0.1532
184.3651	0.1669
184.5835	-0.1107
184.8018	-0.0325
185.0201	0.2335
185.2385	0.1235
185.4568	0.0833
185.6751	0.2032
185.8934	0.0271
186.1117	0.0647
186.3299	0.0003
186.5482	0.3147
186.7664	-0.1087
186.9847	-0.0131
187.2029	0.0377
187.4211	-0.1109
187.6393	-0.0447
187.8575	0.1003
188.0757	0.284
188.2939	0.1968
188.512	0.2275
188.7302	-0.1258
188.9483	0.341
189.1665	0.1612
189.3846	-0.4162
189.6027	0.1814
189.8208	0.192
190.0389	0.0304
190.257	0.2779
190.475	0.1385
190.6931	0.3142
190.9111	0.3372
191.1292	0.4581
191.3472	0.301
191.5652	0.2955
191.7832	0.2418
192.0012	0.5726
192.2192	0.3407
192.4371	0.542
192.6551	0.5815
192.873	0.4874
193.091	0.6572
193.3089	0.5996
193.5268	0.4544
193.7447	0.6019
193.9626	0.3727
194.1805	0.5504
194.3984	0.8485
194.6162	0.4902
194.8341	0.5338
195.0519	0.7043
195.2697	0.7116
195.4875	0.806
195.7054	0.813
195.9231	0.5067
196.1409	0.4393
196.3587	0.7568
196.5765	0.6092
196.7942	0.5979
197.012	0.4565
197.2297	0.7465
197.4474	0.7112
197.6651	0.4531
197.8828	0.4902
198.1005	0.5129
198.3182	0.6435
198.5358	0.576
198.7535	0.6027
198.9711	0.5743
199.1888	0.5534
199.4064	0.6494
199.624	0.5729
199.8416	0.5879
200.0592	0.6288
200.2767	0.6257
200.4943	0.8241
200.7119	0.7703
200.9294	0.5975
201.1469	0.536
201.3645	0.519
201.582	0.6239
201.7995	0.6702
202.017	0.6424
202.2344	0.5562
202.4519	0.6511
202.6694	0.6572
202.8868	0.6612
203.1042	0.7562
203.3217	0.764
203.5391	0.5711
203.7565	0.5667
203.9739	0.5903
204.1913	0.6707
204.4086	0.6219
204.626	0.8586
204.8433	0.5468
205.0607	0.6063
205.278	0.6563
205.4953	0.6296
205.7126	0.7546
205.9299	0.7702
206.1472	0.7334
206.3644	0.6059
206.5817	0.7364
206.7989	0.741
207.0162	0.6479
207.2334	0.6825
207.4506	0.5874
207.6678	0.6441
207.885	0.6479
208.1022	0.6217
208.3194	0.6581
208.5365	0.6636
208.7537	0.6352
208.9708	0.6072
209.1879	0.5694
209.405	0.6644
209.6222	0.7829
209.8392	0.6112
210.0563	0.5594
210.2734	0.677
210.4905	0.6924
210.7075	0.6339
210.9245	0.6205
211.1416	0.6315
211.3586	0.7295
211.5756	0.512
211.7926	0.6308
212.0096	0.5934
212.2265	0.5985
212.4435	0.5243
212.6604	0.6374
212.8774	0.5439
213.0943	0.5754
213.3112	0.5394
213.5281	0.5099
213.745	0.4984
213.9619	0.5169
214.1788	0.4747
214.3956	0.4776
214.6125	0.457
214.8293	0.462
215.0461	0.4665
215.2629	0.4352
215.4798	0.4988
215.6965	0.4186
215.9133	0.4091
216.1301	0.3825
216.3469	0.4041
216.5636	0.3919
216.7803	0.3793
216.9971	0.3988
217.2138	0.3669
217.4305	0.4022
217.6472	0.3251
217.8639	0.3819
218.0805	0.34
218.2972	0.2958
218.5138	0.3177
218.7305	0.3062
218.9471	0.2982
219.1637	0.2625
219.3803	0.2674
219.5969	0.2572
219.8135	0.2554
220.0301	0.2716
220.2466	0.2659
220.4632	0.2416
220.6797	0.2193
220.8962	0.2202
221.1127	0.2442
221.3292	0.2332
221.5457	0.2241
221.7622	0.2289
221.9787	0.2534
222.1951	0.2486
222.4116	0.2587
222.628	0.2424
222.8444	0.2499
223.0608	0.2357
223.2772	0.2419
223.4936	0.2695
223.71	0.2622
223.9264	0.2422
224.1427	0.2343
224.3591	0.2433
224.5754	0.2597
224.7917	0.2597
225.008	0.2543
225.2243	0.2317
225.4406	0.2582
225.6569	0.2551
225.8732	0.2569
226.0894	0.2478
226.3057	0.2608
226.5219	0.2607
226.7381	0.251
226.9543	0.2949
227.1705	0.2838
227.3867	0.2646
227.6029	0.2953
227.8191	0.2893
228.0352	0.2786
228.2513	0.2964
228.4675	0.3144
228.6836	0.3231
228.8997	0.2728
229.1158	0.3133
229.3319	0.2909
229.548	0.3075
229.764	0.3146
229.9801	0.3164
230.1961	0.3133
230.4121	0.3316
230.6282	0.331
230.8442	0.3141
231.0602	0.3355
231.2761	0.3309
231.4921	0.3412
231.7081	0.3247
231.924	0.3294
232.14	0.3603
232.3559	0.3426
232.5718	0.3613
232.7877	0.3358
233.0036	0.3403
233.2195	0.3559
233.4353	0.3363
233.6512	0.3547
233.867	0.3443
234.0829	0.338
234.2987	0.3515
234.5145	0.374
234.7303	0.3512
234.9461	0.3829
235.1619	0.362
235.3776	0.3837
235.5934	0.3668
235.8091	0.3494
236.0249	0.3849
236.2406	0.3711
236.4563	0.3756
236.672	0.3836
236.8877	0.3838
237.1034	0.3913
237.319	0.3795
237.5347	0.3896
237.7503	0.3831
237.966	0.3946
238.1816	0.4036
238.3972	0.408
238.6128	0.3822
238.8284	0.4071
239.0439	0.3989
239.2595	0.389
239.475	0.416
239.6906	0.3977
239.9061	0.3808
240.1216	0.396
240.3371	0.3913
240.5526	0.3948
240.7681	0.3977
240.9836	0.3718
241.199	0.3945
241.4145	0.3884
241.6299	0.3713
241.8453	0.3637
242.0607	0.3933
242.2761	0.3608
242.4915	0.3655
242.7069	0.3691
242.9223	0.3691
243.1376	0.3746
243.353	0.361
243.5683	0.3542
243.7836	0.3321
243.9989	0.337
244.2142	0.3282
244.4295	0.3156
244.6448	0.3279
244.86	0.3107
245.0753	0.3082
245.2905	0.2923
245.5057	0.288
245.721	0.2767
245.9362	0.2756
246.1514	0.2816
246.3665	0.276
246.5817	0.2706
246.7969	0.2623
247.012	0.2561
247.2271	0.2539
247.4423	0.2622
247.6574	0.2475
247.8725	0.2428
248.0876	0.2304
248.3026	0.2405
248.5177	0.2412
248.7328	0.2238
248.9478	0.2077
249.1628	0.2293
249.3779	0.2157
249.5929	0.226
249.8079	0.2269
250.0228	0.2073
250.2378	0.2079
250.4528	0.2043
250.6677	0.1848
250.8827	0.1973
251.0976	0.2019
251.3125	0.1899
251.5274	0.1833
251.7423	0.1814
251.9572	0.1881
252.172	0.1934
252.3869	0.1812
252.6017	0.1864
252.8166	0.1777
253.0314	0.1804
253.2462	0.1719
253.461	0.1817
253.6758	0.1698
253.8906	0.1825
254.1053	0.1684
254.3201	0.1741
254.5348	0.1776
254.7496	0.1788
254.9643	0.1731
255.179	0.1726
255.3937	0.1631
255.6083	0.1642
255.823	0.1722
256.0377	0.1654
256.2523	0.1744
256.467	0.1563
256.6816	0.1616
256.8962	0.1657
257.1108	0.1687
257.3254	0.1683
257.54	0.1546
257.7545	0.1786
257.9691	0.1675
258.1836	0.1613
258.3981	0.1699
258.6127	0.165
258.8272	0.1573
259.0417	0.1608
259.2561	0.1671
259.4706	0.1693
259.6851	0.1637
259.8995	0.1445
260.114	0.1562
260.3284	0.1638
260.5428	0.1656
260.7572	0.1552
260.9716	0.1671
261.186	0.1653
261.4003	0.1581
261.6147	0.1639
261.829	0.1693
262.0433	0.1553
262.2577	0.1502
262.472	0.1613
262.6863	0.1689
262.9005	0.1579
263.1148	0.1638
263.3291	0.1483
263.5433	0.1617
263.7576	0.1579
263.9718	0.1632
264.186	0.1591
264.4002	0.1606
264.6144	0.1723
264.8286	0.1699
265.0427	0.1787
265.2569	0.1648
265.471	0.1535
265.6851	0.1643
265.8993	0.1635
266.1134	0.1596
266.3275	0.1626
266.5415	0.1563
266.7556	0.1623
266.9697	0.1669
267.1837	0.1615
267.3978	0.1643
267.6118	0.1716
267.8258	0.1893
268.0398	0.1511
268.2538	0.1742
268.4677	0.1655
268.6817	0.1563
268.8957	0.1763
269.1096	0.1748
269.3235	0.1665
269.5374	0.1611
269.7514	0.1597
269.9652	0.1654
270.1791	0.1464
270.393	0.1442
270.6068	0.1689
270.8207	0.1429
271.0345	0.1486
271.2483	0.1635
271.4622	0.1661
271.676	0.1759
271.8897	0.151
272.1035	0.1473
272.3173	0.1546
272.531	0.1583
272.7448	0.1542
272.9585	0.1471
273.1722	0.1651
273.3859	0.1526
273.5996	0.1454
273.8133	0.1638
274.0269	0.1581
274.2406	0.1463
274.4542	0.1673
274.6679	0.1542
274.8815	0.1563
275.0951	0.1577
275.3087	0.1648
275.5223	0.1537
275.7358	0.1574
275.9494	0.1661
276.1629	0.1536
276.3765	0.1629
276.59	0.1596
276.8035	0.1669
277.017	0.1612
277.2305	0.1649
277.444	0.1808
277.6574	0.1591
277.8709	0.1673
278.0843	0.159
278.2978	0.1552
278.5112	0.1542
278.7246	0.1627
278.938	0.1699
279.1513	0.1591
279.3647	0.1699
279.5781	0.1616
279.7914	0.1568
280.0047	0.1795
280.2181	0.1704
280.4314	0.165
280.6447	0.1689
280.8579	0.1685
281.0712	0.1781
281.2845	0.1646
281.4977	0.1607
281.711	0.1611
281.9242	0.17
282.1374	0.1705
282.3506	0.1636
282.5638	0.1777
282.7769	0.1634
282.9901	0.1642
283.2033	0.1714
283.4164	0.176
283.6295	0.1543
283.8426	0.159
284.0557	0.1654
284.2688	0.1888
284.4819	0.178
284.695	0.1644
284.908	0.1641
285.1211	0.1662
285.3341	0.1581
285.5471	0.17
285.7601	0.161
285.9731	0.1556
286.1861	0.1474
286.3991	0.1588
286.612	0.1596
286.825	0.1539
287.0379	0.1643
287.2508	0.1543
287.4637	0.1641
287.6766	0.1591
287.8895	0.1583
288.1024	0.1816
288.3152	0.1684
288.5281	0.1434
288.7409	0.1657
288.9538	0.1604
289.1666	0.1493
289.3794	0.1676
289.5922	0.1565
289.8049	0.1499
290.0177	0.1514
290.2304	0.1563
290.4432	0.1571
290.6559	0.1536
290.8686	0.1602
291.0813	0.1467
291.294	0.1629
291.5067	0.1555
291.7194	0.1486
291.932	0.1624
292.1447	0.1467
292.3573	0.143
292.5699	0.1448
292.7825	0.154
292.9951	0.1496
293.2077	0.1504
293.4203	0.1439
293.6328	0.1348
293.8454	0.1584
294.0579	0.1574
294.2704	0.1521
294.4829	0.1446
294.6954	0.1556
294.9079	0.1475
295.1204	0.1518
295.3328	0.1385
295.5453	0.1603
295.7577	0.153
295.9701	0.1465
296.1825	0.1516
296.3949	0.1476
296.6073	0.141
296.8197	0.1333
297.0321	0.1521
297.2444	0.1322
297.4567	0.1528
297.6691	0.1527
297.8814	0.1371
298.0937	0.1461
298.306	0.1524
298.5182	0.1501
298.7305	0.1531
298.9428	0.1448
299.155	0.1402
299.3672	0.1487
299.5794	0.1386
299.7916	0.1466
300.0038	0.143
300.216	0.1419
300.4282	0.152
300.6403	0.1421
300.8525	0.1541
301.0646	0.1399
301.2767	0.1404
301.4888	0.1513
301.7009	0.1502
301.913	0.1446
302.125	0.1532
302.3371	0.1412
302.5491	0.1468
302.7612	0.1519
302.9732	0.1493
303.1852	0.1493
303.3972	0.1433
303.6092	0.1431
303.8211	0.1319
304.0331	0.1304
304.245	0.1342
304.457	0.1346
304.6689	0.1427
304.8808	0.1527
305.0927	0.129
305.3046	0.1386
305.5164	0.1333
305.7283	0.1258
305.9401	0.1325
306.152	0.1355
306.3638	0.1427
306.5756	0.1259
306.7874	0.1387
306.9992	0.1387
307.2109	0.1304
307.4227	0.1245
307.6344	0.1366
307.8462	0.1278
308.0579	0.1298
308.2696	0.1201
308.4813	0.1206
308.693	0.1254
308.9046	0.1312
309.1163	0.1246
309.328	0.1284
309.5396	0.1163
309.7512	0.1047
309.9628	0.1139
310.1744	0.1213
310.386	0.1142
310.5976	0.1207
310.8091	0.1229
311.0207	0.1207
311.2322	0.1181
311.4437	0.1001
311.6552	0.1146
311.8667	0.1102
312.0782	0.103
312.2897	0.0984
312.5012	0.1104
312.7126	0.0969
312.924	0.1009
313.1355	0.1088
313.3469	0.1119
313.5583	0.1102
313.7696	0.1198
313.981	0.1102
314.1924	0.1117
314.4037	0.1041
314.6151	0.1248
314.8264	0.1093
315.0377	0.103
315.249	0.1023
315.4603	0.1161
315.6716	0.1156
315.8828	0.1006
316.0941	0.106
316.3053	0.1071
316.5165	0.0949
316.7277	0.0977
316.9389	0.1078
317.1501	0.1074
317.3613	0.1085
317.5724	0.0959
317.7836	0.1037
317.9947	0.1022
318.2058	0.1026
318.417	0.0938
318.6281	0.1044
318.8391	0.0962
319.0502	0.0969
319.2613	0.1085
319.4723	0.1135
319.6834	0.1142
319.8944	0.1002
320.1054	0.1041
320.3164	0.0988
320.5274	0.1059
320.7383	0.1078
320.9493	0.1123
321.1602	0.117
321.3712	0.1072
321.5821	0.1035
321.793	0.1077
322.0039	0.1022
322.2148	0.1044
322.4257	0.1088
322.6365	0.1145
322.8474	0.1101
323.0582	0.1017
323.269	0.1087
323.4798	0.1207
323.6906	0.1023
323.9014	0.1148
324.1122	0.1215
324.3229	0.1093
324.5337	0.1122
324.7444	0.0989
324.9551	0.1305
325.1658	0.1186
325.3765	0.1123
325.5872	0.1068
325.7979	0.116
326.0085	0.1065
326.2192	0.1187
326.4298	0.1217
326.6404	0.102
326.851	0.1057
327.0616	0.109
327.2722	0.1142
327.4828	0.1233
327.6933	0.109
327.9039	0.1145
328.1144	0.1244
328.3249	0.1213
328.5354	0.0954
328.7459	0.1205
328.9564	0.111
329.1669	0.1187
329.3773	0.1115
329.5878	0.1125
329.7982	0.1207
330.0086	0.1169
330.219	0.1262
330.4294	0.114
330.6398	0.121
330.8502	0.11
331.0605	0.1211
331.2708	0.1182
331.4812	0.1274
331.6915	0.1206
331.9018	0.1193
332.1121	0.1064
332.3224	0.1156
332.5326	0.1277
332.7429	0.1218
332.9531	0.1371
333.1633	0.1196
333.3735	0.1184
333.5837	0.1145
333.7939	0.1178
334.0041	0.1223
334.2143	0.118
334.4244	0.119
334.6346	0.0993
334.8447	0.1326
335.0548	0.1126
335.2649	0.1107
335.475	0.1237
335.685	0.1178
335.8951	0.1307
336.1051	0.118
336.3152	0.1278
336.5252	0.1242
336.7352	0.1233
336.9452	0.1221
337.1552	0.1385
337.3652	0.1174
337.5751	0.1157
337.7851	0.1254
337.995	0.11
338.2049	0.1256
338.4148	0.1188
338.6247	0.118
338.8346	0.123
339.0445	0.1196
339.2543	0.1244
339.4642	0.1313
339.674	0.1162
339.8838	0.1282
340.0936	0.1296
340.3034	0.134
340.5132	0.1248
340.7229	0.1314
340.9327	0.1246
341.1424	0.1204
341.3522	0.135
341.5619	0.1305
341.7716	0.1341
341.9813	0.14
342.1909	0.1342
342.4006	0.1536
342.6102	0.1423
342.8199	0.138
343.0295	0.1303
343.2391	0.1277
343.4487	0.1503
343.6583	0.1309
343.8679	0.1234
344.0774	0.1359
344.287	0.1309
344.4965	0.1369
344.706	0.1334
344.9155	0.1373
345.125	0.1341
345.3345	0.141
345.544	0.1237
345.7534	0.1397
345.9629	0.1235
346.1723	0.1383
346.3817	0.1216
346.5911	0.1389
346.8005	0.1406
347.0099	0.1343
347.2193	0.1439
347.4286	0.1361
347.638	0.1456
347.8473	0.1312
348.0566	0.1379
348.2659	0.133
348.4752	0.1408
348.6845	0.1366
348.8937	0.1331
349.103	0.1543
349.3122	0.1242
349.5214	0.1399
349.7306	0.1466
349.9398	0.1475
350.149	0.1508
350.3582	0.1393
350.5674	0.1543
350.7765	0.1395
350.9856	0.1491
351.1948	0.141
351.4039	0.1351
351.613	0.143
351.822	0.1658
352.0311	0.1389
352.2402	0.1528
352.4492	0.1721
352.6582	0.1565
352.8672	0.138
353.0762	0.162
353.2852	0.1456
353.4942	0.133
353.7032	0.1571
353.9121	0.1466
354.1211	0.1495
354.33	0.1583
354.5389	0.1555
354.7478	0.1608
354.9567	0.1626
355.1655	0.1464
355.3744	0.1567
355.5833	0.1584
355.7921	0.1708
356.0009	0.1517
356.2097	0.1666
356.4185	0.1664
356.6273	0.1664
356.8361	0.1712
357.0448	0.1456
357.2536	0.156
357.4623	0.1522
357.671	0.1626
357.8797	0.161
358.0884	0.1597
358.2971	0.147
358.5057	0.1658
358.7144	0.1586
358.923	0.1647
359.1316	0.1659
359.3402	0.1738
359.5488	0.1672
359.7574	0.1598
359.966	0.1724
360.1746	0.164
360.3831	0.1679
360.5916	0.167
360.8002	0.1527
361.0087	0.1839
361.2172	0.1652
361.4256	0.1742
361.6341	0.1842
361.8426	0.1719
362.051	0.1811
362.2594	0.1684
362.4678	0.1656
362.6762	0.1865
362.8846	0.1859
363.093	0.1724
363.3014	0.1747
363.5097	0.1616
363.718	0.1818
363.9264	0.1872
364.1347	0.1662
364.343	0.1807
364.5513	0.1984
364.7595	0.1859
364.9678	0.1803
365.176	0.1784
365.3842	0.1772
365.5925	0.1865
365.8007	0.1826
366.0089	0.1977
366.217	0.1714
366.4252	0.1857
366.6333	0.1992
366.8415	0.1822
367.0496	0.1819
367.2577	0.1964
367.4658	0.1968
367.6739	0.188
367.882	0.1983
368.09	0.1886
368.2981	0.1862
368.5061	0.1836
368.7141	0.1917
368.9221	0.201
369.1301	0.1972
369.3381	0.1775
369.5461	0.1926
369.754	0.1971
369.962	0.1912
370.1699	0.2201
370.3778	0.2092
370.5857	0.1755
370.7936	0.1863
371.0015	0.1985
371.2093	0.191
371.4172	0.1865
371.625	0.1785
371.8328	0.1892
372.0406	0.1924
372.2484	0.1788
372.4562	0.2083
372.664	0.1935
372.8717	0.1991
373.0795	0.1721
373.2872	0.2105
373.4949	0.1857
373.7026	0.2071
373.9103	0.1995
374.118	0.2142
374.3256	0.1988
374.5333	0.1902
374.7409	0.1834
374.9485	0.2099
375.1561	0.1992
375.3637	0.2087
375.5713	0.2154
375.7789	0.1996
375.9864	0.2016
376.194	0.1981
376.4015	0.2028
376.609	0.1996
376.8165	0.2106
377.024	0.2003
377.2315	0.1958
377.4389	0.203
377.6464	0.2074
377.8538	0.214
378.0612	0.1973
378.2686	0.2119
378.476	0.2338
378.6834	0.2056
378.8908	0.2329
379.0981	0.2019
379.3055	0.2169
379.5128	0.2147
379.7201	0.2193
379.9274	0.2078
380.1347	0.207
380.342	0.2285
380.5492	0.2013
380.7565	0.2024
380.9637	0.215
381.1709	0.2059
381.3781	0.1965
381.5853	0.214
381.7925	0.1967
381.9997	0.2192
382.2068	0.2103
382.4139	0.237
382.6211	0.198
382.8282	0.2107
383.0353	0.2079
383.2424	0.2231
383.4494	0.221
383.6565	0.2022
383.8635	0.2081
384.0706	0.2013
384.2776	0.2086
384.4846	0.2048
384.6916	0.2229
384.8986	0.2172
385.1055	0.2155
385.3125	0.2032
385.5194	0.1903
385.7263	0.2377
385.9333	0.2051
386.1402	0.2073
386.347	0.2119
386.5539	0.2022
386.7608	0.2118
386.9676	0.1902
387.1744	0.2047
387.3813	0.2067
387.5881	0.2064
387.7948	0.1999
388.0016	0.2055
388.2084	0.2009
388.4151	0.1862
388.6219	0.2242
388.8286	0.2059
389.0353	0.2352
389.242	0.2016
389.4487	0.2021
389.6553	0.1882
389.862	0.1936
390.0686	0.199
390.2753	0.217
390.4819	0.1842
390.6885	0.194
390.8951	0.2182
391.1016	0.2057
391.3082	0.1763
391.5147	0.191
391.7213	0.1974
391.9278	0.1886
392.1343	0.194
392.3408	0.1955
392.5473	0.1826
392.7537	0.186
392.9602	0.1775
393.1666	0.1911
393.373	0.1879
393.5794	0.1987
393.7858	0.1772
393.9922	0.1879
394.1986	0.1899
394.4049	0.1872
394.6113	0.1804
394.8176	0.1784
395.0239	0.1765
395.2302	0.1767
395.4365	0.189
395.6428	0.1933
395.8491	0.1833
396.0553	0.1717
396.2615	0.1813
396.4678	0.1723
396.674	0.1584
396.8802	0.1708
397.0863	0.189
397.2925	0.1756
397.4987	0.1756
397.7048	0.168
397.9109	0.1788
398.117	0.1644
398.3231	0.1751
398.5292	0.182
398.7353	0.185
398.9413	0.1803
399.1474	0.1715
399.3534	0.1667
399.5594	0.1509
399.7654	0.1799
399.9714	0.1757
400.1774	0.1621
400.3833	0.1643
400.5893	0.1701
400.7952	0.1746
401.0011	0.1799
401.207	0.1784
401.4129	0.1789
401.6188	0.1775
401.8247	0.159
402.0305	0.1651
402.2364	0.1653
402.4422	0.1751
402.648	0.1884
402.8538	0.181
403.0596	0.148
403.2654	0.1838
403.4711	0.1692
403.6768	0.173
403.8826	0.1899
404.0883	0.1897
404.294	0.1845
404.4997	0.1752
404.7054	0.1681
404.911	0.1644
405.1167	0.1689
405.3223	0.1863
405.5279	0.1853
405.7335	0.1824
405.9391	0.1817
406.1447	0.1579
406.3502	0.1861
406.5558	0.1734
406.7613	0.1765
406.9668	0.158
407.1724	0.1621
407.3778	0.1552
407.5833	0.1766
407.7888	0.166
407.9942	0.1725
408.1997	0.1589
408.4051	0.1641
408.6105	0.1754
408.8159	0.1566
409.0213	0.1548
409.2267	0.1645
409.432	0.1626
409.6374	0.1773
409.8427	0.1552
410.048	0.1588
410.2533	0.1608
410.4586	0.1728
410.6639	0.1403
410.8691	0.156
411.0744	0.1475
411.2796	0.1648
411.4848	0.1569
411.69	0.16
411.8952	0.1703
412.1004	0.1654
412.3056	0.1651
412.5107	0.1388
412.7158	0.1648
412.921	0.1559
413.1261	0.1782
413.3312	0.155
413.5362	0.1617
413.7413	0.1451
413.9464	0.1568
414.1514	0.1537
414.3564	0.1563
414.5614	0.1607
414.7664	0.1533
414.9714	0.1532
415.1764	0.1516
415.3813	0.1778
415.5863	0.1566
415.7912	0.1681
415.9961	0.1743
416.201	0.1587
416.4059	0.1668
416.6108	0.1543
416.8156	0.1717
417.0205	0.1628
417.2253	0.1602
417.4301	0.1664
417.6349	0.1523
417.8397	0.1513
418.0445	0.1584
418.2492	0.1583
418.454	0.1485
418.6587	0.1475
418.8634	0.1611
419.0681	0.1425
419.2728	0.1523
419.4775	0.1493
419.6822	0.1403
419.8868	0.1325
420.0915	0.1493
420.2961	0.1277
420.5007	0.1385
420.7053	0.1586
420.9099	0.154
421.1144	0.1445
421.319	0.1425
421.5235	0.1661
421.728	0.1522
421.9325	0.1479
422.137	0.1611
422.3415	0.1363
422.546	0.1283
422.7504	0.1491
422.9549	0.1512
423.1593	0.1547
423.3637	0.1695
423.5681	0.137
423.7725	0.1305
423.9769	0.1342
424.1812	0.122
424.3856	0.1148
424.5899	0.1303
424.7942	0.1346
424.9985	0.1513
425.2028	0.1331
425.4071	0.1483
425.6113	0.1254
425.8156	0.1333
426.0198	0.1341
426.224	0.1373
426.4282	0.1327
