Data from MonoPyChalIsomerACN10uM410nmA_Absorbance_14-53-24-073.txt Node
Date: Fri Jul 05 14:53:24 BST 2024
User: LASERRRRR
Spectrometer: FLMT03099
Trigger mode: 0
Integration Time (sec): 1.000000E-1
Scans to average: 1
Electric dark correction enabled: true
Nonlinearity correction enabled: false
Boxcar width: 0
XAxis mode: Wavelengths
Number of Pixels in Spectrum: 3648
>>>>>Begin Spectral Data<<<<<
179.3399	-0.2162
179.5586	-0.2162
179.7771	-0.2162
179.9957	1.2986
180.2143	-0
180.4329	0.2105
180.6514	0.2147
180.8699	-0
181.0885	-0.0993
181.307	0.2685
181.5255	-0.3123
181.744	-0
181.9625	-0
182.181	-0.8256
182.3994	0.2068
182.6179	-0.2987
182.8363	0.4686
183.0547	-0.1317
183.2732	0.1392
183.4916	0.15
183.71	0.1348
183.9284	0.0299
184.1467	0.0036
184.3651	-0.099
184.5835	-0.0524
184.8018	0.0655
185.0201	-0.0343
185.2385	-0.1853
185.4568	0.2125
185.6751	0.351
185.8934	0.0539
186.1117	-0.0669
186.3299	0.1292
186.5482	-0.0825
186.7664	-0.1065
186.9847	-0.015
187.2029	-0.0673
187.4211	0.1664
187.6393	0.1051
187.8575	-0.025
188.0757	0.1411
188.2939	0.2581
188.512	-0.1145
188.7302	-0.0077
188.9483	0.2481
189.1665	0.1214
189.3846	-0.161
189.6027	0.0988
189.8208	0.2218
190.0389	0.2075
190.257	0.1254
190.475	0.1062
190.6931	0.2614
190.9111	0.3738
191.1292	0.1677
191.3472	0.332
191.5652	0.3283
191.7832	0.3316
192.0012	0.47
192.2192	0.2571
192.4371	0.4281
192.6551	0.3756
192.873	0.3714
193.091	0.3918
193.3089	0.7576
193.5268	0.2997
193.7447	0.7673
193.9626	0.5111
194.1805	0.5534
194.3984	0.7118
194.6162	0.4466
194.8341	0.4107
195.0519	0.5934
195.2697	0.7572
195.4875	0.6205
195.7054	0.5392
195.9231	0.4617
196.1409	0.5062
196.3587	0.4051
196.5765	0.5759
196.7942	0.6165
197.012	0.4936
197.2297	0.5565
197.4474	0.5518
197.6651	0.4786
197.8828	0.4822
198.1005	0.5682
198.3182	0.6238
198.5358	0.7474
198.7535	0.5405
198.9711	0.6077
199.1888	0.5832
199.4064	0.8299
199.624	0.6162
199.8416	0.5397
200.0592	0.7509
200.2767	0.6827
200.4943	0.6905
200.7119	0.8513
200.9294	0.6015
201.1469	0.6141
201.3645	0.5581
201.582	0.6362
201.7995	0.6598
202.017	0.6497
202.2344	0.6221
202.4519	0.5489
202.6694	0.6378
202.8868	0.6203
203.1042	0.7361
203.3217	0.6557
203.5391	0.6319
203.7565	0.5568
203.9739	0.6423
204.1913	0.5885
204.4086	0.6127
204.626	0.6717
204.8433	0.6396
205.0607	0.625
205.278	0.6712
205.4953	0.5646
205.7126	0.5609
205.9299	0.7254
206.1472	0.7347
206.3644	0.6573
206.5817	0.6674
206.7989	0.7401
207.0162	0.5952
207.2334	0.6569
207.4506	0.6551
207.6678	0.6041
207.885	0.6508
208.1022	0.5663
208.3194	0.6873
208.5365	0.6426
208.7537	0.6438
208.9708	0.5655
209.1879	0.6476
209.405	0.65
209.6222	0.7022
209.8392	0.6834
210.0563	0.5759
210.2734	0.6202
210.4905	0.6028
210.7075	0.6348
210.9245	0.5979
211.1416	0.7603
211.3586	0.5829
211.5756	0.6
211.7926	0.5564
212.0096	0.5768
212.2265	0.5795
212.4435	0.5772
212.6604	0.6099
212.8774	0.5824
213.0943	0.576
213.3112	0.5593
213.5281	0.5186
213.745	0.5136
213.9619	0.5175
214.1788	0.4984
214.3956	0.4348
214.6125	0.4768
214.8293	0.4105
215.0461	0.4654
215.2629	0.4748
215.4798	0.4418
215.6965	0.4234
215.9133	0.3847
216.1301	0.3651
216.3469	0.4293
216.5636	0.4423
216.7803	0.375
216.9971	0.384
217.2138	0.382
217.4305	0.3635
217.6472	0.354
217.8639	0.3833
218.0805	0.3616
218.2972	0.3017
218.5138	0.3193
218.7305	0.3117
218.9471	0.3318
219.1637	0.3106
219.3803	0.304
219.5969	0.2911
219.8135	0.2715
220.0301	0.2766
220.2466	0.2887
220.4632	0.2449
220.6797	0.2288
220.8962	0.2405
221.1127	0.2584
221.3292	0.2574
221.5457	0.2498
221.7622	0.2349
221.9787	0.2761
222.1951	0.22
222.4116	0.2573
222.628	0.2425
222.8444	0.2651
223.0608	0.2485
223.2772	0.2633
223.4936	0.2418
223.71	0.2549
223.9264	0.2613
224.1427	0.2394
224.3591	0.2405
224.5754	0.2479
224.7917	0.2706
225.008	0.2639
225.2243	0.2468
225.4406	0.2781
225.6569	0.2748
225.8732	0.2654
226.0894	0.2644
226.3057	0.2691
226.5219	0.2904
226.7381	0.2716
226.9543	0.3041
227.1705	0.2981
227.3867	0.277
227.6029	0.318
227.8191	0.2875
228.0352	0.3015
228.2513	0.3255
228.4675	0.3174
228.6836	0.3005
228.8997	0.3012
229.1158	0.3175
229.3319	0.3099
229.548	0.3036
229.764	0.3346
229.9801	0.3045
230.1961	0.3226
230.4121	0.3475
230.6282	0.3378
230.8442	0.322
231.0602	0.3754
231.2761	0.3418
231.4921	0.3436
231.7081	0.3352
231.924	0.3269
232.14	0.3502
232.3559	0.3484
232.5718	0.3559
232.7877	0.3524
233.0036	0.3319
233.2195	0.3552
233.4353	0.3492
233.6512	0.3664
233.867	0.3571
234.0829	0.3539
234.2987	0.3519
234.5145	0.3665
234.7303	0.3749
234.9461	0.3864
235.1619	0.3712
235.3776	0.3825
235.5934	0.3919
235.8091	0.3683
236.0249	0.3716
236.2406	0.3802
236.4563	0.3677
236.672	0.3894
236.8877	0.394
237.1034	0.3852
237.319	0.3916
237.5347	0.4015
237.7503	0.3964
237.966	0.4151
238.1816	0.4199
238.3972	0.3907
238.6128	0.3908
238.8284	0.3813
239.0439	0.4219
239.2595	0.4097
239.475	0.4236
239.6906	0.3991
239.9061	0.4011
240.1216	0.4121
240.3371	0.4021
240.5526	0.3996
240.7681	0.3956
240.9836	0.3843
241.199	0.3954
241.4145	0.3999
241.6299	0.3809
241.8453	0.3842
242.0607	0.3739
242.2761	0.363
242.4915	0.3569
242.7069	0.3566
242.9223	0.3424
243.1376	0.3419
243.353	0.3468
243.5683	0.3356
243.7836	0.3301
243.9989	0.315
244.2142	0.301
244.4295	0.3076
244.6448	0.2926
244.86	0.2789
245.0753	0.2935
245.2905	0.2961
245.5057	0.268
245.721	0.2731
245.9362	0.2614
246.1514	0.267
246.3665	0.249
246.5817	0.2343
246.7969	0.25
247.012	0.2317
247.2271	0.2366
247.4423	0.2382
247.6574	0.2428
247.8725	0.2295
248.0876	0.2202
248.3026	0.2142
248.5177	0.2226
248.7328	0.2006
248.9478	0.1893
249.1628	0.2067
249.3779	0.2129
249.5929	0.1971
249.8079	0.2196
250.0228	0.1945
250.2378	0.189
250.4528	0.2015
250.6677	0.1795
250.8827	0.1897
251.0976	0.186
251.3125	0.1885
251.5274	0.1653
251.7423	0.1823
251.9572	0.178
252.172	0.1778
252.3869	0.1641
252.6017	0.1649
252.8166	0.1588
253.0314	0.1675
253.2462	0.1703
253.461	0.1787
253.6758	0.1649
253.8906	0.1767
254.1053	0.166
254.3201	0.1663
254.5348	0.177
254.7496	0.1712
254.9643	0.1734
255.179	0.1653
255.3937	0.1644
255.6083	0.1604
255.823	0.1764
256.0377	0.1624
256.2523	0.1674
256.467	0.149
256.6816	0.1736
256.8962	0.1625
257.1108	0.1519
257.3254	0.172
257.54	0.1532
257.7545	0.1611
257.9691	0.1673
258.1836	0.1541
258.3981	0.1661
258.6127	0.1641
258.8272	0.1627
259.0417	0.1592
259.2561	0.1674
259.4706	0.1677
259.6851	0.1643
259.8995	0.1659
260.114	0.1589
260.3284	0.1643
260.5428	0.1498
260.7572	0.1743
260.9716	0.1602
261.186	0.1579
261.4003	0.1739
261.6147	0.1646
261.829	0.1722
262.0433	0.1711
262.2577	0.1641
262.472	0.1675
262.6863	0.161
262.9005	0.154
263.1148	0.1536
263.3291	0.1422
263.5433	0.1649
263.7576	0.1529
263.9718	0.1742
264.186	0.1588
264.4002	0.1578
264.6144	0.1612
264.8286	0.1745
265.0427	0.1535
265.2569	0.1614
265.471	0.1515
265.6851	0.1545
265.8993	0.1625
266.1134	0.1612
266.3275	0.1483
266.5415	0.1493
266.7556	0.171
266.9697	0.1593
267.1837	0.1587
267.3978	0.153
267.6118	0.16
267.8258	0.1666
268.0398	0.1495
268.2538	0.1665
268.4677	0.1543
268.6817	0.1481
268.8957	0.1556
269.1096	0.1644
269.3235	0.1607
269.5374	0.1424
269.7514	0.1534
269.9652	0.146
270.1791	0.1443
270.393	0.1321
270.6068	0.1392
270.8207	0.136
271.0345	0.15
271.2483	0.1415
271.4622	0.1393
271.676	0.1495
271.8897	0.1357
272.1035	0.1398
272.3173	0.1281
272.531	0.1405
272.7448	0.1386
272.9585	0.1332
273.1722	0.1402
273.3859	0.1539
273.5996	0.1239
273.8133	0.1468
274.0269	0.1358
274.2406	0.1365
274.4542	0.1286
274.6679	0.1209
274.8815	0.1326
275.0951	0.1393
275.3087	0.1458
275.5223	0.1372
275.7358	0.1391
275.9494	0.133
276.1629	0.1299
276.3765	0.1302
276.59	0.1448
276.8035	0.1259
277.017	0.1308
277.2305	0.132
277.444	0.1383
277.6574	0.124
277.8709	0.1391
278.0843	0.1329
278.2978	0.1382
278.5112	0.1352
278.7246	0.1283
278.938	0.1323
279.1513	0.1409
279.3647	0.1389
279.5781	0.1327
279.7914	0.1333
280.0047	0.1589
280.2181	0.136
280.4314	0.1374
280.6447	0.1351
280.8579	0.1342
281.0712	0.1514
281.2845	0.1538
281.4977	0.1382
281.711	0.1303
281.9242	0.1476
282.1374	0.1524
282.3506	0.1423
282.5638	0.1454
282.7769	0.1429
282.9901	0.1478
283.2033	0.1522
283.4164	0.1518
283.6295	0.1326
283.8426	0.1362
284.0557	0.1536
284.2688	0.1617
284.4819	0.156
284.695	0.1488
284.908	0.1616
285.1211	0.1481
285.3341	0.1575
285.5471	0.1542
285.7601	0.1462
285.9731	0.1517
286.1861	0.1498
286.3991	0.1615
286.612	0.1603
286.825	0.1683
287.0379	0.1611
287.2508	0.1454
287.4637	0.1565
287.6766	0.1447
287.8895	0.1732
288.1024	0.1714
288.3152	0.1777
288.5281	0.1534
288.7409	0.1677
288.9538	0.157
289.1666	0.1595
289.3794	0.165
289.5922	0.1692
289.8049	0.1564
290.0177	0.17
290.2304	0.17
290.4432	0.1597
290.6559	0.1629
290.8686	0.1707
291.0813	0.1697
291.294	0.1649
291.5067	0.172
291.7194	0.1755
291.932	0.179
292.1447	0.164
292.3573	0.1655
292.5699	0.1692
292.7825	0.1685
292.9951	0.1624
293.2077	0.1743
293.4203	0.1685
293.6328	0.1561
293.8454	0.1759
294.0579	0.1735
294.2704	0.1676
294.4829	0.1683
294.6954	0.1769
294.9079	0.1697
295.1204	0.1607
295.3328	0.1654
295.5453	0.1801
295.7577	0.1668
295.9701	0.1681
296.1825	0.1715
296.3949	0.164
296.6073	0.1683
296.8197	0.1635
297.0321	0.1867
297.2444	0.1553
297.4567	0.183
297.6691	0.1705
297.8814	0.1729
298.0937	0.1748
298.306	0.1812
298.5182	0.1684
298.7305	0.1826
298.9428	0.16
299.155	0.1664
299.3672	0.1757
299.5794	0.1622
299.7916	0.1661
300.0038	0.1725
300.216	0.1775
300.4282	0.1635
300.6403	0.1548
300.8525	0.1791
301.0646	0.161
301.2767	0.1705
301.4888	0.1705
301.7009	0.173
301.913	0.1706
302.125	0.175
302.3371	0.1647
302.5491	0.1639
302.7612	0.1771
302.9732	0.1798
303.1852	0.1784
303.3972	0.1658
303.6092	0.1554
303.8211	0.155
304.0331	0.156
304.245	0.1552
304.457	0.1597
304.6689	0.1639
304.8808	0.1758
305.0927	0.1539
305.3046	0.1598
305.5164	0.165
305.7283	0.1562
305.9401	0.165
306.152	0.1483
306.3638	0.1622
306.5756	0.147
306.7874	0.1549
306.9992	0.1628
307.2109	0.1417
307.4227	0.1327
307.6344	0.1459
307.8462	0.1472
308.0579	0.1384
308.2696	0.1408
308.4813	0.1401
308.693	0.131
308.9046	0.1401
309.1163	0.1251
309.328	0.1222
309.5396	0.1244
309.7512	0.1254
309.9628	0.122
310.1744	0.1116
310.386	0.121
310.5976	0.1073
310.8091	0.115
311.0207	0.1166
311.2322	0.1151
311.4437	0.1049
311.6552	0.1131
311.8667	0.1061
312.0782	0.0997
312.2897	0.0919
312.5012	0.1052
312.7126	0.0923
312.924	0.0979
313.1355	0.1154
313.3469	0.1074
313.5583	0.108
313.7696	0.1091
313.981	0.104
314.1924	0.1044
314.4037	0.0985
314.6151	0.1018
314.8264	0.0937
315.0377	0.0933
315.249	0.0915
315.4603	0.099
315.6716	0.0909
315.8828	0.0778
316.0941	0.1007
316.3053	0.0853
316.5165	0.0936
316.7277	0.086
316.9389	0.0934
317.1501	0.0921
317.3613	0.0935
317.5724	0.0726
317.7836	0.0962
317.9947	0.0976
318.2058	0.0967
318.417	0.0839
318.6281	0.075
318.8391	0.0914
319.0502	0.0838
319.2613	0.0953
319.4723	0.0938
319.6834	0.093
319.8944	0.0836
320.1054	0.0974
320.3164	0.0901
320.5274	0.0846
320.7383	0.0874
320.9493	0.0856
321.1602	0.0935
321.3712	0.0743
321.5821	0.0849
321.793	0.0959
322.0039	0.0868
322.2148	0.0862
322.4257	0.0934
322.6365	0.0998
322.8474	0.0957
323.0582	0.0868
323.269	0.0922
323.4798	0.1025
323.6906	0.0897
323.9014	0.0885
324.1122	0.1059
324.3229	0.0836
324.5337	0.0905
324.7444	0.0754
324.9551	0.0908
325.1658	0.0976
325.3765	0.1083
325.5872	0.0878
325.7979	0.0901
326.0085	0.0992
326.2192	0.1025
326.4298	0.1007
326.6404	0.087
326.851	0.0956
327.0616	0.0842
327.2722	0.0964
327.4828	0.1047
327.6933	0.0894
327.9039	0.094
328.1144	0.1076
328.3249	0.0993
328.5354	0.0849
328.7459	0.0952
328.9564	0.0939
329.1669	0.0932
329.3773	0.0934
329.5878	0.096
329.7982	0.0882
330.0086	0.0949
330.219	0.0996
330.4294	0.0973
330.6398	0.0916
330.8502	0.0917
331.0605	0.0898
331.2708	0.0989
331.4812	0.0933
331.6915	0.1068
331.9018	0.0924
332.1121	0.097
332.3224	0.0921
332.5326	0.1006
332.7429	0.0984
332.9531	0.1135
333.1633	0.0987
333.3735	0.092
333.5837	0.096
333.7939	0.1001
334.0041	0.1041
334.2143	0.1068
334.4244	0.1033
334.6346	0.078
334.8447	0.1052
335.0548	0.1059
335.2649	0.1039
335.475	0.1114
335.685	0.0943
335.8951	0.1165
336.1051	0.1036
336.3152	0.1117
336.5252	0.0987
336.7352	0.1078
336.9452	0.1028
337.1552	0.1019
337.3652	0.1012
337.5751	0.097
337.7851	0.1115
337.995	0.0987
338.2049	0.0995
338.4148	0.1063
338.6247	0.1133
338.8346	0.0951
339.0445	0.0926
339.2543	0.0911
339.4642	0.1052
339.674	0.0906
339.8838	0.1056
340.0936	0.1036
340.3034	0.1064
340.5132	0.105
340.7229	0.1121
340.9327	0.1097
341.1424	0.1029
341.3522	0.1148
341.5619	0.1031
341.7716	0.111
341.9813	0.1124
342.1909	0.1083
342.4006	0.1253
342.6102	0.1229
342.8199	0.1158
343.0295	0.1139
343.2391	0.1188
343.4487	0.1159
343.6583	0.1136
343.8679	0.1258
344.0774	0.1141
344.287	0.1051
344.4965	0.1155
344.706	0.1127
344.9155	0.1174
345.125	0.1232
345.3345	0.1373
345.544	0.1079
345.7534	0.1148
345.9629	0.1233
346.1723	0.117
346.3817	0.1204
346.5911	0.1223
346.8005	0.1284
347.0099	0.1198
347.2193	0.1256
347.4286	0.1132
347.638	0.1333
347.8473	0.1236
348.0566	0.1197
348.2659	0.1366
348.4752	0.1259
348.6845	0.1271
348.8937	0.1329
349.103	0.1352
349.3122	0.1121
349.5214	0.1281
349.7306	0.121
349.9398	0.1439
350.149	0.1371
350.3582	0.1335
350.5674	0.1472
350.7765	0.1298
350.9856	0.1316
351.1948	0.1286
351.4039	0.123
351.613	0.1251
351.822	0.1474
352.0311	0.1502
352.2402	0.1389
352.4492	0.1468
352.6582	0.1619
352.8672	0.139
353.0762	0.148
353.2852	0.1389
353.4942	0.1426
353.7032	0.1465
353.9121	0.144
354.1211	0.1379
354.33	0.1347
354.5389	0.1542
354.7478	0.1419
354.9567	0.1412
355.1655	0.1439
355.3744	0.1621
355.5833	0.1461
355.7921	0.1804
356.0009	0.1445
356.2097	0.1655
356.4185	0.1625
356.6273	0.1542
356.8361	0.1553
357.0448	0.1581
357.2536	0.1567
357.4623	0.1571
357.671	0.1653
357.8797	0.1761
358.0884	0.1598
358.2971	0.1689
358.5057	0.1644
358.7144	0.1716
358.923	0.1592
359.1316	0.1704
359.3402	0.1753
359.5488	0.1671
359.7574	0.1575
359.966	0.1722
360.1746	0.173
360.3831	0.1783
360.5916	0.1661
360.8002	0.1743
361.0087	0.1876
361.2172	0.1631
361.4256	0.1791
361.6341	0.1838
361.8426	0.1837
362.051	0.1705
362.2594	0.176
362.4678	0.1898
362.6762	0.2016
362.8846	0.1897
363.093	0.1829
363.3014	0.188
363.5097	0.176
363.718	0.1818
363.9264	0.1853
364.1347	0.1833
364.343	0.1758
364.5513	0.2025
364.7595	0.1997
364.9678	0.1911
365.176	0.2047
365.3842	0.188
365.5925	0.1879
365.8007	0.2159
366.0089	0.1962
366.217	0.1837
366.4252	0.2069
366.6333	0.2155
366.8415	0.2031
367.0496	0.2047
367.2577	0.2151
367.4658	0.2278
367.6739	0.2123
367.882	0.2264
368.09	0.1983
368.2981	0.2185
368.5061	0.2044
368.7141	0.2298
368.9221	0.214
369.1301	0.2287
369.3381	0.2105
369.5461	0.214
369.754	0.2224
369.962	0.2318
370.1699	0.2285
370.3778	0.2264
370.5857	0.2162
370.7936	0.2229
371.0015	0.2303
371.2093	0.2231
371.4172	0.2292
371.625	0.2354
371.8328	0.2167
372.0406	0.2192
372.2484	0.2185
372.4562	0.2361
372.664	0.227
372.8717	0.2376
373.0795	0.2226
373.2872	0.2378
373.4949	0.2323
373.7026	0.2369
373.9103	0.2384
374.118	0.2487
374.3256	0.239
374.5333	0.2395
374.7409	0.2297
374.9485	0.2598
375.1561	0.2433
375.3637	0.2698
375.5713	0.2453
375.7789	0.2572
375.9864	0.2358
376.194	0.2348
376.4015	0.2628
376.609	0.2741
376.8165	0.2553
377.024	0.2308
377.2315	0.2211
377.4389	0.2612
377.6464	0.2631
377.8538	0.2581
378.0612	0.2466
378.2686	0.2517
378.476	0.2647
378.6834	0.2628
378.8908	0.2614
379.0981	0.2796
379.3055	0.276
379.5128	0.256
379.7201	0.2593
379.9274	0.2537
380.1347	0.2567
380.342	0.2727
380.5492	0.2578
380.7565	0.2579
380.9637	0.265
381.1709	0.2721
381.3781	0.2562
381.5853	0.2594
381.7925	0.2775
381.9997	0.2722
382.2068	0.2829
382.4139	0.2802
382.6211	0.2527
382.8282	0.2705
383.0353	0.2708
383.2424	0.2567
383.4494	0.2688
383.6565	0.2565
383.8635	0.2655
384.0706	0.2735
384.2776	0.2717
384.4846	0.2639
384.6916	0.2806
384.8986	0.2726
385.1055	0.2847
385.3125	0.2839
385.5194	0.2499
385.7263	0.286
385.9333	0.2719
386.1402	0.273
386.347	0.2647
386.5539	0.2494
386.7608	0.2862
386.9676	0.2578
387.1744	0.2815
387.3813	0.2515
387.5881	0.271
387.7948	0.2776
388.0016	0.2634
388.2084	0.2776
388.4151	0.2645
388.6219	0.2861
388.8286	0.2727
389.0353	0.2729
389.242	0.2643
389.4487	0.2519
389.6553	0.2715
389.862	0.2533
390.0686	0.2519
390.2753	0.2756
390.4819	0.2664
390.6885	0.2341
390.8951	0.2619
391.1016	0.2567
391.3082	0.2719
391.5147	0.2583
391.7213	0.2525
391.9278	0.2581
392.1343	0.249
392.3408	0.2464
392.5473	0.2631
392.7537	0.2457
392.9602	0.2504
393.1666	0.2589
393.373	0.247
393.5794	0.2565
393.7858	0.2405
393.9922	0.2411
394.1986	0.2461
394.4049	0.243
394.6113	0.2311
394.8176	0.2372
395.0239	0.2427
395.2302	0.2414
395.4365	0.2335
395.6428	0.2421
395.8491	0.2273
396.0553	0.2318
396.2615	0.2467
396.4678	0.227
396.674	0.22
396.8802	0.2347
397.0863	0.252
397.2925	0.2248
397.4987	0.2237
397.7048	0.2153
397.9109	0.2397
398.117	0.2244
398.3231	0.2101
398.5292	0.2281
398.7353	0.2502
398.9413	0.2353
399.1474	0.2267
399.3534	0.2204
399.5594	0.2191
399.7654	0.2458
399.9714	0.2362
400.1774	0.2285
400.3833	0.2293
400.5893	0.2322
400.7952	0.2441
401.0011	0.2286
401.207	0.2293
401.4129	0.2238
401.6188	0.2428
401.8247	0.2223
402.0305	0.2262
402.2364	0.2292
402.4422	0.2467
402.648	0.2323
402.8538	0.2462
403.0596	0.2222
403.2654	0.2517
403.4711	0.2228
403.6768	0.2459
403.8826	0.2391
404.0883	0.2483
404.294	0.2364
404.4997	0.2291
404.7054	0.2362
404.911	0.2226
405.1167	0.2369
405.3223	0.2382
405.5279	0.2359
405.7335	0.2366
405.9391	0.2334
406.1447	0.2314
406.3502	0.2516
406.5558	0.2355
406.7613	0.2348
406.9668	0.2397
407.1724	0.2373
407.3778	0.2164
407.5833	0.2227
407.7888	0.2117
407.9942	0.2381
408.1997	0.2287
408.4051	0.2277
408.6105	0.2235
408.8159	0.2147
409.0213	0.2265
409.2267	0.2446
409.432	0.2133
409.6374	0.2186
409.8427	0.2385
410.048	0.2366
410.2533	0.225
410.4586	0.2281
410.6639	0.2231
410.8691	0.2039
411.0744	0.2375
411.2796	0.2265
411.4848	0.2369
411.69	0.2147
411.8952	0.2317
412.1004	0.2204
412.3056	0.232
412.5107	0.2128
412.7158	0.2287
412.921	0.2383
413.1261	0.2153
413.3312	0.219
413.5362	0.2215
413.7413	0.2107
413.9464	0.2196
414.1514	0.2172
414.3564	0.2189
414.5614	0.212
414.7664	0.2212
414.9714	0.2254
415.1764	0.2059
415.3813	0.2292
415.5863	0.2295
415.7912	0.2305
415.9961	0.2278
416.201	0.2297
416.4059	0.2163
416.6108	0.216
416.8156	0.2346
417.0205	0.2377
417.2253	0.2155
417.4301	0.2406
417.6349	0.2195
417.8397	0.2093
418.0445	0.2361
418.2492	0.2251
418.454	0.2327
418.6587	0.2322
418.8634	0.2212
419.0681	0.1953
419.2728	0.2086
419.4775	0.217
419.6822	0.2128
419.8868	0.2139
420.0915	0.2164
420.2961	0.2131
420.5007	0.2049
420.7053	0.2205
420.9099	0.206
421.1144	0.2051
421.319	0.2085
421.5235	0.2193
421.728	0.207
421.9325	0.2041
422.137	0.2154
422.3415	0.21
422.546	0.2068
422.7504	0.2019
422.9549	0.2036
423.1593	0.2126
423.3637	0.2025
423.5681	0.2024
423.7725	0.1922
423.9769	0.1797
424.1812	0.1813
424.3856	0.2037
424.5899	0.1992
424.7942	0.2001
424.9985	0.1995
425.2028	0.1958
425.4071	0.2057
425.6113	0.1896
425.8156	0.1962
426.0198	0.181
426.224	0.1694
426.4282	0.1759
426.6324	0.158
