Data from MonoPyChalIsomerACN10uM410nmA_Absorbance_14-53-28-273.txt Node
Date: Fri Jul 05 14:53:28 BST 2024
User: LASERRRRR
Spectrometer: FLMT03099
Trigger mode: 0
Integration Time (sec): 1.000000E-1
Scans to average: 1
Electric dark correction enabled: true
Nonlinearity correction enabled: false
Boxcar width: 0
XAxis mode: Wavelengths
Number of Pixels in Spectrum: 3648
>>>>>Begin Spectral Data<<<<<
179.3399	-0.0178
179.5586	-0.0178
179.7771	-0.0178
179.9957	0.2728
180.2143	-0
180.4329	0.3972
180.6514	-0
180.8699	-0
181.0885	-0.2805
181.307	0.1906
181.5255	-0
181.744	-0
181.9625	-0
182.181	-0
182.3994	-0
182.6179	-0
182.8363	-0.2259
183.0547	-0.3989
183.2732	0.1252
183.4916	-0.1189
183.71	0.0865
183.9284	0.0918
184.1467	0.0584
184.3651	-0.2165
184.5835	-0.0259
184.8018	0.0179
185.0201	-0.1573
185.2385	-0.0871
185.4568	0.0949
185.6751	0.112
185.8934	0.1545
186.1117	-0.0216
186.3299	0.2123
186.5482	0.1419
186.7664	0.01
186.9847	0.0143
187.2029	0.0787
187.4211	-0.0391
187.6393	0.2418
187.8575	0.0856
188.0757	0.3128
188.2939	0.1128
188.512	-0.0797
188.7302	-0.2056
188.9483	0.0847
189.1665	0.1701
189.3846	-0
189.6027	0.1274
189.8208	0.0978
190.0389	0.2239
190.257	0.0123
190.475	0.2817
190.6931	0.123
190.9111	0.2676
191.1292	0.3661
191.3472	0.3212
191.5652	0.1856
191.7832	0.0879
192.0012	0.3141
192.2192	0.3679
192.4371	0.5294
192.6551	0.1888
192.873	0.2823
193.091	0.2488
193.3089	0.8594
193.5268	0.397
193.7447	0.508
193.9626	0.4619
194.1805	0.4713
194.3984	0.7499
194.6162	0.6314
194.8341	0.5136
195.0519	0.5154
195.2697	0.6923
195.4875	0.6031
195.7054	0.604
195.9231	0.5269
196.1409	0.522
196.3587	0.6261
196.5765	0.4798
196.7942	0.6267
197.012	0.4142
197.2297	0.5615
197.4474	1.5088
197.6651	0.4256
197.8828	0.4902
198.1005	0.6271
198.3182	0.4864
198.5358	0.7093
198.7535	0.6558
198.9711	0.5495
199.1888	0.6089
199.4064	0.6796
199.624	0.5436
199.8416	0.5716
200.0592	0.6019
200.2767	0.6776
200.4943	0.6299
200.7119	0.7591
200.9294	0.6975
201.1469	0.5092
201.3645	0.5247
201.582	0.5835
201.7995	0.5546
202.017	0.6988
202.2344	0.5688
202.4519	0.6719
202.6694	0.6626
202.8868	0.5825
203.1042	0.6696
203.3217	0.7115
203.5391	0.6098
203.7565	0.6594
203.9739	0.6887
204.1913	0.5288
204.4086	0.6566
204.626	0.7238
204.8433	0.6916
205.0607	0.5575
205.278	0.663
205.4953	0.6378
205.7126	0.6375
205.9299	0.7812
206.1472	0.7112
206.3644	0.6077
206.5817	0.7053
206.7989	0.6914
207.0162	0.6377
207.2334	0.5766
207.4506	0.6955
207.6678	0.6032
207.885	0.5724
208.1022	0.6427
208.3194	0.5776
208.5365	0.5664
208.7537	0.5563
208.9708	0.6315
209.1879	0.6467
209.405	0.7104
209.6222	0.6919
209.8392	0.6126
210.0563	0.6605
210.2734	0.6518
210.4905	0.6195
210.7075	0.6207
210.9245	0.5573
211.1416	0.6301
211.3586	0.6633
211.5756	0.5388
211.7926	0.6169
212.0096	0.5853
212.2265	0.5339
212.4435	0.5689
212.6604	0.5575
212.8774	0.6281
213.0943	0.5631
213.3112	0.5617
213.5281	0.5396
213.745	0.4833
213.9619	0.5004
214.1788	0.5013
214.3956	0.4242
214.6125	0.4982
214.8293	0.4321
215.0461	0.4448
215.2629	0.4299
215.4798	0.4613
215.6965	0.4354
215.9133	0.4532
216.1301	0.4071
216.3469	0.4633
216.5636	0.4071
216.7803	0.3787
216.9971	0.3865
217.2138	0.3692
217.4305	0.3394
217.6472	0.3313
217.8639	0.3696
218.0805	0.3482
218.2972	0.2941
218.5138	0.315
218.7305	0.318
218.9471	0.275
219.1637	0.2657
219.3803	0.2588
219.5969	0.2709
219.8135	0.2411
220.0301	0.2804
220.2466	0.2734
220.4632	0.27
220.6797	0.216
220.8962	0.2294
221.1127	0.249
221.3292	0.2495
221.5457	0.2392
221.7622	0.2409
221.9787	0.2387
222.1951	0.2166
222.4116	0.2632
222.628	0.2421
222.8444	0.2449
223.0608	0.2686
223.2772	0.2309
223.4936	0.2381
223.71	0.2548
223.9264	0.251
224.1427	0.2554
224.3591	0.2484
224.5754	0.2523
224.7917	0.258
225.008	0.2658
225.2243	0.2627
225.4406	0.269
225.6569	0.2596
225.8732	0.2741
226.0894	0.2451
226.3057	0.2637
226.5219	0.2925
226.7381	0.2795
226.9543	0.286
227.1705	0.2724
227.3867	0.2709
227.6029	0.2956
227.8191	0.2725
228.0352	0.2932
228.2513	0.2982
228.4675	0.3047
228.6836	0.2906
228.8997	0.2786
229.1158	0.3062
229.3319	0.2993
229.548	0.311
229.764	0.2973
229.9801	0.3145
230.1961	0.3068
230.4121	0.3308
230.6282	0.3131
230.8442	0.3173
231.0602	0.3489
231.2761	0.3464
231.4921	0.3302
231.7081	0.3459
231.924	0.3273
232.14	0.334
232.3559	0.3377
232.5718	0.3421
232.7877	0.362
233.0036	0.3341
233.2195	0.3597
233.4353	0.3719
233.6512	0.3401
233.867	0.3575
234.0829	0.3575
234.2987	0.3523
234.5145	0.3688
234.7303	0.3455
234.9461	0.3848
235.1619	0.3555
235.3776	0.3875
235.5934	0.381
235.8091	0.3548
236.0249	0.3639
236.2406	0.3742
236.4563	0.3764
236.672	0.39
236.8877	0.3773
237.1034	0.3782
237.319	0.3841
237.5347	0.3885
237.7503	0.3858
237.966	0.3854
238.1816	0.3946
238.3972	0.3859
238.6128	0.3664
238.8284	0.388
239.0439	0.403
239.2595	0.3877
239.475	0.4204
239.6906	0.3962
239.9061	0.3905
240.1216	0.385
240.3371	0.4111
240.5526	0.3781
240.7681	0.42
240.9836	0.3984
241.199	0.4156
241.4145	0.3734
241.6299	0.3658
241.8453	0.3766
242.0607	0.3889
242.2761	0.3812
242.4915	0.3694
242.7069	0.3723
242.9223	0.3566
243.1376	0.3494
243.353	0.3475
243.5683	0.354
243.7836	0.3315
243.9989	0.328
244.2142	0.3216
244.4295	0.3207
244.6448	0.3023
244.86	0.294
245.0753	0.2958
245.2905	0.2987
245.5057	0.2826
245.721	0.2769
245.9362	0.2691
246.1514	0.2812
246.3665	0.2663
246.5817	0.2597
246.7969	0.2498
247.012	0.2567
247.2271	0.252
247.4423	0.2594
247.6574	0.2421
247.8725	0.2402
248.0876	0.2294
248.3026	0.2357
248.5177	0.2327
248.7328	0.2227
248.9478	0.2008
249.1628	0.2082
249.3779	0.2244
249.5929	0.2044
249.8079	0.2166
250.0228	0.2009
250.2378	0.193
250.4528	0.2239
250.6677	0.1839
250.8827	0.1948
251.0976	0.1798
251.3125	0.182
251.5274	0.1757
251.7423	0.1781
251.9572	0.196
252.172	0.1765
252.3869	0.1698
252.6017	0.1775
252.8166	0.1624
253.0314	0.1711
253.2462	0.1688
253.461	0.1745
253.6758	0.168
253.8906	0.191
254.1053	0.1713
254.3201	0.1661
254.5348	0.187
254.7496	0.18
254.9643	0.1742
255.179	0.1736
255.3937	0.1546
255.6083	0.1666
255.823	0.1739
256.0377	0.1654
256.2523	0.1653
256.467	0.1521
256.6816	0.1719
256.8962	0.1686
257.1108	0.1603
257.3254	0.1702
257.54	0.1544
257.7545	0.169
257.9691	0.1616
258.1836	0.1631
258.3981	0.1737
258.6127	0.1633
258.8272	0.1549
259.0417	0.1762
259.2561	0.161
259.4706	0.1639
259.6851	0.1679
259.8995	0.151
260.114	0.1628
260.3284	0.1562
260.5428	0.1578
260.7572	0.1645
260.9716	0.1604
261.186	0.155
261.4003	0.1536
261.6147	0.1547
261.829	0.1593
262.0433	0.1627
262.2577	0.164
262.472	0.1638
262.6863	0.1693
262.9005	0.166
263.1148	0.158
263.3291	0.1459
263.5433	0.1613
263.7576	0.162
263.9718	0.156
264.186	0.1624
264.4002	0.1629
264.6144	0.1629
264.8286	0.1689
265.0427	0.1508
265.2569	0.1637
265.471	0.1467
265.6851	0.1487
265.8993	0.1558
266.1134	0.1606
266.3275	0.1534
266.5415	0.1587
266.7556	0.1637
266.9697	0.1673
267.1837	0.1749
267.3978	0.1695
267.6118	0.1664
267.8258	0.1713
268.0398	0.1647
268.2538	0.161
268.4677	0.1687
268.6817	0.1574
268.8957	0.1623
269.1096	0.1604
269.3235	0.1748
269.5374	0.1626
269.7514	0.1659
269.9652	0.1541
270.1791	0.1582
270.393	0.1541
270.6068	0.1591
270.8207	0.1402
271.0345	0.1471
271.2483	0.1599
271.4622	0.1519
271.676	0.1472
271.8897	0.1505
272.1035	0.1457
272.3173	0.1517
272.531	0.146
272.7448	0.1596
272.9585	0.1491
273.1722	0.1491
273.3859	0.1566
273.5996	0.149
273.8133	0.1458
274.0269	0.1526
274.2406	0.1413
274.4542	0.1496
274.6679	0.1335
274.8815	0.1496
275.0951	0.1469
275.3087	0.1625
275.5223	0.1618
275.7358	0.1606
275.9494	0.153
276.1629	0.1434
276.3765	0.1548
276.59	0.1565
276.8035	0.1522
277.017	0.1444
277.2305	0.1466
277.444	0.1593
277.6574	0.1418
277.8709	0.1439
278.0843	0.1442
278.2978	0.1366
278.5112	0.1538
278.7246	0.1464
278.938	0.1543
279.1513	0.1502
279.3647	0.1653
279.5781	0.1491
279.7914	0.1552
280.0047	0.1606
280.2181	0.1507
280.4314	0.1587
280.6447	0.1552
280.8579	0.1545
281.0712	0.1527
281.2845	0.1556
281.4977	0.1533
281.711	0.1569
281.9242	0.1629
282.1374	0.1532
282.3506	0.155
282.5638	0.1635
282.7769	0.1633
282.9901	0.1575
283.2033	0.1648
283.4164	0.1637
283.6295	0.1557
283.8426	0.15
284.0557	0.1507
284.2688	0.162
284.4819	0.1682
284.695	0.1688
284.908	0.1628
285.1211	0.1634
285.3341	0.1528
285.5471	0.1578
285.7601	0.1615
285.9731	0.1432
286.1861	0.1529
286.3991	0.1674
286.612	0.1604
286.825	0.1506
287.0379	0.1607
287.2508	0.1617
287.4637	0.1679
287.6766	0.1414
287.8895	0.1625
288.1024	0.1745
288.3152	0.1485
288.5281	0.1522
288.7409	0.1559
288.9538	0.1586
289.1666	0.1573
289.3794	0.1605
289.5922	0.1551
289.8049	0.1502
290.0177	0.1551
290.2304	0.1559
290.4432	0.1537
290.6559	0.1571
290.8686	0.1588
291.0813	0.1427
291.294	0.1578
291.5067	0.1598
291.7194	0.1613
291.932	0.1745
292.1447	0.1502
292.3573	0.1462
292.5699	0.1505
292.7825	0.1623
292.9951	0.1468
293.2077	0.1558
293.4203	0.1617
293.6328	0.1517
293.8454	0.1477
294.0579	0.1573
294.2704	0.1525
294.4829	0.1439
294.6954	0.1566
294.9079	0.1489
295.1204	0.1454
295.3328	0.1513
295.5453	0.1564
295.7577	0.162
295.9701	0.1466
296.1825	0.1574
296.3949	0.1432
296.6073	0.15
296.8197	0.1426
297.0321	0.1552
297.2444	0.1472
297.4567	0.1544
297.6691	0.1559
297.8814	0.1484
298.0937	0.1555
298.306	0.1699
298.5182	0.1432
298.7305	0.1571
298.9428	0.1476
299.155	0.166
299.3672	0.1438
299.5794	0.1445
299.7916	0.1501
300.0038	0.1543
300.216	0.1537
300.4282	0.1616
300.6403	0.1476
300.8525	0.1523
301.0646	0.1454
301.2767	0.157
301.4888	0.1534
301.7009	0.1524
301.913	0.1575
302.125	0.1487
302.3371	0.1427
302.5491	0.1455
302.7612	0.1572
302.9732	0.1479
303.1852	0.1537
303.3972	0.153
303.6092	0.1404
303.8211	0.1425
304.0331	0.1413
304.245	0.1379
304.457	0.146
304.6689	0.1384
304.8808	0.1582
305.0927	0.1444
305.3046	0.1378
305.5164	0.1505
305.7283	0.1354
305.9401	0.1398
306.152	0.1312
306.3638	0.1495
306.5756	0.1375
306.7874	0.1444
306.9992	0.1481
307.2109	0.1352
307.4227	0.1168
307.6344	0.1321
307.8462	0.1246
308.0579	0.125
308.2696	0.1316
308.4813	0.1212
308.693	0.1201
308.9046	0.1285
309.1163	0.1228
309.328	0.1231
309.5396	0.1149
309.7512	0.113
309.9628	0.1174
310.1744	0.113
310.386	0.1164
310.5976	0.1164
310.8091	0.113
311.0207	0.1112
311.2322	0.1204
311.4437	0.1126
311.6552	0.1161
311.8667	0.1191
312.0782	0.0942
312.2897	0.1062
312.5012	0.1238
312.7126	0.0953
312.924	0.0994
313.1355	0.1083
313.3469	0.1026
313.5583	0.1126
313.7696	0.1024
313.981	0.1072
314.1924	0.0939
314.4037	0.1058
314.6151	0.1114
314.8264	0.0986
315.0377	0.0959
315.249	0.1085
315.4603	0.1084
315.6716	0.0998
315.8828	0.1002
316.0941	0.1001
316.3053	0.088
316.5165	0.0931
316.7277	0.0963
316.9389	0.1065
317.1501	0.0913
317.3613	0.1078
317.5724	0.0804
317.7836	0.1076
317.9947	0.1026
318.2058	0.0986
318.417	0.0951
318.6281	0.0922
318.8391	0.0943
319.0502	0.1022
319.2613	0.0996
319.4723	0.1024
319.6834	0.0963
319.8944	0.0929
320.1054	0.1027
320.3164	0.1077
320.5274	0.0999
320.7383	0.0985
320.9493	0.0944
321.1602	0.1144
321.3712	0.0958
321.5821	0.1033
321.793	0.1094
322.0039	0.0943
322.2148	0.0945
322.4257	0.1033
322.6365	0.1088
322.8474	0.103
323.0582	0.107
323.269	0.1004
323.4798	0.1225
323.6906	0.1044
323.9014	0.1146
324.1122	0.1094
324.3229	0.0977
324.5337	0.1009
324.7444	0.0934
324.9551	0.1138
325.1658	0.1203
325.3765	0.1054
325.5872	0.1031
325.7979	0.1022
326.0085	0.1036
326.2192	0.1085
326.4298	0.1091
326.6404	0.1032
326.851	0.1052
327.0616	0.1162
327.2722	0.1221
327.4828	0.1052
327.6933	0.1076
327.9039	0.1113
328.1144	0.1148
328.3249	0.1159
328.5354	0.0958
328.7459	0.116
328.9564	0.1132
329.1669	0.1087
329.3773	0.1126
329.5878	0.1101
329.7982	0.1142
330.0086	0.1042
330.219	0.122
330.4294	0.1098
330.6398	0.1142
330.8502	0.1067
331.0605	0.1102
331.2708	0.1084
331.4812	0.106
331.6915	0.1097
331.9018	0.1161
332.1121	0.1025
332.3224	0.1123
332.5326	0.1192
332.7429	0.1066
332.9531	0.1217
333.1633	0.1104
333.3735	0.1069
333.5837	0.115
333.7939	0.1131
334.0041	0.1214
334.2143	0.1149
334.4244	0.1133
334.6346	0.1029
334.8447	0.1236
335.0548	0.1
335.2649	0.1112
335.475	0.1156
335.685	0.1104
335.8951	0.1181
336.1051	0.1268
336.3152	0.1241
336.5252	0.105
336.7352	0.1125
336.9452	0.1128
337.1552	0.1139
337.3652	0.1174
337.5751	0.1219
337.7851	0.1191
337.995	0.11
338.2049	0.1177
338.4148	0.1114
338.6247	0.1053
338.8346	0.1131
339.0445	0.109
339.2543	0.1154
339.4642	0.121
339.674	0.1005
339.8838	0.1191
340.0936	0.1291
340.3034	0.1301
340.5132	0.1351
340.7229	0.126
340.9327	0.1166
341.1424	0.119
341.3522	0.1308
341.5619	0.1337
341.7716	0.1281
341.9813	0.136
342.1909	0.1204
342.4006	0.1358
342.6102	0.1329
342.8199	0.1267
343.0295	0.1357
343.2391	0.1281
343.4487	0.1381
343.6583	0.121
343.8679	0.1281
344.0774	0.1341
344.287	0.1342
344.4965	0.1278
344.706	0.1329
344.9155	0.1185
345.125	0.1319
345.3345	0.1279
345.544	0.1285
345.7534	0.1322
345.9629	0.1247
346.1723	0.1265
346.3817	0.1207
346.5911	0.1296
346.8005	0.1384
347.0099	0.1144
347.2193	0.1405
347.4286	0.1259
347.638	0.143
347.8473	0.1446
348.0566	0.1353
348.2659	0.1315
348.4752	0.1313
348.6845	0.1244
348.8937	0.1354
349.103	0.1413
349.3122	0.1385
349.5214	0.1351
349.7306	0.135
349.9398	0.1434
350.149	0.1265
350.3582	0.1332
350.5674	0.1497
350.7765	0.1468
350.9856	0.1308
351.1948	0.141
351.4039	0.1264
351.613	0.1318
351.822	0.1584
352.0311	0.1419
352.2402	0.1549
352.4492	0.1517
352.6582	0.1572
352.8672	0.128
353.0762	0.1454
353.2852	0.1378
353.4942	0.145
353.7032	0.1389
353.9121	0.1556
354.1211	0.1525
354.33	0.1486
354.5389	0.146
354.7478	0.1597
354.9567	0.1555
355.1655	0.1509
355.3744	0.1565
355.5833	0.1494
355.7921	0.1609
356.0009	0.1461
356.2097	0.1676
356.4185	0.1675
356.6273	0.1549
356.8361	0.1627
357.0448	0.1546
357.2536	0.1529
357.4623	0.1572
357.671	0.1605
357.8797	0.1616
358.0884	0.1523
358.2971	0.1561
358.5057	0.165
358.7144	0.166
358.923	0.1576
359.1316	0.1534
359.3402	0.1661
359.5488	0.1653
359.7574	0.1638
359.966	0.1759
360.1746	0.1783
360.3831	0.1619
360.5916	0.1699
360.8002	0.1694
361.0087	0.1895
361.2172	0.1654
361.4256	0.1752
361.6341	0.1898
361.8426	0.1674
362.051	0.1643
362.2594	0.1833
362.4678	0.1699
362.6762	0.1985
362.8846	0.1735
363.093	0.1759
363.3014	0.1791
363.5097	0.1623
363.718	0.1789
363.9264	0.1918
364.1347	0.1671
364.343	0.1812
364.5513	0.1878
364.7595	0.1888
364.9678	0.1929
365.176	0.1962
365.3842	0.1734
365.5925	0.1778
365.8007	0.1914
366.0089	0.1848
366.217	0.1837
366.4252	0.2071
366.6333	0.2015
366.8415	0.1911
367.0496	0.1926
367.2577	0.1903
367.4658	0.2011
367.6739	0.1934
367.882	0.2027
368.09	0.1855
368.2981	0.1944
368.5061	0.1949
368.7141	0.2014
368.9221	0.1915
369.1301	0.1996
369.3381	0.1888
369.5461	0.194
369.754	0.206
369.962	0.2136
370.1699	0.193
370.3778	0.2026
370.5857	0.1822
370.7936	0.2024
371.0015	0.2015
371.2093	0.2024
371.4172	0.2199
371.625	0.1912
371.8328	0.2168
372.0406	0.2015
372.2484	0.1965
372.4562	0.2069
372.664	0.1866
372.8717	0.2226
373.0795	0.1719
373.2872	0.2057
373.4949	0.2011
373.7026	0.2194
373.9103	0.2188
374.118	0.2227
374.3256	0.2162
374.5333	0.21
374.7409	0.2113
374.9485	0.2272
375.1561	0.206
375.3637	0.2167
375.5713	0.2126
375.7789	0.2168
375.9864	0.2128
376.194	0.2193
376.4015	0.2166
376.609	0.2282
376.8165	0.2164
377.024	0.2317
377.2315	0.1989
377.4389	0.216
377.6464	0.2197
377.8538	0.2234
378.0612	0.213
378.2686	0.243
378.476	0.233
378.6834	0.2322
378.8908	0.2256
379.0981	0.215
379.3055	0.2144
379.5128	0.2202
379.7201	0.2287
379.9274	0.2129
380.1347	0.2234
380.342	0.2372
380.5492	0.222
380.7565	0.219
380.9637	0.2131
381.1709	0.2353
381.3781	0.223
381.5853	0.2306
381.7925	0.2503
381.9997	0.2272
382.2068	0.2451
382.4139	0.2418
382.6211	0.2158
382.8282	0.2194
383.0353	0.2344
383.2424	0.2172
383.4494	0.233
383.6565	0.2156
383.8635	0.2075
384.0706	0.2203
384.2776	0.2416
384.4846	0.2385
384.6916	0.2221
384.8986	0.2264
385.1055	0.2476
385.3125	0.2108
385.5194	0.216
385.7263	0.2395
385.9333	0.2142
386.1402	0.2253
386.347	0.2268
386.5539	0.2148
386.7608	0.2278
386.9676	0.2
387.1744	0.2201
387.3813	0.2233
387.5881	0.2269
387.7948	0.2164
388.0016	0.2167
388.2084	0.206
388.4151	0.1964
388.6219	0.2426
388.8286	0.2319
389.0353	0.2224
389.242	0.2237
389.4487	0.2119
389.6553	0.2149
389.862	0.2007
390.0686	0.2191
390.2753	0.2261
390.4819	0.2143
390.6885	0.2066
390.8951	0.2206
391.1016	0.2122
391.3082	0.2158
391.5147	0.2168
391.7213	0.2065
391.9278	0.2021
392.1343	0.2057
392.3408	0.2127
392.5473	0.2058
392.7537	0.194
392.9602	0.1897
393.1666	0.1967
393.373	0.1977
393.5794	0.2036
393.7858	0.2086
393.9922	0.189
394.1986	0.2144
394.4049	0.1976
394.6113	0.1926
394.8176	0.1807
395.0239	0.2082
395.2302	0.1923
395.4365	0.1877
395.6428	0.1868
395.8491	0.1872
396.0553	0.1887
396.2615	0.1932
396.4678	0.182
396.674	0.184
396.8802	0.195
397.0863	0.1916
397.2925	0.2056
397.4987	0.1874
397.7048	0.1835
397.9109	0.1921
398.117	0.1706
398.3231	0.177
398.5292	0.1831
398.7353	0.1924
398.9413	0.1812
399.1474	0.1945
399.3534	0.1987
399.5594	0.1511
399.7654	0.1884
399.9714	0.1926
400.1774	0.1794
400.3833	0.187
400.5893	0.1902
400.7952	0.1816
401.0011	0.1826
401.207	0.1977
401.4129	0.1933
401.6188	0.1844
401.8247	0.1899
402.0305	0.1918
402.2364	0.1744
402.4422	0.188
402.648	0.1944
402.8538	0.2065
403.0596	0.1818
403.2654	0.2049
403.4711	0.1698
403.6768	0.1881
403.8826	0.2045
404.0883	0.1954
404.294	0.198
404.4997	0.1846
404.7054	0.1787
404.911	0.1768
405.1167	0.1804
405.3223	0.1858
405.5279	0.1933
405.7335	0.1918
405.9391	0.1899
406.1447	0.1742
406.3502	0.193
406.5558	0.1824
406.7613	0.1757
406.9668	0.1973
407.1724	0.1801
407.3778	0.1603
407.5833	0.1695
407.7888	0.1915
407.9942	0.1993
408.1997	0.1828
408.4051	0.1759
408.6105	0.1945
408.8159	0.1673
409.0213	0.1681
409.2267	0.2014
409.432	0.1674
409.6374	0.1947
409.8427	0.1642
410.048	0.1942
410.2533	0.1643
410.4586	0.1734
410.6639	0.1759
410.8691	0.1668
411.0744	0.1625
411.2796	0.1674
411.4848	0.1737
411.69	0.1551
411.8952	0.1889
412.1004	0.1811
412.3056	0.191
412.5107	0.1602
412.7158	0.2024
412.921	0.1822
413.1261	0.1785
413.3312	0.1618
413.5362	0.1679
413.7413	0.1667
413.9464	0.1488
414.1514	0.166
414.3564	0.1661
414.5614	0.1737
414.7664	0.177
414.9714	0.1666
415.1764	0.1706
415.3813	0.1944
415.5863	0.173
415.7912	0.176
415.9961	0.1833
416.201	0.1697
416.4059	0.1771
416.6108	0.1488
416.8156	0.172
417.0205	0.1596
417.2253	0.1703
417.4301	0.1626
417.6349	0.177
417.8397	0.1518
418.0445	0.1756
418.2492	0.1762
418.454	0.1868
418.6587	0.1554
418.8634	0.1748
419.0681	0.1428
419.2728	0.1491
419.4775	0.1645
419.6822	0.1669
419.8868	0.1519
420.0915	0.1635
420.2961	0.149
420.5007	0.1501
420.7053	0.1535
420.9099	0.1778
421.1144	0.1483
421.319	0.1552
421.5235	0.1641
421.728	0.1513
421.9325	0.1738
422.137	0.1729
422.3415	0.1513
422.546	0.1597
422.7504	0.1556
422.9549	0.1653
423.1593	0.1595
423.3637	0.1647
423.5681	0.1303
423.7725	0.1588
423.9769	0.1527
424.1812	0.1446
424.3856	0.1539
424.5899	0.147
424.7942	0.1536
424.9985	0.1582
425.2028	0.1525
425.4071	0.157
425.6113	0.139
425.8156	0.1456
426.0198	0.1553
426.224	0.1225
426.4282	0.1399
426.6324	0.1347
426.8366	0.1313
