Data from MonoPyChalIsomerACN10uM410nmA_Absorbance_14-53-26-273.txt Node
Date: Fri Jul 05 14:53:26 BST 2024
User: LASERRRRR
Spectrometer: FLMT03099
Trigger mode: 0
Integration Time (sec): 1.000000E-1
Scans to average: 1
Electric dark correction enabled: true
Nonlinearity correction enabled: false
Boxcar width: 0
XAxis mode: Wavelengths
Number of Pixels in Spectrum: 3648
>>>>>Begin Spectral Data<<<<<
179.3399	-0.386
179.5586	-0.386
179.7771	-0.386
179.9957	-0
180.2143	-0
180.4329	-0.2443
180.6514	-0
180.8699	-0
181.0885	0.482
181.307	-0
181.5255	-0
181.744	0.0687
181.9625	0.0653
182.181	-1.1579
182.3994	-0
182.6179	-0.0517
182.8363	-0.0127
183.0547	-0.3491
183.2732	0.109
183.4916	0.4337
183.71	0.1474
183.9284	0.0088
184.1467	-0.0924
184.3651	-0.09
184.5835	-0.1248
184.8018	0.1901
185.0201	-0.0462
185.2385	-0.0833
185.4568	-0.0361
185.6751	-0.0057
185.8934	0.4438
186.1117	-0.0219
186.3299	0.0302
186.5482	0.1292
186.7664	-0.09
186.9847	0.0482
187.2029	0.3379
187.4211	0.0874
187.6393	0.1973
187.8575	-0.0287
188.0757	0.1506
188.2939	0.2407
188.512	-0.1703
188.7302	-0.0228
188.9483	-0.1068
189.1665	0.0694
189.3846	0.5264
189.6027	0.3074
189.8208	0.2187
190.0389	0.1356
190.257	0.1513
190.475	0.1076
190.6931	0.1313
190.9111	0.5516
191.1292	0.2206
191.3472	0.5221
191.5652	0.1911
191.7832	0.3817
192.0012	0.6509
192.2192	0.3518
192.4371	0.5479
192.6551	0.3441
192.873	0.4781
193.091	0.546
193.3089	0.5143
193.5268	0.5602
193.7447	0.4842
193.9626	0.5497
194.1805	0.5349
194.3984	0.5338
194.6162	0.5501
194.8341	0.5334
195.0519	0.5224
195.2697	0.8866
195.4875	0.6478
195.7054	0.4452
195.9231	0.4687
196.1409	0.6575
196.3587	0.5614
196.5765	0.485
196.7942	0.5382
197.012	0.5003
197.2297	0.6944
197.4474	1.146
197.6651	0.4478
197.8828	0.5845
198.1005	0.8282
198.3182	0.524
198.5358	0.6977
198.7535	0.6698
198.9711	0.559
199.1888	0.6789
199.4064	0.7633
199.624	0.5788
199.8416	0.4373
200.0592	0.7207
200.2767	0.7436
200.4943	0.6699
200.7119	0.6268
200.9294	0.6909
201.1469	0.5171
201.3645	0.6171
201.582	0.752
201.7995	0.6431
202.017	0.6535
202.2344	0.6158
202.4519	0.6798
202.6694	0.5994
202.8868	0.5545
203.1042	0.6343
203.3217	0.6365
203.5391	0.5813
203.7565	0.5666
203.9739	0.6199
204.1913	0.6841
204.4086	0.565
204.626	0.7787
204.8433	0.7075
205.0607	0.5783
205.278	0.528
205.4953	0.6525
205.7126	0.5421
205.9299	0.7117
206.1472	0.6432
206.3644	0.5988
206.5817	0.7339
206.7989	0.7092
207.0162	0.6375
207.2334	0.6219
207.4506	0.5561
207.6678	0.6157
207.885	0.5907
208.1022	0.6295
208.3194	0.6406
208.5365	0.6793
208.7537	0.6336
208.9708	0.5723
209.1879	0.645
209.405	0.6057
209.6222	0.7318
209.8392	0.6012
210.0563	0.5914
210.2734	0.6039
210.4905	0.6375
210.7075	0.6504
210.9245	0.5661
211.1416	0.6873
211.3586	0.6502
211.5756	0.5517
211.7926	0.6269
212.0096	0.6262
212.2265	0.5754
212.4435	0.59
212.6604	0.5449
212.8774	0.5665
213.0943	0.6199
213.3112	0.5809
213.5281	0.5107
213.745	0.5104
213.9619	0.4576
214.1788	0.4944
214.3956	0.4263
214.6125	0.4499
214.8293	0.4391
215.0461	0.5016
215.2629	0.4419
215.4798	0.4691
215.6965	0.4098
215.9133	0.4206
216.1301	0.454
216.3469	0.4451
216.5636	0.3959
216.7803	0.3705
216.9971	0.3911
217.2138	0.3669
217.4305	0.3527
217.6472	0.3637
217.8639	0.3786
218.0805	0.3305
218.2972	0.327
218.5138	0.3388
218.7305	0.3049
218.9471	0.2999
219.1637	0.2923
219.3803	0.2928
219.5969	0.2889
219.8135	0.2516
220.0301	0.2823
220.2466	0.2904
220.4632	0.244
220.6797	0.2269
220.8962	0.242
221.1127	0.2435
221.3292	0.2586
221.5457	0.2368
221.7622	0.2266
221.9787	0.252
222.1951	0.224
222.4116	0.2738
222.628	0.2493
222.8444	0.2443
223.0608	0.26
223.2772	0.2599
223.4936	0.2434
223.71	0.2657
223.9264	0.2806
224.1427	0.2311
224.3591	0.2563
224.5754	0.2535
224.7917	0.2588
225.008	0.2569
225.2243	0.2536
225.4406	0.3007
225.6569	0.2593
225.8732	0.2613
226.0894	0.231
226.3057	0.2614
226.5219	0.2928
226.7381	0.2545
226.9543	0.2846
227.1705	0.2864
227.3867	0.2729
227.6029	0.2848
227.8191	0.2981
228.0352	0.2979
228.2513	0.3081
228.4675	0.2898
228.6836	0.3003
228.8997	0.2913
229.1158	0.294
229.3319	0.3081
229.548	0.3182
229.764	0.3171
229.9801	0.327
230.1961	0.3011
230.4121	0.3209
230.6282	0.3341
230.8442	0.3114
231.0602	0.3366
231.2761	0.3433
231.4921	0.3291
231.7081	0.3454
231.924	0.3299
232.14	0.3614
232.3559	0.3344
232.5718	0.3596
232.7877	0.3441
233.0036	0.344
233.2195	0.3665
233.4353	0.3574
233.6512	0.3629
233.867	0.3506
234.0829	0.3654
234.2987	0.3445
234.5145	0.3634
234.7303	0.3664
234.9461	0.3741
235.1619	0.3821
235.3776	0.3713
235.5934	0.381
235.8091	0.374
236.0249	0.3798
236.2406	0.3832
236.4563	0.3922
236.672	0.3916
236.8877	0.4055
237.1034	0.3967
237.319	0.3981
237.5347	0.4014
237.7503	0.3871
237.966	0.4072
238.1816	0.4101
238.3972	0.3754
238.6128	0.3717
238.8284	0.4165
239.0439	0.3963
239.2595	0.3835
239.475	0.4116
239.6906	0.415
239.9061	0.3997
240.1216	0.4018
240.3371	0.3953
240.5526	0.3876
240.7681	0.4002
240.9836	0.3741
241.199	0.3862
241.4145	0.3849
241.6299	0.3793
241.8453	0.3758
242.0607	0.3918
242.2761	0.3705
242.4915	0.3655
242.7069	0.3682
242.9223	0.3322
243.1376	0.3637
243.353	0.3513
243.5683	0.369
243.7836	0.3217
243.9989	0.3424
244.2142	0.3076
244.4295	0.3098
244.6448	0.2955
244.86	0.2992
245.0753	0.2825
245.2905	0.2923
245.5057	0.2737
245.721	0.2744
245.9362	0.269
246.1514	0.2636
246.3665	0.2584
246.5817	0.2602
246.7969	0.2474
247.012	0.2413
247.2271	0.2405
247.4423	0.2495
247.6574	0.239
247.8725	0.2332
248.0876	0.2169
248.3026	0.2295
248.5177	0.2283
248.7328	0.2143
248.9478	0.2113
249.1628	0.2112
249.3779	0.2112
249.5929	0.1983
249.8079	0.2127
250.0228	0.2057
250.2378	0.2092
250.4528	0.2063
250.6677	0.1915
250.8827	0.1999
251.0976	0.1869
251.3125	0.1803
251.5274	0.1695
251.7423	0.1805
251.9572	0.183
252.172	0.1909
252.3869	0.1855
252.6017	0.1817
252.8166	0.1654
253.0314	0.1594
253.2462	0.1791
253.461	0.1805
253.6758	0.1716
253.8906	0.1801
254.1053	0.1695
254.3201	0.1707
254.5348	0.1849
254.7496	0.1815
254.9643	0.1621
255.179	0.1646
255.3937	0.1667
255.6083	0.1669
255.823	0.1743
256.0377	0.1566
256.2523	0.1671
256.467	0.1505
256.6816	0.1765
256.8962	0.1591
257.1108	0.1593
257.3254	0.1718
257.54	0.1559
257.7545	0.1582
257.9691	0.1657
258.1836	0.1609
258.3981	0.1714
258.6127	0.1666
258.8272	0.1584
259.0417	0.1664
259.2561	0.1617
259.4706	0.1647
259.6851	0.1665
259.8995	0.1529
260.114	0.1627
260.3284	0.1596
260.5428	0.1553
260.7572	0.1651
260.9716	0.1694
261.186	0.1616
261.4003	0.1609
261.6147	0.1697
261.829	0.1711
262.0433	0.1553
262.2577	0.1571
262.472	0.1586
262.6863	0.1583
262.9005	0.169
263.1148	0.1585
263.3291	0.1381
263.5433	0.175
263.7576	0.1578
263.9718	0.1665
264.186	0.1617
264.4002	0.1534
264.6144	0.1603
264.8286	0.1795
265.0427	0.1544
265.2569	0.1553
265.471	0.1492
265.6851	0.1553
265.8993	0.1619
266.1134	0.1616
266.3275	0.1617
266.5415	0.1567
266.7556	0.1722
266.9697	0.1657
267.1837	0.1731
267.3978	0.1539
267.6118	0.1733
267.8258	0.1676
268.0398	0.1455
268.2538	0.1761
268.4677	0.1784
268.6817	0.173
268.8957	0.1551
269.1096	0.1583
269.3235	0.1815
269.5374	0.1506
269.7514	0.156
269.9652	0.1588
270.1791	0.1546
270.393	0.1466
270.6068	0.1549
270.8207	0.1514
271.0345	0.1361
271.2483	0.1573
271.4622	0.1438
271.676	0.1508
271.8897	0.1358
272.1035	0.15
272.3173	0.1479
272.531	0.1422
272.7448	0.1394
272.9585	0.1343
273.1722	0.1463
273.3859	0.1488
273.5996	0.1329
273.8133	0.1469
274.0269	0.1439
274.2406	0.1349
274.4542	0.1342
274.6679	0.1311
274.8815	0.1452
275.0951	0.1421
275.3087	0.1535
275.5223	0.1435
275.7358	0.1436
275.9494	0.1493
276.1629	0.1343
276.3765	0.1585
276.59	0.1545
276.8035	0.1463
277.017	0.139
277.2305	0.1425
277.444	0.1423
277.6574	0.1373
277.8709	0.1454
278.0843	0.1482
278.2978	0.1479
278.5112	0.1428
278.7246	0.1469
278.938	0.154
279.1513	0.1432
279.3647	0.1618
279.5781	0.1505
279.7914	0.1555
280.0047	0.1572
280.2181	0.1479
280.4314	0.1491
280.6447	0.1487
280.8579	0.1463
281.0712	0.1584
281.2845	0.1576
281.4977	0.1559
281.711	0.1412
281.9242	0.1467
282.1374	0.1578
282.3506	0.1474
282.5638	0.1544
282.7769	0.1508
282.9901	0.1538
283.2033	0.1651
283.4164	0.1574
283.6295	0.1632
283.8426	0.1538
284.0557	0.1508
284.2688	0.1648
284.4819	0.1463
284.695	0.154
284.908	0.165
285.1211	0.148
285.3341	0.1582
285.5471	0.1648
285.7601	0.159
285.9731	0.1503
286.1861	0.158
286.3991	0.1621
286.612	0.1533
286.825	0.1606
287.0379	0.1577
287.2508	0.163
287.4637	0.1593
287.6766	0.1589
287.8895	0.1609
288.1024	0.1798
288.3152	0.1593
288.5281	0.1522
288.7409	0.1603
288.9538	0.1578
289.1666	0.1557
289.3794	0.1699
289.5922	0.1528
289.8049	0.1589
290.0177	0.1548
290.2304	0.1614
290.4432	0.1539
290.6559	0.1653
290.8686	0.1669
291.0813	0.1642
291.294	0.1597
291.5067	0.1716
291.7194	0.1657
291.932	0.1749
292.1447	0.1619
292.3573	0.1532
292.5699	0.149
292.7825	0.1582
292.9951	0.1562
293.2077	0.1539
293.4203	0.1511
293.6328	0.1584
293.8454	0.1657
294.0579	0.1541
294.2704	0.165
294.4829	0.1433
294.6954	0.1733
294.9079	0.1581
295.1204	0.1649
295.3328	0.1633
295.5453	0.1537
295.7577	0.1615
295.9701	0.1519
296.1825	0.1588
296.3949	0.1518
296.6073	0.1582
296.8197	0.1499
297.0321	0.1756
297.2444	0.1468
297.4567	0.1668
297.6691	0.1717
297.8814	0.1557
298.0937	0.1631
298.306	0.154
298.5182	0.1557
298.7305	0.1664
298.9428	0.1516
299.155	0.1617
299.3672	0.1509
299.5794	0.1628
299.7916	0.1491
300.0038	0.1612
300.216	0.1549
300.4282	0.1636
300.6403	0.1548
300.8525	0.1649
301.0646	0.1729
301.2767	0.1611
301.4888	0.1594
301.7009	0.1572
301.913	0.1593
302.125	0.1621
302.3371	0.1601
302.5491	0.1546
302.7612	0.1631
302.9732	0.1646
303.1852	0.1554
303.3972	0.1514
303.6092	0.1537
303.8211	0.1572
304.0331	0.151
304.245	0.1433
304.457	0.1434
304.6689	0.1436
304.8808	0.1654
305.0927	0.1396
305.3046	0.1424
305.5164	0.1514
305.7283	0.1431
305.9401	0.1448
306.152	0.1454
306.3638	0.1529
306.5756	0.1506
306.7874	0.1462
306.9992	0.1476
307.2109	0.1501
307.4227	0.1263
307.6344	0.1355
307.8462	0.1287
308.0579	0.1306
308.2696	0.1352
308.4813	0.1373
308.693	0.1323
308.9046	0.1357
309.1163	0.1309
309.328	0.1279
309.5396	0.1221
309.7512	0.123
309.9628	0.1244
310.1744	0.1232
310.386	0.1261
310.5976	0.1177
310.8091	0.1303
311.0207	0.1157
311.2322	0.1137
311.4437	0.1113
311.6552	0.1088
311.8667	0.1174
312.0782	0.092
312.2897	0.0974
312.5012	0.11
312.7126	0.1092
312.924	0.0968
313.1355	0.1163
313.3469	0.1095
313.5583	0.1136
313.7696	0.1002
313.981	0.1066
314.1924	0.1068
314.4037	0.0969
314.6151	0.1131
314.8264	0.0964
315.0377	0.0961
315.249	0.1028
315.4603	0.1143
315.6716	0.1039
315.8828	0.083
316.0941	0.1
316.3053	0.0957
316.5165	0.091
316.7277	0.0868
316.9389	0.098
317.1501	0.0983
317.3613	0.0979
317.5724	0.0889
317.7836	0.0979
317.9947	0.0978
318.2058	0.0902
318.417	0.0914
318.6281	0.0851
318.8391	0.0951
319.0502	0.0857
319.2613	0.1023
319.4723	0.0952
319.6834	0.098
319.8944	0.0945
320.1054	0.1081
320.3164	0.1078
320.5274	0.0873
320.7383	0.0884
320.9493	0.104
321.1602	0.1089
321.3712	0.0898
321.5821	0.1024
321.793	0.1039
322.0039	0.0925
322.2148	0.1011
322.4257	0.096
322.6365	0.1114
322.8474	0.099
323.0582	0.0904
323.269	0.0999
323.4798	0.1095
323.6906	0.0965
323.9014	0.1016
324.1122	0.0999
324.3229	0.0983
324.5337	0.1035
324.7444	0.0931
324.9551	0.1125
325.1658	0.1031
325.3765	0.1077
325.5872	0.0956
325.7979	0.1003
326.0085	0.1082
326.2192	0.1082
326.4298	0.1029
326.6404	0.1
326.851	0.0956
327.0616	0.0939
327.2722	0.1106
327.4828	0.1034
327.6933	0.0973
327.9039	0.1111
328.1144	0.1131
328.3249	0.119
328.5354	0.1121
328.7459	0.1087
328.9564	0.1017
329.1669	0.0995
329.3773	0.1101
329.5878	0.0973
329.7982	0.1012
330.0086	0.1016
330.219	0.0996
330.4294	0.1044
330.6398	0.102
330.8502	0.1008
331.0605	0.0919
331.2708	0.1086
331.4812	0.1101
331.6915	0.1162
331.9018	0.1099
332.1121	0.0968
332.3224	0.1147
332.5326	0.1079
332.7429	0.1064
332.9531	0.1267
333.1633	0.1044
333.3735	0.0946
333.5837	0.0976
333.7939	0.0999
334.0041	0.1169
334.2143	0.1196
334.4244	0.112
334.6346	0.0998
334.8447	0.131
335.0548	0.0963
335.2649	0.1064
335.475	0.1151
335.685	0.1137
335.8951	0.1218
336.1051	0.1163
336.3152	0.1271
336.5252	0.11
336.7352	0.1222
336.9452	0.1132
337.1552	0.119
337.3652	0.1045
337.5751	0.108
337.7851	0.1149
337.995	0.095
338.2049	0.1111
338.4148	0.1136
338.6247	0.1115
338.8346	0.117
339.0445	0.1119
339.2543	0.1117
339.4642	0.0982
339.674	0.0999
339.8838	0.0998
340.0936	0.118
340.3034	0.1138
340.5132	0.1116
340.7229	0.1174
340.9327	0.1095
341.1424	0.1312
341.3522	0.1348
341.5619	0.1251
341.7716	0.1245
341.9813	0.1243
342.1909	0.1183
342.4006	0.1252
342.6102	0.1303
342.8199	0.1258
343.0295	0.1165
343.2391	0.1251
343.4487	0.1274
343.6583	0.1251
343.8679	0.1123
344.0774	0.1148
344.287	0.1381
344.4965	0.1348
344.706	0.1369
344.9155	0.1165
345.125	0.1212
345.3345	0.1176
345.544	0.1171
345.7534	0.1233
345.9629	0.1267
346.1723	0.1263
346.3817	0.1334
346.5911	0.1217
346.8005	0.138
347.0099	0.1274
347.2193	0.1412
347.4286	0.1296
347.638	0.1252
347.8473	0.1321
348.0566	0.1241
348.2659	0.1321
348.4752	0.1429
348.6845	0.1269
348.8937	0.1338
349.103	0.1344
349.3122	0.1312
349.5214	0.1331
349.7306	0.1491
349.9398	0.1288
350.149	0.1354
350.3582	0.1341
350.5674	0.1468
350.7765	0.1463
350.9856	0.1455
351.1948	0.142
351.4039	0.1217
351.613	0.1369
351.822	0.151
352.0311	0.1413
352.2402	0.1512
352.4492	0.1391
352.6582	0.1508
352.8672	0.1374
353.0762	0.1509
353.2852	0.1358
353.4942	0.1385
353.7032	0.1637
353.9121	0.1481
354.1211	0.139
354.33	0.1447
354.5389	0.1542
354.7478	0.1424
354.9567	0.1406
355.1655	0.132
355.3744	0.1484
355.5833	0.1555
355.7921	0.1585
356.0009	0.1547
356.2097	0.1756
356.4185	0.1735
356.6273	0.1635
356.8361	0.1715
357.0448	0.1442
357.2536	0.1412
357.4623	0.1513
357.671	0.1702
357.8797	0.1669
358.0884	0.1648
358.2971	0.1546
358.5057	0.168
358.7144	0.1579
358.923	0.1753
359.1316	0.1691
359.3402	0.1615
359.5488	0.1756
359.7574	0.1669
359.966	0.1828
360.1746	0.1585
360.3831	0.182
360.5916	0.1832
360.8002	0.1556
361.0087	0.1873
361.2172	0.1761
361.4256	0.1672
361.6341	0.1916
361.8426	0.1719
362.051	0.1785
362.2594	0.1829
362.4678	0.1799
362.6762	0.1995
362.8846	0.1756
363.093	0.1786
363.3014	0.1817
363.5097	0.1639
363.718	0.2022
363.9264	0.1821
364.1347	0.1857
364.343	0.1893
364.5513	0.1906
364.7595	0.2165
364.9678	0.1897
365.176	0.1936
365.3842	0.196
365.5925	0.2011
365.8007	0.1989
366.0089	0.1971
366.217	0.1776
366.4252	0.1986
366.6333	0.1958
366.8415	0.1942
367.0496	0.1862
367.2577	0.2062
367.4658	0.2111
367.6739	0.1905
367.882	0.2054
368.09	0.1991
368.2981	0.2133
368.5061	0.1787
368.7141	0.2129
368.9221	0.2102
369.1301	0.207
369.3381	0.1986
369.5461	0.2191
369.754	0.2151
369.962	0.1996
370.1699	0.2151
370.3778	0.2112
370.5857	0.2074
370.7936	0.2002
371.0015	0.2022
371.2093	0.2255
371.4172	0.2255
371.625	0.2048
371.8328	0.2086
372.0406	0.2009
372.2484	0.2051
372.4562	0.2212
372.664	0.2204
372.8717	0.2297
373.0795	0.202
373.2872	0.2215
373.4949	0.2088
373.7026	0.2276
373.9103	0.2402
374.118	0.2246
374.3256	0.2161
374.5333	0.2221
374.7409	0.2075
374.9485	0.2406
375.1561	0.2226
375.3637	0.2219
375.5713	0.2414
375.7789	0.2323
375.9864	0.2337
376.194	0.226
376.4015	0.2287
376.609	0.238
376.8165	0.2423
377.024	0.2154
377.2315	0.2154
377.4389	0.236
377.6464	0.2336
377.8538	0.2385
378.0612	0.222
378.2686	0.2471
378.476	0.2491
378.6834	0.2442
378.8908	0.2381
379.0981	0.2411
379.3055	0.2447
379.5128	0.2278
379.7201	0.2427
379.9274	0.2265
380.1347	0.2348
380.342	0.2545
380.5492	0.2424
380.7565	0.2402
380.9637	0.2446
381.1709	0.2333
381.3781	0.2415
381.5853	0.2448
381.7925	0.2548
381.9997	0.2472
382.2068	0.248
382.4139	0.2435
382.6211	0.2292
382.8282	0.236
383.0353	0.2319
383.2424	0.2449
383.4494	0.2565
383.6565	0.2554
383.8635	0.2501
384.0706	0.2557
384.2776	0.2628
384.4846	0.2182
384.6916	0.253
384.8986	0.2455
385.1055	0.2597
385.3125	0.2549
385.5194	0.2364
385.7263	0.2504
385.9333	0.2443
386.1402	0.2419
386.347	0.2453
386.5539	0.2373
386.7608	0.2546
386.9676	0.2361
387.1744	0.238
387.3813	0.2302
387.5881	0.2519
387.7948	0.2531
388.0016	0.2373
388.2084	0.251
388.4151	0.2346
388.6219	0.2355
388.8286	0.2275
389.0353	0.2537
389.242	0.2419
389.4487	0.247
389.6553	0.2297
389.862	0.2073
390.0686	0.2373
390.2753	0.2413
390.4819	0.2354
390.6885	0.222
390.8951	0.2285
391.1016	0.2148
391.3082	0.2238
391.5147	0.2217
391.7213	0.2297
391.9278	0.232
392.1343	0.2149
392.3408	0.2203
392.5473	0.2313
392.7537	0.2323
392.9602	0.2157
393.1666	0.23
393.373	0.2274
393.5794	0.2194
393.7858	0.2325
393.9922	0.2153
394.1986	0.2219
394.4049	0.2298
394.6113	0.2247
394.8176	0.2137
395.0239	0.2088
395.2302	0.2066
395.4365	0.219
395.6428	0.2134
395.8491	0.2171
396.0553	0.2061
396.2615	0.2116
396.4678	0.2074
396.674	0.1992
396.8802	0.2031
397.0863	0.2258
397.2925	0.2142
397.4987	0.1967
397.7048	0.2083
397.9109	0.2172
398.117	0.2018
398.3231	0.2095
398.5292	0.2033
398.7353	0.2203
398.9413	0.2119
399.1474	0.2037
399.3534	0.2102
399.5594	0.1934
399.7654	0.2119
399.9714	0.2036
400.1774	0.1996
400.3833	0.2083
400.5893	0.2174
400.7952	0.2156
401.0011	0.2014
401.207	0.2015
401.4129	0.2158
401.6188	0.2013
401.8247	0.1976
402.0305	0.1902
402.2364	0.1862
402.4422	0.2183
402.648	0.2084
402.8538	0.2242
403.0596	0.194
403.2654	0.2089
403.4711	0.2183
403.6768	0.2107
403.8826	0.2107
404.0883	0.2252
404.294	0.2081
404.4997	0.2009
404.7054	0.2009
404.911	0.1939
405.1167	0.1972
405.3223	0.2129
405.5279	0.1984
405.7335	0.2219
405.9391	0.2163
406.1447	0.1998
406.3502	0.2192
406.5558	0.2119
406.7613	0.2059
406.9668	0.2047
407.1724	0.2181
407.3778	0.1867
407.5833	0.1961
407.7888	0.1865
407.9942	0.2129
408.1997	0.1836
408.4051	0.1989
408.6105	0.2081
408.8159	0.1988
409.0213	0.1968
409.2267	0.2109
409.432	0.1859
409.6374	0.2126
409.8427	0.2106
410.048	0.2101
410.2533	0.199
410.4586	0.2021
410.6639	0.1815
410.8691	0.1878
411.0744	0.2014
411.2796	0.1827
411.4848	0.1844
411.69	0.1884
411.8952	0.2074
412.1004	0.1943
412.3056	0.2168
412.5107	0.1802
412.7158	0.2069
412.921	0.1882
413.1261	0.2082
413.3312	0.1768
413.5362	0.2127
413.7413	0.1867
413.9464	0.2011
414.1514	0.1853
414.3564	0.1909
414.5614	0.1947
414.7664	0.2037
414.9714	0.1977
415.1764	0.1984
415.3813	0.2032
415.5863	0.1942
415.7912	0.1956
415.9961	0.1977
416.201	0.1971
416.4059	0.2089
416.6108	0.1886
416.8156	0.1989
417.0205	0.1936
417.2253	0.2103
417.4301	0.2013
417.6349	0.189
417.8397	0.1914
418.0445	0.2019
418.2492	0.2156
418.454	0.1817
418.6587	0.1881
418.8634	0.1987
419.0681	0.1702
419.2728	0.1777
419.4775	0.1809
419.6822	0.1899
419.8868	0.1683
420.0915	0.193
420.2961	0.1643
420.5007	0.1688
420.7053	0.1949
420.9099	0.1894
421.1144	0.1977
421.319	0.1595
421.5235	0.2006
421.728	0.1855
421.9325	0.178
422.137	0.201
422.3415	0.166
422.546	0.1794
422.7504	0.1736
422.9549	0.1758
423.1593	0.1753
423.3637	0.2085
423.5681	0.1681
423.7725	0.1709
423.9769	0.1712
424.1812	0.1607
424.3856	0.1655
424.5899	0.1841
424.7942	0.1766
424.9985	0.166
425.2028	0.1794
425.4071	0.1674
425.6113	0.1444
425.8156	0.1659
426.0198	0.1703
426.224	0.1473
426.4282	0.1648
