Data from MonoPyChalIsomerACN10uM410nmA_Absorbance_14-53-31-573.txt Node
Date: Fri Jul 05 14:53:31 BST 2024
User: LASERRRRR
Spectrometer: FLMT03099
Trigger mode: 0
Integration Time (sec): 1.000000E-1
Scans to average: 1
Electric dark correction enabled: true
Nonlinearity correction enabled: false
Boxcar width: 0
XAxis mode: Wavelengths
Number of Pixels in Spectrum: 3648
>>>>>Begin Spectral Data<<<<<
179.3399	-0.3242
179.5586	-0.3242
179.7771	-0.3242
179.9957	0.4535
180.2143	-0
180.4329	0.1337
180.6514	-0
180.8699	0.3867
181.0885	0.1629
181.307	-0.0901
181.5255	-0
181.744	-0.6904
181.9625	-0
182.181	-0
182.3994	-0
182.6179	-0
182.8363	0.2393
183.0547	-0.2948
183.2732	0.0192
183.4916	0.2323
183.71	0.1738
183.9284	0.0073
184.1467	-0.038
184.3651	0.0032
184.5835	-0.1974
184.8018	0.1375
185.0201	-0.0064
185.2385	-0.1131
185.4568	-0.0332
185.6751	0.1089
185.8934	0.3168
186.1117	0.1084
186.3299	0.1341
186.5482	-0.0479
186.7664	-0.0063
186.9847	-0.0727
187.2029	-0.0645
187.4211	0.1265
187.6393	0.1119
187.8575	-0.1751
188.0757	0.0884
188.2939	0.0501
188.512	-0.0891
188.7302	0.022
188.9483	0.0043
189.1665	0.0405
189.3846	-0.2028
189.6027	-0.0113
189.8208	0.0825
190.0389	0.1303
190.257	0.1584
190.475	0.2318
190.6931	0.3531
190.9111	0.3284
191.1292	0.1637
191.3472	0.5134
191.5652	0.2108
191.7832	0.3925
192.0012	0.4764
192.2192	0.2329
192.4371	0.4914
192.6551	0.2952
192.873	0.2897
193.091	0.3031
193.3089	0.8846
193.5268	0.4296
193.7447	0.4755
193.9626	0.4419
194.1805	0.5483
194.3984	0.6921
194.6162	0.4466
194.8341	0.4234
195.0519	0.5212
195.2697	1.0924
195.4875	0.4536
195.7054	0.4715
195.9231	0.4799
196.1409	0.5278
196.3587	0.6604
196.5765	0.6114
196.7942	0.6292
197.012	0.4276
197.2297	0.7126
197.4474	0.6593
197.6651	0.6086
197.8828	0.5471
198.1005	0.6031
198.3182	0.5674
198.5358	0.7775
198.7535	0.5952
198.9711	0.5461
199.1888	0.5402
199.4064	0.6887
199.624	0.4842
199.8416	0.4841
200.0592	0.474
200.2767	0.6698
200.4943	0.6629
200.7119	0.6368
200.9294	0.6623
201.1469	0.5373
201.3645	0.6434
201.582	0.5523
201.7995	0.5729
202.017	0.5675
202.2344	0.5722
202.4519	0.5888
202.6694	0.6277
202.8868	0.6505
203.1042	0.91
203.3217	0.6876
203.5391	0.7038
203.7565	0.5568
203.9739	0.6274
204.1913	0.5201
204.4086	0.5536
204.626	0.5957
204.8433	0.6686
205.0607	0.5886
205.278	0.5915
205.4953	0.5102
205.7126	0.6008
205.9299	0.6472
206.1472	0.7416
206.3644	0.607
206.5817	0.5983
206.7989	0.6532
207.0162	0.6092
207.2334	0.5822
207.4506	0.6333
207.6678	0.6332
207.885	0.6046
208.1022	0.7158
208.3194	0.6355
208.5365	0.734
208.7537	0.6081
208.9708	0.6094
209.1879	0.6843
209.405	0.6466
209.6222	0.6646
209.8392	0.5993
210.0563	0.6107
210.2734	0.6376
210.4905	0.5661
210.7075	0.6624
210.9245	0.5943
211.1416	0.6453
211.3586	0.6597
211.5756	0.5602
211.7926	0.5842
212.0096	0.6208
212.2265	0.5088
212.4435	0.5662
212.6604	0.587
212.8774	0.5705
213.0943	0.5939
213.3112	0.5438
213.5281	0.5042
213.745	0.5101
213.9619	0.5317
214.1788	0.4417
214.3956	0.4429
214.6125	0.4229
214.8293	0.4172
215.0461	0.47
215.2629	0.443
215.4798	0.4298
215.6965	0.4059
215.9133	0.4501
216.1301	0.4044
216.3469	0.4204
216.5636	0.4093
216.7803	0.3843
216.9971	0.3666
217.2138	0.3763
217.4305	0.3832
217.6472	0.3383
217.8639	0.3601
218.0805	0.3363
218.2972	0.3105
218.5138	0.3026
218.7305	0.3082
218.9471	0.2805
219.1637	0.2737
219.3803	0.2816
219.5969	0.2726
219.8135	0.2623
220.0301	0.2656
220.2466	0.2471
220.4632	0.2662
220.6797	0.2087
220.8962	0.2227
221.1127	0.2384
221.3292	0.2271
221.5457	0.2132
221.7622	0.2195
221.9787	0.2433
222.1951	0.2275
222.4116	0.2542
222.628	0.2263
222.8444	0.2381
223.0608	0.2391
223.2772	0.2573
223.4936	0.2424
223.71	0.2243
223.9264	0.2598
224.1427	0.2345
224.3591	0.2462
224.5754	0.2581
224.7917	0.2296
225.008	0.2442
225.2243	0.2552
225.4406	0.27
225.6569	0.2514
225.8732	0.2508
226.0894	0.2433
226.3057	0.2287
226.5219	0.2676
226.7381	0.2485
226.9543	0.2756
227.1705	0.2701
227.3867	0.2697
227.6029	0.2795
227.8191	0.2903
228.0352	0.2734
228.2513	0.2984
228.4675	0.2978
228.6836	0.2948
228.8997	0.2847
229.1158	0.3069
229.3319	0.3227
229.548	0.3087
229.764	0.2932
229.9801	0.3289
230.1961	0.3019
230.4121	0.3141
230.6282	0.3094
230.8442	0.3076
231.0602	0.3357
231.2761	0.3133
231.4921	0.3487
231.7081	0.3358
231.924	0.329
232.14	0.3585
232.3559	0.314
232.5718	0.3449
232.7877	0.3372
233.0036	0.3122
233.2195	0.3729
233.4353	0.3543
233.6512	0.3426
233.867	0.3474
234.0829	0.3379
234.2987	0.3545
234.5145	0.3575
234.7303	0.347
234.9461	0.375
235.1619	0.3544
235.3776	0.3688
235.5934	0.3832
235.8091	0.3552
236.0249	0.3407
236.2406	0.3878
236.4563	0.3593
236.672	0.387
236.8877	0.3824
237.1034	0.3842
237.319	0.3632
237.5347	0.3869
237.7503	0.3722
237.966	0.3861
238.1816	0.4078
238.3972	0.3753
238.6128	0.3934
238.8284	0.3959
239.0439	0.3924
239.2595	0.3962
239.475	0.391
239.6906	0.4013
239.9061	0.4023
240.1216	0.409
240.3371	0.3919
240.5526	0.3931
240.7681	0.4024
240.9836	0.3826
241.199	0.4025
241.4145	0.3821
241.6299	0.3712
241.8453	0.3837
242.0607	0.3717
242.2761	0.37
242.4915	0.3714
242.7069	0.3774
242.9223	0.3699
243.1376	0.3564
243.353	0.3597
243.5683	0.363
243.7836	0.3295
243.9989	0.3372
244.2142	0.3294
244.4295	0.3302
244.6448	0.3214
244.86	0.3077
245.0753	0.3085
245.2905	0.3112
245.5057	0.2894
245.721	0.2893
245.9362	0.2852
246.1514	0.3041
246.3665	0.2743
246.5817	0.2643
246.7969	0.2727
247.012	0.2538
247.2271	0.2582
247.4423	0.2499
247.6574	0.2526
247.8725	0.2498
248.0876	0.2332
248.3026	0.2458
248.5177	0.2241
248.7328	0.226
248.9478	0.2207
249.1628	0.2242
249.3779	0.2347
249.5929	0.2121
249.8079	0.2187
250.0228	0.2099
250.2378	0.2062
250.4528	0.2132
250.6677	0.1934
250.8827	0.1935
251.0976	0.1935
251.3125	0.1891
251.5274	0.1733
251.7423	0.1901
251.9572	0.2007
252.172	0.1797
252.3869	0.1906
252.6017	0.1648
252.8166	0.1572
253.0314	0.1634
253.2462	0.1668
253.461	0.1836
253.6758	0.1764
253.8906	0.1852
254.1053	0.1826
254.3201	0.1701
254.5348	0.1887
254.7496	0.1713
254.9643	0.1674
255.179	0.1712
255.3937	0.1586
255.6083	0.1785
255.823	0.1671
256.0377	0.1554
256.2523	0.1602
256.467	0.1457
256.6816	0.1781
256.8962	0.1648
257.1108	0.1657
257.3254	0.1758
257.54	0.1604
257.7545	0.1607
257.9691	0.1734
258.1836	0.1565
258.3981	0.1616
258.6127	0.1705
258.8272	0.1612
259.0417	0.1518
259.2561	0.1535
259.4706	0.1634
259.6851	0.1748
259.8995	0.1542
260.114	0.158
260.3284	0.1586
260.5428	0.1559
260.7572	0.1741
260.9716	0.171
261.186	0.1628
261.4003	0.163
261.6147	0.1716
261.829	0.1574
262.0433	0.164
262.2577	0.1518
262.472	0.1633
262.6863	0.1562
262.9005	0.1614
263.1148	0.1616
263.3291	0.1619
263.5433	0.1768
263.7576	0.1647
263.9718	0.1661
264.186	0.1429
264.4002	0.1635
264.6144	0.16
264.8286	0.1722
265.0427	0.1662
265.2569	0.1595
265.471	0.1593
265.6851	0.1658
265.8993	0.1692
266.1134	0.1598
266.3275	0.1613
266.5415	0.1572
266.7556	0.1648
266.9697	0.1716
267.1837	0.1639
267.3978	0.1622
267.6118	0.1769
267.8258	0.1753
268.0398	0.1499
268.2538	0.1736
268.4677	0.1751
268.6817	0.1647
268.8957	0.1733
269.1096	0.1569
269.3235	0.1812
269.5374	0.1644
269.7514	0.1653
269.9652	0.1567
270.1791	0.1558
270.393	0.1603
270.6068	0.1689
270.8207	0.1541
271.0345	0.1574
271.2483	0.155
271.4622	0.1505
271.676	0.1676
271.8897	0.1568
272.1035	0.1509
272.3173	0.1506
272.531	0.149
272.7448	0.1544
272.9585	0.1566
273.1722	0.1644
273.3859	0.1584
273.5996	0.161
273.8133	0.1648
274.0269	0.1583
274.2406	0.1538
274.4542	0.1624
274.6679	0.1566
274.8815	0.1574
275.0951	0.1763
275.3087	0.167
275.5223	0.177
275.7358	0.1605
275.9494	0.1681
276.1629	0.1601
276.3765	0.1539
276.59	0.1727
276.8035	0.166
277.017	0.1739
277.2305	0.1581
277.444	0.1647
277.6574	0.1672
277.8709	0.1629
278.0843	0.1586
278.2978	0.1639
278.5112	0.1607
278.7246	0.1624
278.938	0.1673
279.1513	0.1696
279.3647	0.1811
279.5781	0.17
279.7914	0.1694
280.0047	0.1783
280.2181	0.1597
280.4314	0.175
280.6447	0.1607
280.8579	0.1634
281.0712	0.1728
281.2845	0.1659
281.4977	0.1668
281.711	0.167
281.9242	0.1668
282.1374	0.1741
282.3506	0.1589
282.5638	0.1726
282.7769	0.1624
282.9901	0.1596
283.2033	0.1768
283.4164	0.1722
283.6295	0.1554
283.8426	0.1615
284.0557	0.1705
284.2688	0.1628
284.4819	0.1684
284.695	0.1646
284.908	0.1656
285.1211	0.1515
285.3341	0.1718
285.5471	0.184
285.7601	0.1544
285.9731	0.1599
286.1861	0.1487
286.3991	0.1579
286.612	0.1621
286.825	0.1612
287.0379	0.1631
287.2508	0.1646
287.4637	0.1641
287.6766	0.1511
287.8895	0.1659
288.1024	0.174
288.3152	0.1641
288.5281	0.1566
288.7409	0.1546
288.9538	0.1537
289.1666	0.1442
289.3794	0.1471
289.5922	0.1391
289.8049	0.1584
290.0177	0.1487
290.2304	0.1508
290.4432	0.1514
290.6559	0.1466
290.8686	0.1628
291.0813	0.1468
291.294	0.1545
291.5067	0.1571
291.7194	0.149
291.932	0.158
292.1447	0.1466
292.3573	0.1425
292.5699	0.1508
292.7825	0.1504
292.9951	0.1354
293.2077	0.1316
293.4203	0.1466
293.6328	0.1392
293.8454	0.1471
294.0579	0.1432
294.2704	0.1457
294.4829	0.1431
294.6954	0.1458
294.9079	0.1496
295.1204	0.1385
295.3328	0.1306
295.5453	0.1371
295.7577	0.1468
295.9701	0.1352
296.1825	0.1445
296.3949	0.1412
296.6073	0.1412
296.8197	0.1298
297.0321	0.1477
297.2444	0.1306
297.4567	0.1379
297.6691	0.1329
297.8814	0.1304
298.0937	0.131
298.306	0.1444
298.5182	0.1454
298.7305	0.1463
298.9428	0.1411
299.155	0.1503
299.3672	0.1448
299.5794	0.1309
299.7916	0.1367
300.0038	0.1517
300.216	0.1361
300.4282	0.1476
300.6403	0.1327
300.8525	0.1472
301.0646	0.1344
301.2767	0.138
301.4888	0.1334
301.7009	0.1439
301.913	0.1324
302.125	0.1485
302.3371	0.1365
302.5491	0.1413
302.7612	0.1534
302.9732	0.1459
303.1852	0.1536
303.3972	0.1412
303.6092	0.1313
303.8211	0.1381
304.0331	0.1305
304.245	0.1367
304.457	0.128
304.6689	0.1308
304.8808	0.1387
305.0927	0.1266
305.3046	0.1325
305.5164	0.1413
305.7283	0.1197
305.9401	0.1255
306.152	0.1287
306.3638	0.1485
306.5756	0.1279
306.7874	0.132
306.9992	0.1298
307.2109	0.1299
307.4227	0.1131
307.6344	0.1303
307.8462	0.1125
308.0579	0.1235
308.2696	0.1275
308.4813	0.1138
308.693	0.1227
308.9046	0.1356
309.1163	0.1138
309.328	0.1126
309.5396	0.1271
309.7512	0.1164
309.9628	0.1233
310.1744	0.1156
310.386	0.1214
310.5976	0.1235
310.8091	0.115
311.0207	0.1127
311.2322	0.1116
311.4437	0.1217
311.6552	0.107
311.8667	0.112
312.0782	0.0979
312.2897	0.1005
312.5012	0.1036
312.7126	0.1098
312.924	0.1035
313.1355	0.1172
313.3469	0.112
313.5583	0.1166
313.7696	0.1178
313.981	0.109
314.1924	0.1098
314.4037	0.1046
314.6151	0.1198
314.8264	0.1023
315.0377	0.1106
315.249	0.107
315.4603	0.1192
315.6716	0.0993
315.8828	0.1003
316.0941	0.1142
316.3053	0.1006
316.5165	0.0905
316.7277	0.0947
316.9389	0.1184
317.1501	0.1006
317.3613	0.1089
317.5724	0.0986
317.7836	0.0968
317.9947	0.1157
318.2058	0.0995
318.417	0.091
318.6281	0.1052
318.8391	0.1102
319.0502	0.1091
319.2613	0.1201
319.4723	0.1126
319.6834	0.1155
319.8944	0.1017
320.1054	0.111
320.3164	0.1129
320.5274	0.0972
320.7383	0.0998
320.9493	0.1112
321.1602	0.123
321.3712	0.0996
321.5821	0.1122
321.793	0.1047
322.0039	0.1015
322.2148	0.1097
322.4257	0.1105
322.6365	0.1195
322.8474	0.1146
323.0582	0.1141
323.269	0.1219
323.4798	0.1307
323.6906	0.117
323.9014	0.125
324.1122	0.1195
324.3229	0.1042
324.5337	0.102
324.7444	0.1086
324.9551	0.1232
325.1658	0.1139
325.3765	0.1143
325.5872	0.1073
325.7979	0.1032
326.0085	0.1162
326.2192	0.1249
326.4298	0.1141
326.6404	0.1131
326.851	0.1068
327.0616	0.111
327.2722	0.1187
327.4828	0.1165
327.6933	0.1099
327.9039	0.1218
328.1144	0.1212
328.3249	0.1266
328.5354	0.1058
328.7459	0.1179
328.9564	0.1085
329.1669	0.1313
329.3773	0.1167
329.5878	0.1236
329.7982	0.1173
330.0086	0.121
330.219	0.1255
330.4294	0.1081
330.6398	0.1208
330.8502	0.1235
331.0605	0.1206
331.2708	0.1246
331.4812	0.1202
331.6915	0.1265
331.9018	0.1093
332.1121	0.1154
332.3224	0.1299
332.5326	0.1177
332.7429	0.119
332.9531	0.1364
333.1633	0.1274
333.3735	0.1345
333.5837	0.1245
333.7939	0.113
334.0041	0.1253
334.2143	0.1235
334.4244	0.1163
334.6346	0.0958
334.8447	0.1323
335.0548	0.1115
335.2649	0.1162
335.475	0.1247
335.685	0.1192
335.8951	0.1153
336.1051	0.1348
336.3152	0.1289
336.5252	0.1248
336.7352	0.1287
336.9452	0.125
337.1552	0.1303
337.3652	0.1233
337.5751	0.1249
337.7851	0.1261
337.995	0.117
338.2049	0.1226
338.4148	0.1289
338.6247	0.1232
338.8346	0.1209
339.0445	0.1171
339.2543	0.1276
339.4642	0.1316
339.674	0.1107
339.8838	0.131
340.0936	0.1215
340.3034	0.1343
340.5132	0.135
340.7229	0.1328
340.9327	0.123
341.1424	0.1252
341.3522	0.1398
341.5619	0.1441
341.7716	0.1177
341.9813	0.1355
342.1909	0.1284
342.4006	0.1406
342.6102	0.1437
342.8199	0.1411
343.0295	0.1421
343.2391	0.1427
343.4487	0.1412
343.6583	0.1292
343.8679	0.1347
344.0774	0.1466
344.287	0.1346
344.4965	0.1479
344.706	0.1424
344.9155	0.1384
345.125	0.1419
345.3345	0.1451
345.544	0.1418
345.7534	0.1421
345.9629	0.1401
346.1723	0.1427
346.3817	0.1309
346.5911	0.1301
346.8005	0.132
347.0099	0.137
347.2193	0.1355
347.4286	0.1363
347.638	0.1474
347.8473	0.135
348.0566	0.1579
348.2659	0.1615
348.4752	0.1396
348.6845	0.1378
348.8937	0.1398
349.103	0.1567
349.3122	0.1509
349.5214	0.1351
349.7306	0.1439
349.9398	0.1466
350.149	0.1403
350.3582	0.1412
350.5674	0.1717
350.7765	0.1548
350.9856	0.1429
351.1948	0.1412
351.4039	0.1265
351.613	0.1378
351.822	0.1495
352.0311	0.1471
352.2402	0.1618
352.4492	0.1553
352.6582	0.1722
352.8672	0.1518
353.0762	0.1537
353.2852	0.1408
353.4942	0.1405
353.7032	0.1524
353.9121	0.1421
354.1211	0.1473
354.33	0.1481
354.5389	0.1514
354.7478	0.1585
354.9567	0.1537
355.1655	0.146
355.3744	0.1463
355.5833	0.1484
355.7921	0.1698
356.0009	0.1548
356.2097	0.1766
356.4185	0.1733
356.6273	0.1545
356.8361	0.1524
357.0448	0.1582
357.2536	0.1381
357.4623	0.1616
357.671	0.1695
357.8797	0.1627
358.0884	0.1571
358.2971	0.1589
358.5057	0.152
358.7144	0.1711
358.923	0.1666
359.1316	0.1633
359.3402	0.1509
359.5488	0.1608
359.7574	0.1501
359.966	0.1836
360.1746	0.1706
360.3831	0.1729
360.5916	0.1581
360.8002	0.1633
361.0087	0.1894
361.2172	0.1701
361.4256	0.165
361.6341	0.1819
361.8426	0.1701
362.051	0.1658
362.2594	0.1565
362.4678	0.1689
362.6762	0.1849
362.8846	0.1671
363.093	0.1633
363.3014	0.1642
363.5097	0.1507
363.718	0.1686
363.9264	0.1732
364.1347	0.1642
364.343	0.1919
364.5513	0.1861
364.7595	0.1712
364.9678	0.1748
365.176	0.1811
365.3842	0.1735
365.5925	0.1893
365.8007	0.1774
366.0089	0.1656
366.217	0.1687
366.4252	0.1851
366.6333	0.1895
366.8415	0.1781
367.0496	0.1691
367.2577	0.1852
367.4658	0.1971
367.6739	0.1885
367.882	0.1872
368.09	0.1721
368.2981	0.1801
368.5061	0.193
368.7141	0.1909
368.9221	0.1898
369.1301	0.1937
369.3381	0.1896
369.5461	0.1761
369.754	0.1788
369.962	0.2052
370.1699	0.1745
370.3778	0.1829
370.5857	0.1717
370.7936	0.1841
371.0015	0.1951
371.2093	0.199
371.4172	0.1977
371.625	0.1805
371.8328	0.1858
372.0406	0.2032
372.2484	0.1849
372.4562	0.187
372.664	0.1952
372.8717	0.1992
373.0795	0.1673
373.2872	0.194
373.4949	0.1961
373.7026	0.1795
373.9103	0.2073
374.118	0.2081
374.3256	0.1902
374.5333	0.1931
374.7409	0.1853
374.9485	0.202
375.1561	0.1867
375.3637	0.2096
375.5713	0.1929
375.7789	0.2021
375.9864	0.177
376.194	0.1873
376.4015	0.1905
376.609	0.2149
376.8165	0.1983
377.024	0.204
377.2315	0.1842
377.4389	0.2142
377.6464	0.2017
377.8538	0.2034
378.0612	0.187
378.2686	0.2082
378.476	0.2037
378.6834	0.2027
378.8908	0.215
379.0981	0.1918
379.3055	0.2049
379.5128	0.1805
379.7201	0.1925
379.9274	0.1922
380.1347	0.2043
380.342	0.214
380.5492	0.1902
380.7565	0.2037
380.9637	0.2089
381.1709	0.2074
381.3781	0.2074
381.5853	0.225
381.7925	0.1969
381.9997	0.2023
382.2068	0.2222
382.4139	0.1953
382.6211	0.1896
382.8282	0.1969
383.0353	0.2056
383.2424	0.1912
383.4494	0.2024
383.6565	0.2042
383.8635	0.2024
384.0706	0.2006
384.2776	0.2104
384.4846	0.1917
384.6916	0.2006
384.8986	0.1878
385.1055	0.2013
385.3125	0.2129
385.5194	0.1875
385.7263	0.2049
385.9333	0.1915
386.1402	0.1857
386.347	0.1981
386.5539	0.191
386.7608	0.2022
386.9676	0.1833
387.1744	0.1888
387.3813	0.181
387.5881	0.2053
387.7948	0.1888
388.0016	0.1916
388.2084	0.1918
388.4151	0.1916
388.6219	0.186
388.8286	0.2119
389.0353	0.1988
389.242	0.1979
389.4487	0.1759
389.6553	0.1761
389.862	0.1644
390.0686	0.1776
390.2753	0.1894
390.4819	0.1887
390.6885	0.1766
390.8951	0.1883
391.1016	0.1932
391.3082	0.1877
391.5147	0.1671
391.7213	0.1732
391.9278	0.1724
392.1343	0.1592
392.3408	0.1958
392.5473	0.1851
392.7537	0.174
392.9602	0.1807
393.1666	0.1822
393.373	0.1758
393.5794	0.1746
393.7858	0.1808
393.9922	0.1541
394.1986	0.1801
394.4049	0.1785
394.6113	0.1631
394.8176	0.1648
395.0239	0.1575
395.2302	0.156
395.4365	0.1595
395.6428	0.1586
395.8491	0.1641
396.0553	0.1653
396.2615	0.1641
396.4678	0.1501
396.674	0.1591
396.8802	0.1605
397.0863	0.1706
397.2925	0.1582
397.4987	0.1644
397.7048	0.1646
397.9109	0.1667
398.117	0.1496
398.3231	0.1488
398.5292	0.1645
398.7353	0.1649
398.9413	0.1648
399.1474	0.1523
399.3534	0.1521
399.5594	0.1314
399.7654	0.1645
399.9714	0.1643
400.1774	0.1652
400.3833	0.1595
400.5893	0.1665
400.7952	0.1592
401.0011	0.1548
401.207	0.1651
401.4129	0.1625
401.6188	0.1678
401.8247	0.1589
402.0305	0.1583
402.2364	0.1398
402.4422	0.1652
402.648	0.1447
402.8538	0.1727
403.0596	0.1576
403.2654	0.163
403.4711	0.1557
403.6768	0.1593
403.8826	0.1585
404.0883	0.1595
404.294	0.1697
404.4997	0.1552
404.7054	0.1618
404.911	0.13
405.1167	0.1518
405.3223	0.1603
405.5279	0.1611
405.7335	0.1644
405.9391	0.1663
406.1447	0.1536
406.3502	0.1663
406.5558	0.1442
406.7613	0.1668
406.9668	0.1628
407.1724	0.1472
407.3778	0.1466
407.5833	0.1533
407.7888	0.1546
407.9942	0.1643
408.1997	0.1354
408.4051	0.1303
408.6105	0.1623
408.8159	0.1367
409.0213	0.1468
409.2267	0.1655
409.432	0.15
409.6374	0.1512
409.8427	0.1556
410.048	0.1446
410.2533	0.1522
410.4586	0.1546
410.6639	0.1356
410.8691	0.1413
411.0744	0.1383
411.2796	0.1366
411.4848	0.1597
411.69	0.1512
411.8952	0.1604
412.1004	0.133
412.3056	0.162
412.5107	0.1481
412.7158	0.1577
412.921	0.1442
413.1261	0.1449
413.3312	0.1397
413.5362	0.1477
413.7413	0.1307
413.9464	0.1414
414.1514	0.1424
414.3564	0.1395
414.5614	0.1244
414.7664	0.1381
414.9714	0.1588
415.1764	0.1623
415.3813	0.159
415.5863	0.1462
415.7912	0.1567
415.9961	0.1403
416.201	0.1515
416.4059	0.1693
416.6108	0.1389
416.8156	0.1345
417.0205	0.1483
417.2253	0.1282
417.4301	0.1644
417.6349	0.1309
417.8397	0.1335
418.0445	0.144
418.2492	0.1484
418.454	0.1468
418.6587	0.121
418.8634	0.1508
419.0681	0.1313
419.2728	0.1426
419.4775	0.1413
419.6822	0.1441
419.8868	0.1078
420.0915	0.1372
420.2961	0.1322
420.5007	0.1174
420.7053	0.1337
420.9099	0.1493
421.1144	0.134
421.319	0.1252
421.5235	0.1409
421.728	0.1363
421.9325	0.1354
422.137	0.1193
422.3415	0.1263
422.546	0.1163
422.7504	0.1427
422.9549	0.1321
423.1593	0.1221
423.3637	0.1316
423.5681	0.1259
423.7725	0.1153
423.9769	0.1239
424.1812	0.114
424.3856	0.1305
424.5899	0.1357
424.7942	0.1105
424.9985	0.1374
425.2028	0.1115
425.4071	0.1262
425.6113	0.1156
425.8156	0.1292
426.0198	0.1384
426.224	0.0966
