Data from MonoPyChalIsomerACN10uM410nmA_Absorbance_14-53-25-273.txt Node
Date: Fri Jul 05 14:53:25 BST 2024
User: LASERRRRR
Spectrometer: FLMT03099
Trigger mode: 0
Integration Time (sec): 1.000000E-1
Scans to average: 1
Electric dark correction enabled: true
Nonlinearity correction enabled: false
Boxcar width: 0
XAxis mode: Wavelengths
Number of Pixels in Spectrum: 3648
>>>>>Begin Spectral Data<<<<<
179.3399	0.026
179.5586	0.026
179.7771	0.026
179.9957	0.4605
180.2143	0.7404
180.4329	-0.0714
180.6514	-0
180.8699	-0
181.0885	-0.152
181.307	0.1951
181.5255	-0
181.744	-0
181.9625	0.0314
182.181	-0.0902
182.3994	0.5636
182.6179	0.1085
182.8363	0.1088
183.0547	-0
183.2732	-0.0754
183.4916	0.209
183.71	0.0652
183.9284	0.1577
184.1467	-0.1592
184.3651	0.0586
184.5835	0.1277
184.8018	-0.0356
185.0201	-0.0072
185.2385	0.0345
185.4568	0.2956
185.6751	0.1888
185.8934	0.1621
186.1117	-0.0642
186.3299	0.0401
186.5482	0.266
186.7664	-0.0024
186.9847	0.0069
187.2029	0.0726
187.4211	0.1944
187.6393	0.2551
187.8575	-0.0979
188.0757	0.2753
188.2939	0.132
188.512	0.1139
188.7302	0.0802
188.9483	-0.0992
189.1665	0.1414
189.3846	-0
189.6027	0.0158
189.8208	0.11
190.0389	0.103
190.257	0.2691
190.475	0.1013
190.6931	0.317
190.9111	0.4389
191.1292	0.2229
191.3472	0.3486
191.5652	0.2616
191.7832	0.5021
192.0012	0.601
192.2192	0.5059
192.4371	0.3809
192.6551	0.4553
192.873	0.3219
193.091	0.3953
193.3089	0.5108
193.5268	0.5572
193.7447	0.7588
193.9626	0.4091
194.1805	0.767
194.3984	1.2995
194.6162	0.4317
194.8341	0.463
195.0519	0.7739
195.2697	0.7416
195.4875	0.6836
195.7054	0.7637
195.9231	0.5318
196.1409	0.6702
196.3587	0.5864
196.5765	0.524
196.7942	0.5762
197.012	0.5318
197.2297	0.4995
197.4474	0.5699
197.6651	0.4727
197.8828	0.5949
198.1005	0.6648
198.3182	0.6232
198.5358	0.9173
198.7535	0.6009
198.9711	0.5857
199.1888	0.535
199.4064	0.757
199.624	0.5335
199.8416	0.6328
200.0592	0.5945
200.2767	0.6446
200.4943	0.5941
200.7119	0.7534
200.9294	0.6956
201.1469	0.5202
201.3645	0.562
201.582	0.5821
201.7995	0.6777
202.017	0.6695
202.2344	0.6146
202.4519	0.6496
202.6694	0.7541
202.8868	0.7065
203.1042	0.7062
203.3217	0.679
203.5391	0.6386
203.7565	0.5284
203.9739	0.6229
204.1913	0.654
204.4086	0.7105
204.626	0.6521
204.8433	0.7328
205.0607	0.6822
205.278	0.6355
205.4953	0.6535
205.7126	0.6463
205.9299	0.758
206.1472	0.6869
206.3644	0.669
206.5817	0.7149
206.7989	0.6405
207.0162	0.6791
207.2334	0.6735
207.4506	0.633
207.6678	0.6641
207.885	0.6345
208.1022	0.7194
208.3194	0.6115
208.5365	0.6456
208.7537	0.7032
208.9708	0.5781
209.1879	0.6332
209.405	0.6848
209.6222	0.7075
209.8392	0.6033
210.0563	0.5962
210.2734	0.6555
210.4905	0.6557
210.7075	0.58
210.9245	0.5883
211.1416	0.6364
211.3586	0.6128
211.5756	0.6395
211.7926	0.6016
212.0096	0.5951
212.2265	0.5638
212.4435	0.6022
212.6604	0.6097
212.8774	0.6411
213.0943	0.5717
213.3112	0.5045
213.5281	0.5286
213.745	0.5296
213.9619	0.5035
214.1788	0.5412
214.3956	0.4854
214.6125	0.4759
214.8293	0.4402
215.0461	0.4436
215.2629	0.4422
215.4798	0.4767
215.6965	0.4285
215.9133	0.4417
216.1301	0.4193
216.3469	0.4185
216.5636	0.4326
216.7803	0.3987
216.9971	0.4302
217.2138	0.3762
217.4305	0.3529
217.6472	0.364
217.8639	0.3757
218.0805	0.3382
218.2972	0.3348
218.5138	0.3348
218.7305	0.3064
218.9471	0.3053
219.1637	0.2977
219.3803	0.298
219.5969	0.2759
219.8135	0.2438
220.0301	0.2631
220.2466	0.2859
220.4632	0.2676
220.6797	0.247
220.8962	0.2449
221.1127	0.2444
221.3292	0.2623
221.5457	0.2467
221.7622	0.2303
221.9787	0.2461
222.1951	0.2431
222.4116	0.2589
222.628	0.251
222.8444	0.2557
223.0608	0.27
223.2772	0.252
223.4936	0.2596
223.71	0.2445
223.9264	0.2597
224.1427	0.2483
224.3591	0.2574
224.5754	0.2707
224.7917	0.259
225.008	0.2764
225.2243	0.2583
225.4406	0.2845
225.6569	0.2614
225.8732	0.2682
226.0894	0.2378
226.3057	0.265
226.5219	0.2827
226.7381	0.2685
226.9543	0.2719
227.1705	0.292
227.3867	0.2778
227.6029	0.3153
227.8191	0.3058
228.0352	0.2752
228.2513	0.3232
228.4675	0.3154
228.6836	0.3029
228.8997	0.2947
229.1158	0.3066
229.3319	0.3099
229.548	0.331
229.764	0.3226
229.9801	0.33
230.1961	0.3279
230.4121	0.3429
230.6282	0.3357
230.8442	0.311
231.0602	0.3325
231.2761	0.3544
231.4921	0.3308
231.7081	0.3474
231.924	0.3492
232.14	0.3571
232.3559	0.3592
232.5718	0.3589
232.7877	0.35
233.0036	0.3527
233.2195	0.3426
233.4353	0.3592
233.6512	0.3666
233.867	0.3616
234.0829	0.3601
234.2987	0.3737
234.5145	0.3654
234.7303	0.3578
234.9461	0.3996
235.1619	0.3858
235.3776	0.3784
235.5934	0.3845
235.8091	0.3662
236.0249	0.3679
236.2406	0.382
236.4563	0.3633
236.672	0.3989
236.8877	0.407
237.1034	0.3801
237.319	0.3793
237.5347	0.3996
237.7503	0.3801
237.966	0.4039
238.1816	0.4306
238.3972	0.4121
238.6128	0.3938
238.8284	0.4202
239.0439	0.4099
239.2595	0.4005
239.475	0.4075
239.6906	0.4187
239.9061	0.4046
240.1216	0.4097
240.3371	0.4206
240.5526	0.3898
240.7681	0.4267
240.9836	0.3879
241.199	0.4141
241.4145	0.3955
241.6299	0.3723
241.8453	0.3837
242.0607	0.3917
242.2761	0.352
242.4915	0.367
242.7069	0.3426
242.9223	0.3404
243.1376	0.368
243.353	0.3307
243.5683	0.336
243.7836	0.3122
243.9989	0.3333
244.2142	0.3049
244.4295	0.3132
244.6448	0.3075
244.86	0.2828
245.0753	0.2874
245.2905	0.2887
245.5057	0.2606
245.721	0.2729
245.9362	0.2677
246.1514	0.2774
246.3665	0.2347
246.5817	0.2401
246.7969	0.2435
247.012	0.2432
247.2271	0.227
247.4423	0.2476
247.6574	0.2328
247.8725	0.2249
248.0876	0.2247
248.3026	0.2218
248.5177	0.2241
248.7328	0.2047
248.9478	0.2052
249.1628	0.2194
249.3779	0.2138
249.5929	0.1954
249.8079	0.2071
250.0228	0.2063
250.2378	0.1958
250.4528	0.2079
250.6677	0.1796
250.8827	0.19
251.0976	0.1834
251.3125	0.189
251.5274	0.1668
251.7423	0.1823
251.9572	0.1845
252.172	0.1804
252.3869	0.1791
252.6017	0.1653
252.8166	0.161
253.0314	0.178
253.2462	0.1553
253.461	0.1728
253.6758	0.1684
253.8906	0.1807
254.1053	0.1643
254.3201	0.1799
254.5348	0.1757
254.7496	0.184
254.9643	0.1696
255.179	0.1704
255.3937	0.1773
255.6083	0.1676
255.823	0.1683
256.0377	0.1604
256.2523	0.1651
256.467	0.1475
256.6816	0.1729
256.8962	0.1661
257.1108	0.1481
257.3254	0.16
257.54	0.1653
257.7545	0.1565
257.9691	0.1694
258.1836	0.1721
258.3981	0.1874
258.6127	0.1671
258.8272	0.159
259.0417	0.1632
259.2561	0.1618
259.4706	0.1666
259.6851	0.1647
259.8995	0.1618
260.114	0.1685
260.3284	0.1714
260.5428	0.1621
260.7572	0.1582
260.9716	0.1757
261.186	0.151
261.4003	0.1579
261.6147	0.1699
261.829	0.1681
262.0433	0.1665
262.2577	0.1585
262.472	0.1668
262.6863	0.1548
262.9005	0.1642
263.1148	0.1564
263.3291	0.1584
263.5433	0.1521
263.7576	0.1685
263.9718	0.1596
264.186	0.167
264.4002	0.17
264.6144	0.1717
264.8286	0.1779
265.0427	0.1634
265.2569	0.1448
265.471	0.1663
265.6851	0.1516
265.8993	0.1597
266.1134	0.1534
266.3275	0.155
266.5415	0.1527
266.7556	0.1636
266.9697	0.1724
267.1837	0.167
267.3978	0.1712
267.6118	0.1695
267.8258	0.1716
268.0398	0.1573
268.2538	0.1575
268.4677	0.1537
268.6817	0.1649
268.8957	0.1563
269.1096	0.163
269.3235	0.1565
269.5374	0.1575
269.7514	0.1586
269.9652	0.156
270.1791	0.1426
270.393	0.1567
270.6068	0.1709
270.8207	0.1448
271.0345	0.1413
271.2483	0.1609
271.4622	0.1474
271.676	0.1455
271.8897	0.1273
272.1035	0.1449
272.3173	0.1464
272.531	0.1496
272.7448	0.1527
272.9585	0.1364
273.1722	0.1479
273.3859	0.1367
273.5996	0.1302
273.8133	0.1508
274.0269	0.1329
274.2406	0.1328
274.4542	0.1494
274.6679	0.1271
274.8815	0.1392
275.0951	0.1555
275.3087	0.1454
275.5223	0.1496
275.7358	0.1462
275.9494	0.1395
276.1629	0.1346
276.3765	0.143
276.59	0.1447
276.8035	0.1547
277.017	0.1485
277.2305	0.1442
277.444	0.1448
277.6574	0.1296
277.8709	0.1461
278.0843	0.1348
278.2978	0.1386
278.5112	0.1402
278.7246	0.1408
278.938	0.1419
279.1513	0.1499
279.3647	0.1441
279.5781	0.1386
279.7914	0.1387
280.0047	0.1517
280.2181	0.1532
280.4314	0.1545
280.6447	0.1509
280.8579	0.1469
281.0712	0.1387
281.2845	0.1411
281.4977	0.1388
281.711	0.1516
281.9242	0.1449
282.1374	0.1558
282.3506	0.1489
282.5638	0.1545
282.7769	0.1455
282.9901	0.1508
283.2033	0.1574
283.4164	0.1519
283.6295	0.147
283.8426	0.1534
284.0557	0.1593
284.2688	0.1676
284.4819	0.1508
284.695	0.1468
284.908	0.1685
285.1211	0.1518
285.3341	0.1578
285.5471	0.1589
285.7601	0.1572
285.9731	0.1427
286.1861	0.1517
286.3991	0.1576
286.612	0.1657
286.825	0.166
287.0379	0.1727
287.2508	0.1609
287.4637	0.1657
287.6766	0.1606
287.8895	0.1566
288.1024	0.1726
288.3152	0.1653
288.5281	0.157
288.7409	0.1604
288.9538	0.157
289.1666	0.1637
289.3794	0.1747
289.5922	0.1534
289.8049	0.1696
290.0177	0.1649
290.2304	0.1762
290.4432	0.1741
290.6559	0.1666
290.8686	0.1703
291.0813	0.1564
291.294	0.1708
291.5067	0.1785
291.7194	0.1657
291.932	0.1864
292.1447	0.1676
292.3573	0.1667
292.5699	0.168
292.7825	0.1659
292.9951	0.1587
293.2077	0.162
293.4203	0.1743
293.6328	0.1517
293.8454	0.1713
294.0579	0.1722
294.2704	0.1456
294.4829	0.165
294.6954	0.1714
294.9079	0.1768
295.1204	0.1653
295.3328	0.1734
295.5453	0.1645
295.7577	0.1736
295.9701	0.1614
296.1825	0.1641
296.3949	0.1605
296.6073	0.1665
296.8197	0.1529
297.0321	0.1719
297.2444	0.1484
297.4567	0.1642
297.6691	0.1736
297.8814	0.1577
298.0937	0.1706
298.306	0.1679
298.5182	0.1709
298.7305	0.1748
298.9428	0.1649
299.155	0.1691
299.3672	0.1674
299.5794	0.1569
299.7916	0.1679
300.0038	0.1585
300.216	0.1659
300.4282	0.1772
300.6403	0.162
300.8525	0.1707
301.0646	0.1579
301.2767	0.1648
301.4888	0.1569
301.7009	0.1666
301.913	0.1622
302.125	0.1718
302.3371	0.1643
302.5491	0.1557
302.7612	0.1704
302.9732	0.1675
303.1852	0.168
303.3972	0.1595
303.6092	0.1555
303.8211	0.1649
304.0331	0.1617
304.245	0.1565
304.457	0.1526
304.6689	0.1584
304.8808	0.1718
305.0927	0.1583
305.3046	0.1556
305.5164	0.1571
305.7283	0.149
305.9401	0.1532
306.152	0.155
306.3638	0.1581
306.5756	0.1425
306.7874	0.1517
306.9992	0.1455
307.2109	0.138
307.4227	0.1177
307.6344	0.133
307.8462	0.1393
308.0579	0.138
308.2696	0.1317
308.4813	0.1356
308.693	0.1355
308.9046	0.1387
309.1163	0.1315
309.328	0.1288
309.5396	0.1212
309.7512	0.1243
309.9628	0.1142
310.1744	0.1325
310.386	0.1178
310.5976	0.1218
310.8091	0.1237
311.0207	0.1205
311.2322	0.1196
311.4437	0.1016
311.6552	0.1111
311.8667	0.1171
312.0782	0.0895
312.2897	0.0983
312.5012	0.1164
312.7126	0.0992
312.924	0.0993
313.1355	0.1262
313.3469	0.1054
313.5583	0.1157
313.7696	0.1078
313.981	0.1071
314.1924	0.1037
314.4037	0.1053
314.6151	0.1088
314.8264	0.0999
315.0377	0.0924
315.249	0.1051
315.4603	0.1061
315.6716	0.0992
315.8828	0.0887
316.0941	0.0918
316.3053	0.096
316.5165	0.0979
316.7277	0.0911
316.9389	0.0979
317.1501	0.0984
317.3613	0.0998
317.5724	0.0957
317.7836	0.0923
317.9947	0.0963
318.2058	0.095
318.417	0.0804
318.6281	0.0826
318.8391	0.0848
319.0502	0.0964
319.2613	0.0912
319.4723	0.1001
319.6834	0.0953
319.8944	0.083
320.1054	0.0927
320.3164	0.098
320.5274	0.1013
320.7383	0.098
320.9493	0.0936
321.1602	0.1057
321.3712	0.0849
321.5821	0.0892
321.793	0.1067
322.0039	0.1036
322.2148	0.0989
322.4257	0.0929
322.6365	0.102
322.8474	0.1029
323.0582	0.0929
323.269	0.1003
323.4798	0.1082
323.6906	0.1098
323.9014	0.106
324.1122	0.0973
324.3229	0.1029
324.5337	0.0898
324.7444	0.0936
324.9551	0.1041
325.1658	0.1006
325.3765	0.105
325.5872	0.0993
325.7979	0.0966
326.0085	0.1028
326.2192	0.1097
326.4298	0.1003
326.6404	0.0968
326.851	0.0878
327.0616	0.1023
327.2722	0.1052
327.4828	0.1051
327.6933	0.0997
327.9039	0.114
328.1144	0.1068
328.3249	0.1124
328.5354	0.0905
328.7459	0.0966
328.9564	0.1067
329.1669	0.1018
329.3773	0.1048
329.5878	0.1029
329.7982	0.09
330.0086	0.0958
330.219	0.1022
330.4294	0.0993
330.6398	0.0961
330.8502	0.1059
331.0605	0.1025
331.2708	0.0965
331.4812	0.1106
331.6915	0.1085
331.9018	0.107
332.1121	0.1043
332.3224	0.1177
332.5326	0.1087
332.7429	0.1041
332.9531	0.1145
333.1633	0.1068
333.3735	0.104
333.5837	0.1079
333.7939	0.0988
334.0041	0.1132
334.2143	0.1218
334.4244	0.0968
334.6346	0.0879
334.8447	0.1201
335.0548	0.1042
335.2649	0.097
335.475	0.1065
335.685	0.1051
335.8951	0.1308
336.1051	0.1142
336.3152	0.1052
336.5252	0.104
336.7352	0.1142
336.9452	0.1165
337.1552	0.1163
337.3652	0.1034
337.5751	0.1206
337.7851	0.1043
337.995	0.0854
338.2049	0.1088
338.4148	0.1108
338.6247	0.1183
338.8346	0.1112
339.0445	0.0961
339.2543	0.1131
339.4642	0.1216
339.674	0.1025
339.8838	0.1108
340.0936	0.11
340.3034	0.1193
340.5132	0.1121
340.7229	0.1269
340.9327	0.1084
341.1424	0.1164
341.3522	0.1245
341.5619	0.1107
341.7716	0.1214
341.9813	0.112
342.1909	0.1105
342.4006	0.1281
342.6102	0.1319
342.8199	0.1287
343.0295	0.1238
343.2391	0.1143
343.4487	0.1339
343.6583	0.1169
343.8679	0.1212
344.0774	0.1276
344.287	0.1252
344.4965	0.1231
344.706	0.1271
344.9155	0.1335
345.125	0.1233
345.3345	0.1306
345.544	0.1287
345.7534	0.1314
345.9629	0.12
346.1723	0.1162
346.3817	0.1204
346.5911	0.1241
346.8005	0.1354
347.0099	0.1253
347.2193	0.1233
347.4286	0.1237
347.638	0.1477
347.8473	0.1203
348.0566	0.1326
348.2659	0.1375
348.4752	0.1398
348.6845	0.132
348.8937	0.1389
349.103	0.1321
349.3122	0.1292
349.5214	0.1355
349.7306	0.1328
349.9398	0.1419
350.149	0.1369
350.3582	0.1304
350.5674	0.1384
350.7765	0.1475
350.9856	0.1283
351.1948	0.1351
351.4039	0.1283
351.613	0.1192
351.822	0.1498
352.0311	0.1491
352.2402	0.1412
352.4492	0.1362
352.6582	0.1587
352.8672	0.1453
353.0762	0.142
353.2852	0.146
353.4942	0.1279
353.7032	0.1576
353.9121	0.1366
354.1211	0.1522
354.33	0.1526
354.5389	0.1551
354.7478	0.1452
354.9567	0.1498
355.1655	0.1425
355.3744	0.1529
355.5833	0.1527
355.7921	0.1593
356.0009	0.1487
356.2097	0.1718
356.4185	0.1718
356.6273	0.1591
356.8361	0.1701
357.0448	0.1476
357.2536	0.1491
357.4623	0.1621
357.671	0.1671
357.8797	0.1558
358.0884	0.1674
358.2971	0.1692
358.5057	0.1877
358.7144	0.1657
358.923	0.1739
359.1316	0.1719
359.3402	0.1623
359.5488	0.1742
359.7574	0.1577
359.966	0.1654
360.1746	0.1775
360.3831	0.1836
360.5916	0.1604
360.8002	0.1628
361.0087	0.1779
361.2172	0.1951
361.4256	0.1801
361.6341	0.1804
361.8426	0.1771
362.051	0.1847
362.2594	0.1752
362.4678	0.179
362.6762	0.1959
362.8846	0.1888
363.093	0.1797
363.3014	0.183
363.5097	0.1678
363.718	0.1796
363.9264	0.1851
364.1347	0.1869
364.343	0.2049
364.5513	0.1965
364.7595	0.2023
364.9678	0.1855
365.176	0.2103
365.3842	0.1903
365.5925	0.2067
365.8007	0.1968
366.0089	0.1985
366.217	0.1835
366.4252	0.208
366.6333	0.2101
366.8415	0.2033
367.0496	0.1899
367.2577	0.1977
367.4658	0.2066
367.6739	0.2044
367.882	0.2247
368.09	0.2115
368.2981	0.2253
368.5061	0.2042
368.7141	0.1998
368.9221	0.2218
369.1301	0.2145
369.3381	0.2132
369.5461	0.2065
369.754	0.2138
369.962	0.2095
370.1699	0.2068
370.3778	0.2364
370.5857	0.2155
370.7936	0.2203
371.0015	0.2111
371.2093	0.2262
371.4172	0.2395
371.625	0.1969
371.8328	0.2271
372.0406	0.2171
372.2484	0.2221
372.4562	0.2248
372.664	0.2225
372.8717	0.2296
373.0795	0.2017
373.2872	0.238
373.4949	0.2189
373.7026	0.247
373.9103	0.2455
374.118	0.2365
374.3256	0.2288
374.5333	0.2413
374.7409	0.2273
374.9485	0.2455
375.1561	0.2325
375.3637	0.2375
375.5713	0.2586
375.7789	0.2412
375.9864	0.2331
376.194	0.2298
376.4015	0.2354
376.609	0.2476
376.8165	0.2362
377.024	0.2569
377.2315	0.2414
377.4389	0.2422
377.6464	0.2467
377.8538	0.2554
378.0612	0.2435
378.2686	0.2512
378.476	0.2567
378.6834	0.246
378.8908	0.2563
379.0981	0.2443
379.3055	0.248
379.5128	0.2413
379.7201	0.2464
379.9274	0.255
380.1347	0.2575
380.342	0.2502
380.5492	0.2571
380.7565	0.2442
380.9637	0.2536
381.1709	0.2492
381.3781	0.2387
381.5853	0.2564
381.7925	0.2644
381.9997	0.2624
382.2068	0.2673
382.4139	0.2669
382.6211	0.2469
382.8282	0.25
383.0353	0.2655
383.2424	0.2531
383.4494	0.2492
383.6565	0.2452
383.8635	0.2713
384.0706	0.2563
384.2776	0.2646
384.4846	0.2589
384.6916	0.2634
384.8986	0.2502
385.1055	0.2839
385.3125	0.2713
385.5194	0.2597
385.7263	0.2674
385.9333	0.2578
386.1402	0.2638
386.347	0.2488
386.5539	0.2567
386.7608	0.263
386.9676	0.2583
387.1744	0.2638
387.3813	0.252
387.5881	0.2585
387.7948	0.239
388.0016	0.2449
388.2084	0.2645
388.4151	0.2538
388.6219	0.2544
388.8286	0.2667
389.0353	0.2644
389.242	0.2592
389.4487	0.2543
389.6553	0.2421
389.862	0.2312
390.0686	0.2509
390.2753	0.2647
390.4819	0.2501
390.6885	0.2341
390.8951	0.2505
391.1016	0.2401
391.3082	0.2455
391.5147	0.24
391.7213	0.2563
391.9278	0.2271
392.1343	0.246
392.3408	0.2339
392.5473	0.2486
392.7537	0.2349
392.9602	0.2237
393.1666	0.2335
393.373	0.2416
393.5794	0.2437
393.7858	0.242
393.9922	0.2284
394.1986	0.2413
394.4049	0.235
394.6113	0.2174
394.8176	0.217
395.0239	0.2263
395.2302	0.2266
395.4365	0.2334
395.6428	0.212
395.8491	0.2096
396.0553	0.2343
396.2615	0.2297
396.4678	0.2321
396.674	0.185
396.8802	0.212
397.0863	0.2317
397.2925	0.2181
397.4987	0.2111
397.7048	0.2121
397.9109	0.2121
398.117	0.211
398.3231	0.2126
398.5292	0.2303
398.7353	0.2223
398.9413	0.2157
399.1474	0.2223
399.3534	0.2154
399.5594	0.2011
399.7654	0.2319
399.9714	0.2371
400.1774	0.2225
400.3833	0.2134
400.5893	0.2239
400.7952	0.2069
401.0011	0.2216
401.207	0.2291
401.4129	0.2331
401.6188	0.242
401.8247	0.2182
402.0305	0.2009
402.2364	0.2142
402.4422	0.2311
402.648	0.2292
402.8538	0.2148
403.0596	0.2259
403.2654	0.224
403.4711	0.194
403.6768	0.2216
403.8826	0.2231
404.0883	0.2171
404.294	0.2214
404.4997	0.2297
404.7054	0.235
404.911	0.2087
405.1167	0.2171
405.3223	0.217
405.5279	0.2326
405.7335	0.2323
405.9391	0.2169
406.1447	0.2211
406.3502	0.2256
406.5558	0.2228
406.7613	0.2186
406.9668	0.2096
407.1724	0.2157
407.3778	0.2133
407.5833	0.2226
407.7888	0.2162
407.9942	0.2239
408.1997	0.2056
408.4051	0.2211
408.6105	0.2305
408.8159	0.2023
409.0213	0.2262
409.2267	0.2233
409.432	0.2061
409.6374	0.2359
409.8427	0.205
410.048	0.2073
410.2533	0.2046
410.4586	0.2128
410.6639	0.2055
410.8691	0.1938
411.0744	0.2186
411.2796	0.2072
411.4848	0.2191
411.69	0.2061
411.8952	0.2411
412.1004	0.2109
412.3056	0.2218
412.5107	0.2152
412.7158	0.2246
412.921	0.2154
413.1261	0.1958
413.3312	0.2125
413.5362	0.2128
413.7413	0.2266
413.9464	0.1921
414.1514	0.2163
414.3564	0.2026
414.5614	0.1946
414.7664	0.2066
414.9714	0.2068
415.1764	0.2187
415.3813	0.2272
415.5863	0.2211
415.7912	0.1997
415.9961	0.1974
416.201	0.2013
416.4059	0.2259
416.6108	0.2001
416.8156	0.2032
417.0205	0.2069
417.2253	0.2032
417.4301	0.2189
417.6349	0.1855
417.8397	0.1957
418.0445	0.2108
418.2492	0.2162
418.454	0.2113
418.6587	0.206
418.8634	0.2067
419.0681	0.1955
419.2728	0.1888
419.4775	0.2235
419.6822	0.1947
419.8868	0.1769
420.0915	0.1906
420.2961	0.1892
420.5007	0.1958
420.7053	0.1879
420.9099	0.206
421.1144	0.1939
421.319	0.2065
421.5235	0.1967
421.728	0.2016
421.9325	0.196
422.137	0.2005
422.3415	0.1846
422.546	0.1991
422.7504	0.1886
422.9549	0.1964
423.1593	0.1993
423.3637	0.1969
423.5681	0.1936
423.7725	0.1823
423.9769	0.1737
424.1812	0.1766
424.3856	0.1824
424.5899	0.1792
424.7942	0.2024
424.9985	0.1821
425.2028	0.175
425.4071	0.1967
425.6113	0.1755
425.8156	0.183
426.0198	0.1828
426.224	0.1625
426.4282	0.1629
426.6324	0.1695
426.8366	0.1657
