Data from MonoPyChalIsomerACN10uM410nmA_Absorbance_14-53-30-773.txt Node
Date: Fri Jul 05 14:53:30 BST 2024
User: LASERRRRR
Spectrometer: FLMT03099
Trigger mode: 0
Integration Time (sec): 1.000000E-1
Scans to average: 1
Electric dark correction enabled: true
Nonlinearity correction enabled: false
Boxcar width: 0
XAxis mode: Wavelengths
Number of Pixels in Spectrum: 3648
>>>>>Begin Spectral Data<<<<<
179.3399	-0.0097
179.5586	-0.0097
179.7771	-0.0097
179.9957	-0
180.2143	-0
180.4329	-0.2385
180.6514	-0
180.8699	-0
181.0885	0.8296
181.307	0.6009
181.5255	-1.1486
181.744	-0.293
181.9625	-0
182.181	-0.4827
182.3994	0.4502
182.6179	-0
182.8363	-0.0878
183.0547	-0.4249
183.2732	0.0146
183.4916	0.1955
183.71	0.1506
183.9284	0.0999
184.1467	-0.1196
184.3651	-0.1881
184.5835	-0.0019
184.8018	-0.008
185.0201	0.0661
185.2385	-0.0122
185.4568	0.0804
185.6751	0.2468
185.8934	0.2263
186.1117	0.0098
186.3299	0.0567
186.5482	0.0813
186.7664	-0.016
186.9847	0.0263
187.2029	0.0118
187.4211	-0.0199
187.6393	-0.1911
187.8575	-0.031
188.0757	0.1368
188.2939	-0.0143
188.512	0.4646
188.7302	0.0215
188.9483	0.0809
189.1665	0.1375
189.3846	-0.1704
189.6027	0.5748
189.8208	-0.004
190.0389	0.0782
190.257	0.0908
190.475	0.199
190.6931	0.3525
190.9111	0.4557
191.1292	0.2373
191.3472	0.3489
191.5652	0.2518
191.7832	0.1129
192.0012	0.3208
192.2192	0.3502
192.4371	0.4742
192.6551	0.3115
192.873	0.4072
193.091	0.4089
193.3089	0.407
193.5268	0.452
193.7447	0.4605
193.9626	0.3689
194.1805	0.6908
194.3984	0.913
194.6162	0.5346
194.8341	0.5485
195.0519	0.5172
195.2697	0.7149
195.4875	0.4885
195.7054	0.6607
195.9231	0.489
196.1409	0.6313
196.3587	0.7597
196.5765	0.5589
196.7942	0.4971
197.012	0.4962
197.2297	0.6251
197.4474	0.6451
197.6651	0.4839
197.8828	0.5523
198.1005	0.6867
198.3182	0.5062
198.5358	0.7308
198.7535	0.6793
198.9711	0.558
199.1888	0.5622
199.4064	0.7177
199.624	0.4991
199.8416	0.6209
200.0592	0.6397
200.2767	0.5483
200.4943	0.6453
200.7119	0.7056
200.9294	0.6771
201.1469	0.5867
201.3645	0.5643
201.582	0.541
201.7995	0.6277
202.017	0.5864
202.2344	0.545
202.4519	0.7553
202.6694	0.6453
202.8868	0.5877
203.1042	0.6924
203.3217	0.6048
203.5391	0.5911
203.7565	0.6274
203.9739	0.5581
204.1913	0.5511
204.4086	0.651
204.626	0.6871
204.8433	0.6859
205.0607	0.5705
205.278	0.599
205.4953	0.6368
205.7126	0.6173
205.9299	0.7798
206.1472	0.6671
206.3644	0.6033
206.5817	0.6772
206.7989	0.6865
207.0162	0.6351
207.2334	0.635
207.4506	0.5881
207.6678	0.7117
207.885	0.7003
208.1022	0.6209
208.3194	0.6509
208.5365	0.6767
208.7537	0.6009
208.9708	0.6192
209.1879	0.6556
209.405	0.6905
209.6222	0.6731
209.8392	0.6603
210.0563	0.5978
210.2734	0.6697
210.4905	0.6299
210.7075	0.6086
210.9245	0.5346
211.1416	0.6997
211.3586	0.5938
211.5756	0.559
211.7926	0.6458
212.0096	0.5882
212.2265	0.5058
212.4435	0.5651
212.6604	0.5711
212.8774	0.5779
213.0943	0.5928
213.3112	0.6017
213.5281	0.5068
213.745	0.5417
213.9619	0.5081
214.1788	0.4507
214.3956	0.4414
214.6125	0.4797
214.8293	0.4172
215.0461	0.4778
215.2629	0.4726
215.4798	0.4659
215.6965	0.4077
215.9133	0.4363
216.1301	0.4025
216.3469	0.426
216.5636	0.4744
216.7803	0.3703
216.9971	0.408
217.2138	0.3589
217.4305	0.3509
217.6472	0.3519
217.8639	0.3998
218.0805	0.3234
218.2972	0.3114
218.5138	0.2957
218.7305	0.3241
218.9471	0.2858
219.1637	0.2807
219.3803	0.2985
219.5969	0.2548
219.8135	0.2474
220.0301	0.2714
220.2466	0.2612
220.4632	0.2264
220.6797	0.2359
220.8962	0.2453
221.1127	0.27
221.3292	0.2388
221.5457	0.2427
221.7622	0.2242
221.9787	0.2284
222.1951	0.2132
222.4116	0.2592
222.628	0.2407
222.8444	0.2638
223.0608	0.2291
223.2772	0.2444
223.4936	0.2526
223.71	0.2374
223.9264	0.2553
224.1427	0.2353
224.3591	0.2464
224.5754	0.2449
224.7917	0.2599
225.008	0.26
225.2243	0.2432
225.4406	0.2581
225.6569	0.2601
225.8732	0.2392
226.0894	0.2673
226.3057	0.2536
226.5219	0.2603
226.7381	0.2635
226.9543	0.2709
227.1705	0.2643
227.3867	0.2493
227.6029	0.3061
227.8191	0.2779
228.0352	0.2601
228.2513	0.3037
228.4675	0.2932
228.6836	0.2791
228.8997	0.2801
229.1158	0.2898
229.3319	0.3002
229.548	0.2906
229.764	0.3033
229.9801	0.3056
230.1961	0.3113
230.4121	0.312
230.6282	0.327
230.8442	0.3005
231.0602	0.3357
231.2761	0.3362
231.4921	0.3336
231.7081	0.3477
231.924	0.3312
232.14	0.3472
232.3559	0.334
232.5718	0.364
232.7877	0.3524
233.0036	0.3298
233.2195	0.3448
233.4353	0.3382
233.6512	0.334
233.867	0.3419
234.0829	0.3534
234.2987	0.3532
234.5145	0.3553
234.7303	0.3604
234.9461	0.4011
235.1619	0.3925
235.3776	0.373
235.5934	0.3776
235.8091	0.3688
236.0249	0.3783
236.2406	0.3741
236.4563	0.3593
236.672	0.3896
236.8877	0.3751
237.1034	0.3786
237.319	0.3801
237.5347	0.3941
237.7503	0.3658
237.966	0.3901
238.1816	0.3955
238.3972	0.4005
238.6128	0.3771
238.8284	0.4191
239.0439	0.3903
239.2595	0.3964
239.475	0.3969
239.6906	0.3983
239.9061	0.3998
240.1216	0.3926
240.3371	0.4055
240.5526	0.3835
240.7681	0.411
240.9836	0.3818
241.199	0.3994
241.4145	0.3714
241.6299	0.369
241.8453	0.3751
242.0607	0.371
242.2761	0.3691
242.4915	0.3776
242.7069	0.369
242.9223	0.3648
243.1376	0.3609
243.353	0.3534
243.5683	0.3646
243.7836	0.3395
243.9989	0.3412
244.2142	0.3133
244.4295	0.34
244.6448	0.3111
244.86	0.3133
245.0753	0.3071
245.2905	0.3183
245.5057	0.2942
245.721	0.2926
245.9362	0.2766
246.1514	0.2897
246.3665	0.2808
246.5817	0.2663
246.7969	0.2783
247.012	0.2519
247.2271	0.2428
247.4423	0.2624
247.6574	0.2707
247.8725	0.2422
248.0876	0.2424
248.3026	0.2365
248.5177	0.2408
248.7328	0.2319
248.9478	0.2168
249.1628	0.2179
249.3779	0.2325
249.5929	0.2147
249.8079	0.2177
250.0228	0.2091
250.2378	0.2063
250.4528	0.2128
250.6677	0.1859
250.8827	0.194
251.0976	0.2023
251.3125	0.2071
251.5274	0.1776
251.7423	0.19
251.9572	0.1975
252.172	0.1867
252.3869	0.1855
252.6017	0.1785
252.8166	0.1669
253.0314	0.1713
253.2462	0.1711
253.461	0.1768
253.6758	0.1766
253.8906	0.1804
254.1053	0.1652
254.3201	0.1693
254.5348	0.1805
254.7496	0.1861
254.9643	0.165
255.179	0.1608
255.3937	0.1732
255.6083	0.1715
255.823	0.1664
256.0377	0.1624
256.2523	0.1601
256.467	0.1395
256.6816	0.1701
256.8962	0.1686
257.1108	0.1643
257.3254	0.1708
257.54	0.1639
257.7545	0.1674
257.9691	0.1657
258.1836	0.166
258.3981	0.1682
258.6127	0.172
258.8272	0.1659
259.0417	0.1752
259.2561	0.1527
259.4706	0.1683
259.6851	0.1667
259.8995	0.1516
260.114	0.158
260.3284	0.1614
260.5428	0.1531
260.7572	0.1648
260.9716	0.1775
261.186	0.1644
261.4003	0.1755
261.6147	0.1674
261.829	0.1621
262.0433	0.161
262.2577	0.1557
262.472	0.1734
262.6863	0.1624
262.9005	0.168
263.1148	0.1728
263.3291	0.1485
263.5433	0.1757
263.7576	0.1624
263.9718	0.1635
264.186	0.1669
264.4002	0.1613
264.6144	0.1679
264.8286	0.1714
265.0427	0.1639
265.2569	0.171
265.471	0.1465
265.6851	0.1485
265.8993	0.1645
266.1134	0.1547
266.3275	0.1639
266.5415	0.1595
266.7556	0.1651
266.9697	0.1756
267.1837	0.1629
267.3978	0.1575
267.6118	0.1846
267.8258	0.1884
268.0398	0.1603
268.2538	0.1655
268.4677	0.1595
268.6817	0.1577
268.8957	0.174
269.1096	0.1732
269.3235	0.1758
269.5374	0.1537
269.7514	0.1595
269.9652	0.1649
270.1791	0.161
270.393	0.1544
270.6068	0.163
270.8207	0.1551
271.0345	0.1529
271.2483	0.1716
271.4622	0.1495
271.676	0.1763
271.8897	0.1464
272.1035	0.1618
272.3173	0.1558
272.531	0.1582
272.7448	0.1514
272.9585	0.1585
273.1722	0.155
273.3859	0.162
273.5996	0.1452
273.8133	0.1623
274.0269	0.1566
274.2406	0.1515
274.4542	0.1495
274.6679	0.1436
274.8815	0.1631
275.0951	0.167
275.3087	0.1712
275.5223	0.1614
275.7358	0.1782
275.9494	0.1718
276.1629	0.159
276.3765	0.1503
276.59	0.1679
276.8035	0.1669
277.017	0.1694
277.2305	0.1545
277.444	0.1688
277.6574	0.1486
277.8709	0.1655
278.0843	0.1565
278.2978	0.1657
278.5112	0.1538
278.7246	0.158
278.938	0.1696
279.1513	0.1738
279.3647	0.1701
279.5781	0.1634
279.7914	0.17
280.0047	0.1699
280.2181	0.1656
280.4314	0.1777
280.6447	0.1603
280.8579	0.1715
281.0712	0.1721
281.2845	0.1709
281.4977	0.1659
281.711	0.1572
281.9242	0.1673
282.1374	0.1641
282.3506	0.1569
282.5638	0.1652
282.7769	0.1709
282.9901	0.1522
283.2033	0.1759
283.4164	0.1636
283.6295	0.1598
283.8426	0.1616
284.0557	0.1586
284.2688	0.18
284.4819	0.1648
284.695	0.1609
284.908	0.1722
285.1211	0.1648
285.3341	0.1534
285.5471	0.1667
285.7601	0.1575
285.9731	0.1648
286.1861	0.1625
286.3991	0.179
286.612	0.174
286.825	0.167
287.0379	0.1582
287.2508	0.1613
287.4637	0.1684
287.6766	0.1511
287.8895	0.1714
288.1024	0.1642
288.3152	0.1586
288.5281	0.1507
288.7409	0.1531
288.9538	0.1632
289.1666	0.1621
289.3794	0.1518
289.5922	0.151
289.8049	0.1589
290.0177	0.1517
290.2304	0.155
290.4432	0.1577
290.6559	0.1512
290.8686	0.163
291.0813	0.1501
291.294	0.1519
291.5067	0.1641
291.7194	0.1501
291.932	0.1586
292.1447	0.1524
292.3573	0.1509
292.5699	0.1427
292.7825	0.1507
292.9951	0.1498
293.2077	0.1547
293.4203	0.1496
293.6328	0.1375
293.8454	0.1564
294.0579	0.1421
294.2704	0.1446
294.4829	0.1402
294.6954	0.1569
294.9079	0.1354
295.1204	0.1547
295.3328	0.1497
295.5453	0.1476
295.7577	0.1377
295.9701	0.1432
296.1825	0.1503
296.3949	0.1408
296.6073	0.1378
296.8197	0.1368
297.0321	0.1569
297.2444	0.1253
297.4567	0.1423
297.6691	0.1464
297.8814	0.1367
298.0937	0.1523
298.306	0.1476
298.5182	0.148
298.7305	0.1515
298.9428	0.1389
299.155	0.148
299.3672	0.1371
299.5794	0.1442
299.7916	0.1408
300.0038	0.1402
300.216	0.1517
300.4282	0.1424
300.6403	0.1409
300.8525	0.1543
301.0646	0.1392
301.2767	0.1409
301.4888	0.1353
301.7009	0.1419
301.913	0.1475
302.125	0.1451
302.3371	0.1305
302.5491	0.1418
302.7612	0.1576
302.9732	0.1456
303.1852	0.1517
303.3972	0.1416
303.6092	0.1454
303.8211	0.1345
304.0331	0.1452
304.245	0.142
304.457	0.1359
304.6689	0.1341
304.8808	0.1542
305.0927	0.1257
305.3046	0.139
305.5164	0.136
305.7283	0.1297
305.9401	0.1388
306.152	0.1322
306.3638	0.1394
306.5756	0.1318
306.7874	0.1297
306.9992	0.1301
307.2109	0.13
307.4227	0.1252
307.6344	0.1261
307.8462	0.1261
308.0579	0.1281
308.2696	0.1252
308.4813	0.1274
308.693	0.1315
308.9046	0.1355
309.1163	0.1283
309.328	0.1235
309.5396	0.1252
309.7512	0.1197
309.9628	0.1051
310.1744	0.1202
310.386	0.1297
310.5976	0.1156
310.8091	0.1178
311.0207	0.1098
311.2322	0.1209
311.4437	0.1158
311.6552	0.1051
311.8667	0.1161
312.0782	0.1017
312.2897	0.1017
312.5012	0.1181
312.7126	0.1133
312.924	0.1059
313.1355	0.1174
313.3469	0.1149
313.5583	0.1164
313.7696	0.1216
313.981	0.1151
314.1924	0.1137
314.4037	0.1109
314.6151	0.1222
314.8264	0.1031
315.0377	0.0975
315.249	0.1181
315.4603	0.1251
315.6716	0.1086
315.8828	0.103
316.0941	0.0999
316.3053	0.1048
316.5165	0.1005
316.7277	0.0983
316.9389	0.1117
317.1501	0.1048
317.3613	0.1123
317.5724	0.0943
317.7836	0.1103
317.9947	0.0958
318.2058	0.0993
318.417	0.1081
318.6281	0.1096
318.8391	0.107
319.0502	0.1024
319.2613	0.1083
319.4723	0.1164
319.6834	0.1073
319.8944	0.0969
320.1054	0.1111
320.3164	0.106
320.5274	0.1088
320.7383	0.0983
320.9493	0.1074
321.1602	0.11
321.3712	0.1011
321.5821	0.1024
321.793	0.1138
322.0039	0.1077
322.2148	0.1034
322.4257	0.1194
322.6365	0.1202
322.8474	0.1207
323.0582	0.1118
323.269	0.1216
323.4798	0.131
323.6906	0.0971
323.9014	0.1146
324.1122	0.1074
324.3229	0.1064
324.5337	0.1203
324.7444	0.1164
324.9551	0.126
325.1658	0.1154
325.3765	0.1151
325.5872	0.117
325.7979	0.1006
326.0085	0.1181
326.2192	0.122
326.4298	0.1268
326.6404	0.1033
326.851	0.1072
327.0616	0.1156
327.2722	0.1182
327.4828	0.1142
327.6933	0.1191
327.9039	0.1142
328.1144	0.1286
328.3249	0.1125
328.5354	0.1197
328.7459	0.1221
328.9564	0.1044
329.1669	0.1202
329.3773	0.1155
329.5878	0.109
329.7982	0.1136
330.0086	0.1078
330.219	0.1253
330.4294	0.1177
330.6398	0.1192
330.8502	0.1063
331.0605	0.1231
331.2708	0.1141
331.4812	0.1125
331.6915	0.1169
331.9018	0.1237
332.1121	0.1065
332.3224	0.1296
332.5326	0.1277
332.7429	0.1169
332.9531	0.1297
333.1633	0.1147
333.3735	0.1072
333.5837	0.1047
333.7939	0.1208
334.0041	0.122
334.2143	0.1182
334.4244	0.1277
334.6346	0.1008
334.8447	0.128
335.0548	0.114
335.2649	0.1066
335.475	0.1271
335.685	0.1119
335.8951	0.1335
336.1051	0.1313
336.3152	0.1369
336.5252	0.1126
336.7352	0.1272
336.9452	0.1324
337.1552	0.1337
337.3652	0.1225
337.5751	0.1193
337.7851	0.1269
337.995	0.112
338.2049	0.1273
338.4148	0.1337
338.6247	0.1215
338.8346	0.1236
339.0445	0.112
339.2543	0.1303
339.4642	0.1311
339.674	0.1271
339.8838	0.1278
340.0936	0.1274
340.3034	0.127
340.5132	0.135
340.7229	0.1406
340.9327	0.121
341.1424	0.1169
341.3522	0.1315
341.5619	0.1354
341.7716	0.1353
341.9813	0.141
342.1909	0.1325
342.4006	0.1355
342.6102	0.1255
342.8199	0.1401
343.0295	0.1408
343.2391	0.1355
343.4487	0.1443
343.6583	0.132
343.8679	0.1398
344.0774	0.1384
344.287	0.1378
344.4965	0.1295
344.706	0.1379
344.9155	0.1316
345.125	0.1335
345.3345	0.1354
345.544	0.1372
345.7534	0.1292
345.9629	0.1407
346.1723	0.1254
346.3817	0.135
346.5911	0.1387
346.8005	0.1445
347.0099	0.135
347.2193	0.1399
347.4286	0.1327
347.638	0.1345
347.8473	0.1425
348.0566	0.1417
348.2659	0.1509
348.4752	0.137
348.6845	0.1291
348.8937	0.1354
349.103	0.1515
349.3122	0.1349
349.5214	0.141
349.7306	0.148
349.9398	0.1434
350.149	0.1527
350.3582	0.1342
350.5674	0.1592
350.7765	0.1496
350.9856	0.1372
351.1948	0.1461
351.4039	0.1319
351.613	0.144
351.822	0.1481
352.0311	0.1509
352.2402	0.1445
352.4492	0.1516
352.6582	0.1508
352.8672	0.1501
353.0762	0.155
353.2852	0.162
353.4942	0.1398
353.7032	0.1606
353.9121	0.1491
354.1211	0.1492
354.33	0.1468
354.5389	0.1507
354.7478	0.149
354.9567	0.1487
355.1655	0.1497
355.3744	0.1561
355.5833	0.1536
355.7921	0.1693
356.0009	0.1713
356.2097	0.1729
356.4185	0.1621
356.6273	0.1573
356.8361	0.1713
357.0448	0.1663
357.2536	0.1608
357.4623	0.1545
357.671	0.1605
357.8797	0.1588
358.0884	0.1611
358.2971	0.1593
358.5057	0.1615
358.7144	0.1725
358.923	0.1728
359.1316	0.1697
359.3402	0.153
359.5488	0.1623
359.7574	0.1574
359.966	0.1659
360.1746	0.1681
360.3831	0.1765
360.5916	0.1607
360.8002	0.1537
361.0087	0.1803
361.2172	0.1703
361.4256	0.1608
361.6341	0.168
361.8426	0.1799
362.051	0.1604
362.2594	0.1736
362.4678	0.1613
362.6762	0.1869
362.8846	0.1743
363.093	0.1736
363.3014	0.1719
363.5097	0.1738
363.718	0.1758
363.9264	0.1748
364.1347	0.1654
364.343	0.1894
364.5513	0.1914
364.7595	0.1941
364.9678	0.1782
365.176	0.187
365.3842	0.1798
365.5925	0.1858
365.8007	0.1827
366.0089	0.1967
366.217	0.1784
366.4252	0.1853
366.6333	0.1981
366.8415	0.1756
367.0496	0.1676
367.2577	0.193
367.4658	0.1727
367.6739	0.1897
367.882	0.1889
368.09	0.1811
368.2981	0.2015
368.5061	0.1867
368.7141	0.186
368.9221	0.1916
369.1301	0.1901
369.3381	0.1784
369.5461	0.2029
369.754	0.1848
369.962	0.1995
370.1699	0.1847
370.3778	0.1968
370.5857	0.1846
370.7936	0.1977
371.0015	0.1784
371.2093	0.2077
371.4172	0.1965
371.625	0.1855
371.8328	0.1817
372.0406	0.2012
372.2484	0.1823
372.4562	0.1849
372.664	0.195
372.8717	0.2086
373.0795	0.1683
373.2872	0.1915
373.4949	0.1746
373.7026	0.2033
373.9103	0.2035
374.118	0.2021
374.3256	0.186
374.5333	0.1923
374.7409	0.1878
374.9485	0.1991
375.1561	0.2067
375.3637	0.1911
375.5713	0.1898
375.7789	0.195
375.9864	0.2098
376.194	0.1877
376.4015	0.2179
376.609	0.2108
376.8165	0.1929
377.024	0.2012
377.2315	0.1816
377.4389	0.2011
377.6464	0.2159
377.8538	0.1982
378.0612	0.196
378.2686	0.2042
378.476	0.2235
378.6834	0.2078
378.8908	0.1936
379.0981	0.2181
379.3055	0.2168
379.5128	0.1908
379.7201	0.1942
379.9274	0.2018
380.1347	0.2067
380.342	0.2299
380.5492	0.1921
380.7565	0.205
380.9637	0.2166
381.1709	0.1962
381.3781	0.2012
381.5853	0.2032
381.7925	0.1962
381.9997	0.1932
382.2068	0.223
382.4139	0.2265
382.6211	0.1989
382.8282	0.2077
383.0353	0.2106
383.2424	0.2195
383.4494	0.2155
383.6565	0.2048
383.8635	0.2059
384.0706	0.198
384.2776	0.215
384.4846	0.2023
384.6916	0.2109
384.8986	0.2096
385.1055	0.2038
385.3125	0.2091
385.5194	0.1771
385.7263	0.1984
385.9333	0.1975
386.1402	0.192
386.347	0.1981
386.5539	0.2032
386.7608	0.2252
386.9676	0.1895
387.1744	0.199
387.3813	0.1661
387.5881	0.2089
387.7948	0.1923
388.0016	0.1918
388.2084	0.1889
388.4151	0.1877
388.6219	0.2071
388.8286	0.2072
389.0353	0.2158
389.242	0.1914
389.4487	0.1903
389.6553	0.1846
389.862	0.1897
390.0686	0.164
390.2753	0.2017
390.4819	0.1847
390.6885	0.201
390.8951	0.2083
391.1016	0.1839
391.3082	0.2023
391.5147	0.1942
391.7213	0.1876
391.9278	0.1806
392.1343	0.1779
392.3408	0.1812
392.5473	0.1864
392.7537	0.1751
392.9602	0.178
393.1666	0.1833
393.373	0.1731
393.5794	0.1854
393.7858	0.1858
393.9922	0.1808
394.1986	0.1886
394.4049	0.1623
394.6113	0.1811
394.8176	0.1708
395.0239	0.1651
395.2302	0.181
395.4365	0.1782
395.6428	0.1825
395.8491	0.1794
396.0553	0.1732
396.2615	0.1865
396.4678	0.1683
396.674	0.1551
396.8802	0.1647
397.0863	0.1733
397.2925	0.1684
397.4987	0.1701
397.7048	0.1606
397.9109	0.1727
398.117	0.1627
398.3231	0.1665
398.5292	0.1769
398.7353	0.1783
398.9413	0.1674
399.1474	0.1709
399.3534	0.1652
399.5594	0.167
399.7654	0.1694
399.9714	0.1979
400.1774	0.1668
400.3833	0.1435
400.5893	0.1651
400.7952	0.1578
401.0011	0.1557
401.207	0.1638
401.4129	0.1604
401.6188	0.1673
401.8247	0.1739
402.0305	0.1585
402.2364	0.1481
402.4422	0.1719
402.648	0.1694
402.8538	0.1765
403.0596	0.1506
403.2654	0.1717
403.4711	0.148
403.6768	0.1623
403.8826	0.1807
404.0883	0.1716
404.294	0.1572
404.4997	0.1611
404.7054	0.1668
404.911	0.151
405.1167	0.1742
405.3223	0.1739
405.5279	0.1647
405.7335	0.1626
405.9391	0.1768
406.1447	0.1684
406.3502	0.1667
406.5558	0.1539
406.7613	0.1666
406.9668	0.1599
407.1724	0.1501
407.3778	0.1737
407.5833	0.1568
407.7888	0.1321
407.9942	0.179
408.1997	0.1508
408.4051	0.1667
408.6105	0.1373
408.8159	0.1373
409.0213	0.1665
409.2267	0.1642
409.432	0.1407
409.6374	0.1794
409.8427	0.1551
410.048	0.1589
410.2533	0.166
410.4586	0.1603
410.6639	0.1587
410.8691	0.1539
411.0744	0.166
411.2796	0.1502
411.4848	0.148
411.69	0.144
411.8952	0.1656
412.1004	0.1554
412.3056	0.15
412.5107	0.1468
412.7158	0.1583
412.921	0.1546
413.1261	0.1501
413.3312	0.1541
413.5362	0.1551
413.7413	0.1458
413.9464	0.1567
414.1514	0.1421
414.3564	0.1586
414.5614	0.1416
414.7664	0.1578
414.9714	0.1507
415.1764	0.1565
415.3813	0.1554
415.5863	0.162
415.7912	0.1471
415.9961	0.1566
416.201	0.1461
416.4059	0.1577
416.6108	0.1393
416.8156	0.1673
417.0205	0.1434
417.2253	0.1508
417.4301	0.1539
417.6349	0.1405
417.8397	0.1345
418.0445	0.166
418.2492	0.1455
418.454	0.1554
418.6587	0.152
418.8634	0.1535
419.0681	0.1438
419.2728	0.1428
419.4775	0.1528
419.6822	0.1326
419.8868	0.1223
420.0915	0.148
420.2961	0.1225
420.5007	0.1338
420.7053	0.1482
420.9099	0.1456
421.1144	0.1386
421.319	0.1404
421.5235	0.1469
421.728	0.1543
421.9325	0.1441
422.137	0.1414
422.3415	0.1531
422.546	0.1396
422.7504	0.1328
422.9549	0.1455
423.1593	0.1312
423.3637	0.1407
423.5681	0.1356
423.7725	0.1186
423.9769	0.1231
424.1812	0.1252
424.3856	0.1257
424.5899	0.1443
424.7942	0.119
424.9985	0.137
425.2028	0.1267
425.4071	0.1367
425.6113	0.1143
425.8156	0.1145
426.0198	0.1348
426.224	0.1027
426.4282	0.1307
426.6324	0.1164
