Data from MonoPyChalIsomerACN10uM410nmA_Absorbance_14-53-27-373.txt Node
Date: Fri Jul 05 14:53:27 BST 2024
User: LASERRRRR
Spectrometer: FLMT03099
Trigger mode: 0
Integration Time (sec): 1.000000E-1
Scans to average: 1
Electric dark correction enabled: true
Nonlinearity correction enabled: false
Boxcar width: 0
XAxis mode: Wavelengths
Number of Pixels in Spectrum: 3648
>>>>>Begin Spectral Data<<<<<
179.3399	-0.0733
179.5586	-0.0733
179.7771	-0.0733
179.9957	0.4109
180.2143	-0
180.4329	0.0131
180.6514	-0
180.8699	-0
181.0885	-0.1545
181.307	0.2568
181.5255	-0
181.744	-0.3292
181.9625	-0.5983
182.181	-0
182.3994	-0
182.6179	-0
182.8363	0.1567
183.0547	0.0269
183.2732	-0.0206
183.4916	-0.0011
183.71	0.2577
183.9284	0.1593
184.1467	0.145
184.3651	0.0084
184.5835	0.008
184.8018	0.0403
185.0201	0.067
185.2385	-0.0013
185.4568	0.1907
185.6751	0.2485
185.8934	0.3411
186.1117	-0.0536
186.3299	0.0451
186.5482	0.221
186.7664	-0.135
186.9847	0.0369
187.2029	0.0401
187.4211	0.0982
187.6393	0.3302
187.8575	-0.1826
188.0757	0.1335
188.2939	0.1013
188.512	-0.2933
188.7302	0.3594
188.9483	-0.0553
189.1665	0.0943
189.3846	-0.2686
189.6027	-0.0009
189.8208	0.1257
190.0389	0.0684
190.257	0.1461
190.475	0.3697
190.6931	0.0846
190.9111	0.2934
191.1292	0.168
191.3472	0.3913
191.5652	0.2425
191.7832	0.1802
192.0012	0.3742
192.2192	0.3246
192.4371	0.3864
192.6551	0.6031
192.873	0.5285
193.091	0.4718
193.3089	0.9771
193.5268	0.4921
193.7447	0.5714
193.9626	0.4803
194.1805	0.6515
194.3984	0.6325
194.6162	0.7803
194.8341	0.5045
195.0519	0.386
195.2697	0.7727
195.4875	0.4182
195.7054	0.7907
195.9231	0.477
196.1409	0.6275
196.3587	0.5282
196.5765	0.5248
196.7942	0.555
197.012	0.5054
197.2297	0.5899
197.4474	0.6839
197.6651	0.5567
197.8828	0.5314
198.1005	0.5239
198.3182	0.5149
198.5358	0.7355
198.7535	0.6408
198.9711	0.5184
199.1888	0.716
199.4064	0.8254
199.624	0.6098
199.8416	0.5206
200.0592	0.6187
200.2767	0.5321
200.4943	0.6345
200.7119	0.7805
200.9294	0.7851
201.1469	0.6018
201.3645	0.5776
201.582	0.5436
201.7995	0.6171
202.017	0.5893
202.2344	0.6058
202.4519	0.6845
202.6694	0.6563
202.8868	0.588
203.1042	0.7156
203.3217	0.7076
203.5391	0.5368
203.7565	0.5929
203.9739	0.6133
204.1913	0.6154
204.4086	0.6008
204.626	0.6362
204.8433	0.5678
205.0607	0.7309
205.278	0.6556
205.4953	0.6694
205.7126	0.6349
205.9299	0.7831
206.1472	0.6125
206.3644	0.5716
206.5817	0.6676
206.7989	0.7628
207.0162	0.6704
207.2334	0.6164
207.4506	0.6351
207.6678	0.6333
207.885	0.5498
208.1022	0.6421
208.3194	0.6512
208.5365	0.633
208.7537	0.6393
208.9708	0.5877
209.1879	0.6462
209.405	0.6451
209.6222	0.6859
209.8392	0.6022
210.0563	0.6241
210.2734	0.6946
210.4905	0.6136
210.7075	0.6217
210.9245	0.642
211.1416	0.6853
211.3586	0.5805
211.5756	0.558
211.7926	0.5889
212.0096	0.5625
212.2265	0.5641
212.4435	0.5483
212.6604	0.5725
212.8774	0.6169
213.0943	0.6288
213.3112	0.5467
213.5281	0.5307
213.745	0.4758
213.9619	0.5222
214.1788	0.4516
214.3956	0.4669
214.6125	0.4843
214.8293	0.4375
215.0461	0.4647
215.2629	0.4786
215.4798	0.424
215.6965	0.4128
215.9133	0.4218
216.1301	0.402
216.3469	0.4429
216.5636	0.3958
216.7803	0.3721
216.9971	0.4185
217.2138	0.3499
217.4305	0.3504
217.6472	0.356
217.8639	0.3616
218.0805	0.3363
218.2972	0.3155
218.5138	0.297
218.7305	0.3126
218.9471	0.3054
219.1637	0.285
219.3803	0.2894
219.5969	0.2814
219.8135	0.2552
220.0301	0.2539
220.2466	0.2725
220.4632	0.271
220.6797	0.2136
220.8962	0.2339
221.1127	0.2529
221.3292	0.2446
221.5457	0.2201
221.7622	0.2262
221.9787	0.2352
222.1951	0.2357
222.4116	0.258
222.628	0.2351
222.8444	0.2498
223.0608	0.235
223.2772	0.2484
223.4936	0.2542
223.71	0.2488
223.9264	0.2717
224.1427	0.2403
224.3591	0.2519
224.5754	0.2433
224.7917	0.2611
225.008	0.2491
225.2243	0.2362
225.4406	0.2849
225.6569	0.2592
225.8732	0.2654
226.0894	0.2567
226.3057	0.2491
226.5219	0.2947
226.7381	0.2669
226.9543	0.2784
227.1705	0.2823
227.3867	0.2667
227.6029	0.2981
227.8191	0.2994
228.0352	0.2885
228.2513	0.2921
228.4675	0.3022
228.6836	0.2765
228.8997	0.294
229.1158	0.3274
229.3319	0.3127
229.548	0.2991
229.764	0.3218
229.9801	0.3191
230.1961	0.3102
230.4121	0.3168
230.6282	0.3456
230.8442	0.306
231.0602	0.3496
231.2761	0.3454
231.4921	0.3347
231.7081	0.3439
231.924	0.3191
232.14	0.3654
232.3559	0.3639
232.5718	0.3466
232.7877	0.354
233.0036	0.3311
233.2195	0.3419
233.4353	0.3521
233.6512	0.3639
233.867	0.351
234.0829	0.3583
234.2987	0.3659
234.5145	0.3695
234.7303	0.3581
234.9461	0.3908
235.1619	0.3787
235.3776	0.3675
235.5934	0.3732
235.8091	0.3713
236.0249	0.3727
236.2406	0.3542
236.4563	0.3803
236.672	0.3838
236.8877	0.3887
237.1034	0.3923
237.319	0.368
237.5347	0.3968
237.7503	0.3923
237.966	0.4228
238.1816	0.3911
238.3972	0.3932
238.6128	0.3968
238.8284	0.3959
239.0439	0.4024
239.2595	0.3777
239.475	0.3996
239.6906	0.4003
239.9061	0.3964
240.1216	0.3964
240.3371	0.4014
240.5526	0.4083
240.7681	0.417
240.9836	0.3955
241.199	0.3901
241.4145	0.39
241.6299	0.378
241.8453	0.3781
242.0607	0.404
242.2761	0.3589
242.4915	0.3819
242.7069	0.3664
242.9223	0.3648
243.1376	0.3443
243.353	0.3422
243.5683	0.3437
243.7836	0.3482
243.9989	0.3359
244.2142	0.3035
244.4295	0.3392
244.6448	0.3167
244.86	0.2921
245.0753	0.2832
245.2905	0.2935
245.5057	0.2601
245.721	0.2875
245.9362	0.2789
246.1514	0.2748
246.3665	0.2536
246.5817	0.2686
246.7969	0.25
247.012	0.2386
247.2271	0.2442
247.4423	0.2553
247.6574	0.2453
247.8725	0.2378
248.0876	0.2257
248.3026	0.2328
248.5177	0.228
248.7328	0.2225
248.9478	0.2118
249.1628	0.218
249.3779	0.2191
249.5929	0.2013
249.8079	0.2249
250.0228	0.2094
250.2378	0.2037
250.4528	0.1995
250.6677	0.1958
250.8827	0.2002
251.0976	0.1909
251.3125	0.2044
251.5274	0.1855
251.7423	0.1904
251.9572	0.1903
252.172	0.186
252.3869	0.1765
252.6017	0.1756
252.8166	0.1709
253.0314	0.1648
253.2462	0.1724
253.461	0.1777
253.6758	0.1586
253.8906	0.1754
254.1053	0.168
254.3201	0.165
254.5348	0.175
254.7496	0.1671
254.9643	0.1653
255.179	0.17
255.3937	0.1717
255.6083	0.1697
255.823	0.1847
256.0377	0.1604
256.2523	0.1686
256.467	0.153
256.6816	0.166
256.8962	0.1609
257.1108	0.1448
257.3254	0.1749
257.54	0.1652
257.7545	0.165
257.9691	0.1654
258.1836	0.1532
258.3981	0.1785
258.6127	0.1741
258.8272	0.1623
259.0417	0.1719
259.2561	0.1636
259.4706	0.1763
259.6851	0.1515
259.8995	0.1626
260.114	0.1529
260.3284	0.1569
260.5428	0.1538
260.7572	0.1743
260.9716	0.1613
261.186	0.157
261.4003	0.1601
261.6147	0.165
261.829	0.1595
262.0433	0.1629
262.2577	0.1672
262.472	0.1545
262.6863	0.1587
262.9005	0.1634
263.1148	0.1674
263.3291	0.1402
263.5433	0.153
263.7576	0.1579
263.9718	0.1632
264.186	0.1639
264.4002	0.1627
264.6144	0.1654
264.8286	0.178
265.0427	0.1644
265.2569	0.1548
265.471	0.1471
265.6851	0.1529
265.8993	0.1579
266.1134	0.1664
266.3275	0.1589
266.5415	0.155
266.7556	0.1675
266.9697	0.1624
267.1837	0.1522
267.3978	0.1622
267.6118	0.1773
267.8258	0.1755
268.0398	0.1516
268.2538	0.1601
268.4677	0.1589
268.6817	0.1615
268.8957	0.1717
269.1096	0.1652
269.3235	0.1668
269.5374	0.1526
269.7514	0.1605
269.9652	0.1552
270.1791	0.1521
270.393	0.1532
270.6068	0.1574
270.8207	0.1506
271.0345	0.1468
271.2483	0.1543
271.4622	0.1432
271.676	0.1494
271.8897	0.1411
272.1035	0.1487
272.3173	0.1447
272.531	0.151
272.7448	0.1482
272.9585	0.1391
273.1722	0.1584
273.3859	0.1542
273.5996	0.1487
273.8133	0.1556
274.0269	0.1343
274.2406	0.1432
274.4542	0.1486
274.6679	0.1469
274.8815	0.1552
275.0951	0.1577
275.3087	0.1562
275.5223	0.1518
275.7358	0.1473
275.9494	0.1473
276.1629	0.1406
276.3765	0.1554
276.59	0.1553
276.8035	0.1453
277.017	0.1488
277.2305	0.1466
277.444	0.1472
277.6574	0.1368
277.8709	0.152
278.0843	0.1386
278.2978	0.1583
278.5112	0.1402
278.7246	0.1502
278.938	0.154
279.1513	0.1573
279.3647	0.1589
279.5781	0.1469
279.7914	0.151
280.0047	0.1648
280.2181	0.1528
280.4314	0.1671
280.6447	0.1517
280.8579	0.1547
281.0712	0.1574
281.2845	0.1606
281.4977	0.161
281.711	0.1428
281.9242	0.1555
282.1374	0.1589
282.3506	0.1499
282.5638	0.1664
282.7769	0.1449
282.9901	0.1619
283.2033	0.1623
283.4164	0.169
283.6295	0.1475
283.8426	0.1582
284.0557	0.1568
284.2688	0.1697
284.4819	0.1728
284.695	0.1535
284.908	0.1612
285.1211	0.1599
285.3341	0.1727
285.5471	0.1599
285.7601	0.1617
285.9731	0.1527
286.1861	0.1525
286.3991	0.1663
286.612	0.1696
286.825	0.1691
287.0379	0.1653
287.2508	0.1531
287.4637	0.1659
287.6766	0.14
287.8895	0.165
288.1024	0.1742
288.3152	0.1586
288.5281	0.159
288.7409	0.1611
288.9538	0.1565
289.1666	0.1641
289.3794	0.1601
289.5922	0.1563
289.8049	0.155
290.0177	0.1539
290.2304	0.1616
290.4432	0.1624
290.6559	0.1492
290.8686	0.1655
291.0813	0.1614
291.294	0.1629
291.5067	0.1614
291.7194	0.1534
291.932	0.1648
292.1447	0.1759
292.3573	0.1551
292.5699	0.1608
292.7825	0.1717
292.9951	0.1461
293.2077	0.149
293.4203	0.1571
293.6328	0.1493
293.8454	0.1623
294.0579	0.15
294.2704	0.154
294.4829	0.1371
294.6954	0.153
294.9079	0.1566
295.1204	0.1528
295.3328	0.1552
295.5453	0.1679
295.7577	0.1572
295.9701	0.152
296.1825	0.1577
296.3949	0.1422
296.6073	0.1544
296.8197	0.1516
297.0321	0.1637
297.2444	0.1531
297.4567	0.1574
297.6691	0.1661
297.8814	0.144
298.0937	0.1645
298.306	0.1562
298.5182	0.1544
298.7305	0.1581
298.9428	0.1472
299.155	0.1514
299.3672	0.1534
299.5794	0.1434
299.7916	0.1527
300.0038	0.1601
300.216	0.1562
300.4282	0.162
300.6403	0.1529
300.8525	0.1579
301.0646	0.1393
301.2767	0.1548
301.4888	0.1555
301.7009	0.1508
301.913	0.1554
302.125	0.1552
302.3371	0.1449
302.5491	0.1469
302.7612	0.1563
302.9732	0.1484
303.1852	0.1554
303.3972	0.1548
303.6092	0.1471
303.8211	0.1491
304.0331	0.1441
304.245	0.1521
304.457	0.1427
304.6689	0.1474
304.8808	0.1629
305.0927	0.1531
305.3046	0.1433
305.5164	0.1465
305.7283	0.1396
305.9401	0.1461
306.152	0.1531
306.3638	0.1426
306.5756	0.1383
306.7874	0.1484
306.9992	0.1392
307.2109	0.1354
307.4227	0.1366
307.6344	0.1396
307.8462	0.1409
308.0579	0.1347
308.2696	0.1219
308.4813	0.1227
308.693	0.1297
308.9046	0.1381
309.1163	0.1372
309.328	0.1197
309.5396	0.1167
309.7512	0.1172
309.9628	0.1232
310.1744	0.1278
310.386	0.1141
310.5976	0.1168
310.8091	0.121
311.0207	0.1181
311.2322	0.1202
311.4437	0.0997
311.6552	0.1004
311.8667	0.1124
312.0782	0.1047
312.2897	0.1054
312.5012	0.1125
312.7126	0.1053
312.924	0.107
313.1355	0.1211
313.3469	0.1128
313.5583	0.1092
313.7696	0.1097
313.981	0.1056
314.1924	0.106
314.4037	0.1094
314.6151	0.1132
314.8264	0.1015
315.0377	0.0999
315.249	0.1063
315.4603	0.1191
315.6716	0.0907
315.8828	0.099
316.0941	0.1084
316.3053	0.0938
316.5165	0.0947
316.7277	0.0933
316.9389	0.117
317.1501	0.0954
317.3613	0.0919
317.5724	0.0817
317.7836	0.0965
317.9947	0.1021
318.2058	0.1086
318.417	0.087
318.6281	0.0892
318.8391	0.0851
319.0502	0.0911
319.2613	0.0981
319.4723	0.1049
319.6834	0.1165
319.8944	0.0931
320.1054	0.1078
320.3164	0.1017
320.5274	0.1053
320.7383	0.0994
320.9493	0.1018
321.1602	0.1164
321.3712	0.0924
321.5821	0.0988
321.793	0.0989
322.0039	0.1023
322.2148	0.0964
322.4257	0.1082
322.6365	0.1222
322.8474	0.115
323.0582	0.0964
323.269	0.0983
323.4798	0.1145
323.6906	0.1033
323.9014	0.1063
324.1122	0.1142
324.3229	0.0942
324.5337	0.0993
324.7444	0.1037
324.9551	0.1237
325.1658	0.1109
325.3765	0.1058
325.5872	0.1066
325.7979	0.1031
326.0085	0.1097
326.2192	0.1025
326.4298	0.1055
326.6404	0.0994
326.851	0.0869
327.0616	0.1042
327.2722	0.1138
327.4828	0.1094
327.6933	0.0982
327.9039	0.1085
328.1144	0.1173
328.3249	0.1191
328.5354	0.0993
328.7459	0.1124
328.9564	0.106
329.1669	0.1109
329.3773	0.0987
329.5878	0.1137
329.7982	0.1018
330.0086	0.1092
330.219	0.113
330.4294	0.101
330.6398	0.1074
330.8502	0.109
331.0605	0.1127
331.2708	0.1072
331.4812	0.1073
331.6915	0.1093
331.9018	0.1074
332.1121	0.1047
332.3224	0.1134
332.5326	0.124
332.7429	0.1164
332.9531	0.12
333.1633	0.1073
333.3735	0.1156
333.5837	0.1124
333.7939	0.1054
334.0041	0.1277
334.2143	0.108
334.4244	0.1066
334.6346	0.088
334.8447	0.1111
335.0548	0.1073
335.2649	0.0964
335.475	0.12
335.685	0.1047
335.8951	0.1199
336.1051	0.1239
336.3152	0.1184
336.5252	0.1201
336.7352	0.1148
336.9452	0.1205
337.1552	0.1187
337.3652	0.1131
337.5751	0.1129
337.7851	0.117
337.995	0.1085
338.2049	0.1155
338.4148	0.109
338.6247	0.125
338.8346	0.1147
339.0445	0.102
339.2543	0.1157
339.4642	0.1242
339.674	0.1126
339.8838	0.116
340.0936	0.1219
340.3034	0.135
340.5132	0.1251
340.7229	0.1127
340.9327	0.1191
341.1424	0.1245
341.3522	0.129
341.5619	0.1261
341.7716	0.1233
341.9813	0.1315
342.1909	0.1192
342.4006	0.1272
342.6102	0.1381
342.8199	0.1277
343.0295	0.1243
343.2391	0.1296
343.4487	0.1392
343.6583	0.1224
343.8679	0.12
344.0774	0.1207
344.287	0.137
344.4965	0.1135
344.706	0.1375
344.9155	0.1375
345.125	0.1285
345.3345	0.1297
345.544	0.1196
345.7534	0.1177
345.9629	0.1277
346.1723	0.1367
346.3817	0.1275
346.5911	0.1318
346.8005	0.1212
347.0099	0.1232
347.2193	0.1395
347.4286	0.1323
347.638	0.1473
347.8473	0.1349
348.0566	0.1473
348.2659	0.1412
348.4752	0.1278
348.6845	0.1344
348.8937	0.1274
349.103	0.1538
349.3122	0.1273
349.5214	0.1328
349.7306	0.1271
349.9398	0.1371
350.149	0.1377
350.3582	0.1289
350.5674	0.1386
350.7765	0.1401
350.9856	0.1324
351.1948	0.1304
351.4039	0.1242
351.613	0.1428
351.822	0.1568
352.0311	0.1479
352.2402	0.1457
352.4492	0.16
352.6582	0.1442
352.8672	0.1428
353.0762	0.1504
353.2852	0.1524
353.4942	0.1397
353.7032	0.1608
353.9121	0.1485
354.1211	0.151
354.33	0.1554
354.5389	0.1528
354.7478	0.1424
354.9567	0.1468
355.1655	0.1416
355.3744	0.1522
355.5833	0.1561
355.7921	0.1713
356.0009	0.1387
356.2097	0.1667
356.4185	0.1534
356.6273	0.1557
356.8361	0.1578
357.0448	0.1502
357.2536	0.158
357.4623	0.1455
357.671	0.1807
357.8797	0.1691
358.0884	0.1579
358.2971	0.1579
358.5057	0.1592
358.7144	0.1608
358.923	0.1684
359.1316	0.1657
359.3402	0.1599
359.5488	0.1637
359.7574	0.1616
359.966	0.1762
360.1746	0.185
360.3831	0.1657
360.5916	0.1784
360.8002	0.1725
361.0087	0.1769
361.2172	0.1719
361.4256	0.1751
361.6341	0.1778
361.8426	0.1718
362.051	0.1759
362.2594	0.1816
362.4678	0.1852
362.6762	0.1849
362.8846	0.1848
363.093	0.1892
363.3014	0.1846
363.5097	0.1653
363.718	0.1667
363.9264	0.1949
364.1347	0.1686
364.343	0.1815
364.5513	0.1918
364.7595	0.1948
364.9678	0.1863
365.176	0.1872
365.3842	0.1866
365.5925	0.1938
365.8007	0.1915
366.0089	0.1835
366.217	0.176
366.4252	0.2005
366.6333	0.1983
366.8415	0.1902
367.0496	0.1869
367.2577	0.1902
367.4658	0.2111
367.6739	0.1908
367.882	0.1965
368.09	0.2047
368.2981	0.2044
368.5061	0.2019
368.7141	0.2008
368.9221	0.2124
369.1301	0.204
369.3381	0.2095
369.5461	0.1996
369.754	0.21
369.962	0.2079
370.1699	0.202
370.3778	0.2111
370.5857	0.2037
370.7936	0.2137
371.0015	0.1977
371.2093	0.2167
371.4172	0.2223
371.625	0.1952
371.8328	0.2167
372.0406	0.2246
372.2484	0.198
372.4562	0.2098
372.664	0.2122
372.8717	0.2152
373.0795	0.1934
373.2872	0.2155
373.4949	0.2069
373.7026	0.2157
373.9103	0.2264
374.118	0.2252
374.3256	0.2061
374.5333	0.1974
374.7409	0.215
374.9485	0.2362
375.1561	0.2136
375.3637	0.2125
375.5713	0.2313
375.7789	0.2225
375.9864	0.2212
376.194	0.2111
376.4015	0.2346
376.609	0.2171
376.8165	0.2217
377.024	0.2109
377.2315	0.2211
377.4389	0.2184
377.6464	0.2223
377.8538	0.2206
378.0612	0.2219
378.2686	0.2277
378.476	0.2246
378.6834	0.2263
378.8908	0.2358
379.0981	0.2379
379.3055	0.221
379.5128	0.2037
379.7201	0.2373
379.9274	0.2337
380.1347	0.2386
380.342	0.2614
380.5492	0.2247
380.7565	0.2291
380.9637	0.2445
381.1709	0.2238
381.3781	0.2412
381.5853	0.2421
381.7925	0.2226
381.9997	0.2383
382.2068	0.2472
382.4139	0.235
382.6211	0.2365
382.8282	0.2265
383.0353	0.2341
383.2424	0.2369
383.4494	0.2366
383.6565	0.2267
383.8635	0.2288
384.0706	0.2353
384.2776	0.2435
384.4846	0.2216
384.6916	0.2362
384.8986	0.2304
385.1055	0.2415
385.3125	0.2479
385.5194	0.2186
385.7263	0.2522
385.9333	0.2384
386.1402	0.2338
386.347	0.2361
386.5539	0.227
386.7608	0.2443
386.9676	0.2391
387.1744	0.2324
387.3813	0.2345
387.5881	0.2284
387.7948	0.2257
388.0016	0.2372
388.2084	0.226
388.4151	0.2185
388.6219	0.2345
388.8286	0.2347
389.0353	0.2469
389.242	0.2305
389.4487	0.2223
389.6553	0.2017
389.862	0.2137
390.0686	0.2322
390.2753	0.2364
390.4819	0.2363
390.6885	0.229
390.8951	0.2253
391.1016	0.2076
391.3082	0.212
391.5147	0.2166
391.7213	0.2133
391.9278	0.1955
392.1343	0.2019
392.3408	0.2169
392.5473	0.2133
392.7537	0.1924
392.9602	0.2262
393.1666	0.2046
393.373	0.2047
393.5794	0.2101
393.7858	0.2121
393.9922	0.1976
394.1986	0.2231
394.4049	0.2124
394.6113	0.19
394.8176	0.2104
395.0239	0.2028
395.2302	0.1947
395.4365	0.2043
395.6428	0.2037
395.8491	0.1822
396.0553	0.2019
396.2615	0.1861
396.4678	0.1949
396.674	0.1916
396.8802	0.2024
397.0863	0.2066
397.2925	0.1936
397.4987	0.1895
397.7048	0.2005
397.9109	0.1944
398.117	0.1959
398.3231	0.1959
398.5292	0.1897
398.7353	0.2053
398.9413	0.1925
399.1474	0.1884
399.3534	0.2022
399.5594	0.1774
399.7654	0.1939
399.9714	0.2075
400.1774	0.1982
400.3833	0.1876
400.5893	0.1914
400.7952	0.1941
401.0011	0.1972
401.207	0.2001
401.4129	0.1983
401.6188	0.2084
401.8247	0.1969
402.0305	0.1833
402.2364	0.2032
402.4422	0.1952
402.648	0.2129
402.8538	0.2002
403.0596	0.186
403.2654	0.1928
403.4711	0.1842
403.6768	0.2007
403.8826	0.1982
404.0883	0.211
404.294	0.1953
404.4997	0.1944
404.7054	0.2004
404.911	0.1767
405.1167	0.1898
405.3223	0.2007
405.5279	0.1863
405.7335	0.226
405.9391	0.1985
406.1447	0.178
406.3502	0.2189
406.5558	0.1727
406.7613	0.1983
406.9668	0.2084
407.1724	0.1871
407.3778	0.197
407.5833	0.1799
407.7888	0.1801
407.9942	0.2091
408.1997	0.1792
408.4051	0.1918
408.6105	0.1951
408.8159	0.1946
409.0213	0.192
409.2267	0.1939
409.432	0.1891
409.6374	0.1969
409.8427	0.1774
410.048	0.1885
410.2533	0.1875
410.4586	0.1789
410.6639	0.169
410.8691	0.1773
411.0744	0.1816
411.2796	0.1752
411.4848	0.1844
411.69	0.1694
411.8952	0.1967
412.1004	0.1878
412.3056	0.2038
412.5107	0.1887
412.7158	0.2039
412.921	0.1861
413.1261	0.1968
413.3312	0.1573
413.5362	0.1909
413.7413	0.1721
413.9464	0.1909
414.1514	0.1807
414.3564	0.1877
414.5614	0.1718
414.7664	0.1764
414.9714	0.1868
415.1764	0.1925
415.3813	0.1966
415.5863	0.1879
415.7912	0.1759
415.9961	0.1795
416.201	0.1945
416.4059	0.183
416.6108	0.1717
416.8156	0.1875
417.0205	0.1719
417.2253	0.1753
417.4301	0.1785
417.6349	0.1815
417.8397	0.2001
418.0445	0.181
418.2492	0.1756
418.454	0.1877
418.6587	0.1825
418.8634	0.1898
419.0681	0.1481
419.2728	0.1718
419.4775	0.1679
419.6822	0.1561
419.8868	0.1546
420.0915	0.1537
420.2961	0.1681
420.5007	0.1716
420.7053	0.1819
420.9099	0.1836
421.1144	0.1821
421.319	0.1606
421.5235	0.1813
421.728	0.1699
421.9325	0.1731
422.137	0.1802
422.3415	0.1805
422.546	0.1732
422.7504	0.1613
422.9549	0.1801
423.1593	0.1628
423.3637	0.1841
423.5681	0.1634
423.7725	0.149
423.9769	0.17
424.1812	0.1441
424.3856	0.1716
424.5899	0.1709
424.7942	0.155
424.9985	0.1634
425.2028	0.14
425.4071	0.1713
425.6113	0.1408
425.8156	0.1661
426.0198	0.1651
426.224	0.1436
426.4282	0.1343
426.6324	0.1474
