Data from MonoPyChalIsomerACN10uM410nmA_Absorbance_14-53-26-573.txt Node
Date: Fri Jul 05 14:53:26 BST 2024
User: LASERRRRR
Spectrometer: FLMT03099
Trigger mode: 0
Integration Time (sec): 1.000000E-1
Scans to average: 1
Electric dark correction enabled: true
Nonlinearity correction enabled: false
Boxcar width: 0
XAxis mode: Wavelengths
Number of Pixels in Spectrum: 3648
>>>>>Begin Spectral Data<<<<<
179.3399	0.0201
179.5586	0.0201
179.7771	0.0201
179.9957	0.3084
180.2143	-0
180.4329	-0.0952
180.6514	-0
180.8699	-0
181.0885	-0.3082
181.307	0.8235
181.5255	-0.6557
181.744	-0.7053
181.9625	-0
182.181	-1.0132
182.3994	-0
182.6179	-0
182.8363	0.3075
183.0547	0.0126
183.2732	-0.0674
183.4916	-0.0547
183.71	0.1098
183.9284	0.0645
184.1467	-0.18
184.3651	0.0828
184.5835	-0.0597
184.8018	0.1886
185.0201	0.2151
185.2385	0.02
185.4568	0.0284
185.6751	0.1176
185.8934	0.3418
186.1117	0.0303
186.3299	0.1061
186.5482	-0.0096
186.7664	-0.0709
186.9847	-0.1265
187.2029	0.1186
187.4211	0.1672
187.6393	-0.0215
187.8575	-0.0406
188.0757	0.2112
188.2939	0.085
188.512	-0.0247
188.7302	-0.071
188.9483	0.0319
189.1665	0.1781
189.3846	-0.1768
189.6027	0.0622
189.8208	0.3168
190.0389	0.1722
190.257	0.0845
190.475	0.1849
190.6931	0.1051
190.9111	0.2455
191.1292	0.2109
191.3472	0.3457
191.5652	0.375
191.7832	0.3158
192.0012	0.5324
192.2192	0.2967
192.4371	0.2469
192.6551	0.3211
192.873	0.3897
193.091	0.4145
193.3089	0.4861
193.5268	0.6678
193.7447	0.5111
193.9626	0.4363
194.1805	0.6925
194.3984	0.5607
194.6162	0.4932
194.8341	0.5715
195.0519	0.6451
195.2697	0.6322
195.4875	0.6576
195.7054	0.5703
195.9231	0.4742
196.1409	0.6008
196.3587	0.5917
196.5765	0.6672
196.7942	0.7045
197.012	0.5297
197.2297	0.5864
197.4474	0.6155
197.6651	0.5133
197.8828	0.6369
198.1005	0.6417
198.3182	0.5436
198.5358	0.7399
198.7535	0.641
198.9711	0.4464
199.1888	0.7127
199.4064	0.7754
199.624	0.5813
199.8416	0.6247
200.0592	0.7239
200.2767	0.6486
200.4943	0.6104
200.7119	0.7438
200.9294	0.6124
201.1469	0.612
201.3645	0.6239
201.582	0.6259
201.7995	0.6284
202.017	0.6148
202.2344	0.5435
202.4519	0.6766
202.6694	0.662
202.8868	0.5484
203.1042	0.749
203.3217	0.7137
203.5391	0.6323
203.7565	0.6705
203.9739	0.6716
204.1913	0.6526
204.4086	0.6405
204.626	0.6992
204.8433	0.5731
205.0607	0.6784
205.278	0.632
205.4953	0.6696
205.7126	0.6697
205.9299	0.8063
206.1472	0.6392
206.3644	0.6072
206.5817	0.6817
206.7989	0.7297
207.0162	0.6562
207.2334	0.702
207.4506	0.6537
207.6678	0.617
207.885	0.6439
208.1022	0.6609
208.3194	0.6545
208.5365	0.6204
208.7537	0.6846
208.9708	0.5773
209.1879	0.5704
209.405	0.6436
209.6222	0.6969
209.8392	0.6343
210.0563	0.6198
210.2734	0.6622
210.4905	0.7101
210.7075	0.6247
210.9245	0.5805
211.1416	0.662
211.3586	0.6055
211.5756	0.6241
211.7926	0.6435
212.0096	0.6311
212.2265	0.5587
212.4435	0.5864
212.6604	0.6075
212.8774	0.5601
213.0943	0.5793
213.3112	0.491
213.5281	0.5346
213.745	0.5354
213.9619	0.5195
214.1788	0.4834
214.3956	0.4537
214.6125	0.4589
214.8293	0.4426
215.0461	0.4475
215.2629	0.4148
215.4798	0.4835
215.6965	0.4287
215.9133	0.4102
216.1301	0.4138
216.3469	0.439
216.5636	0.4284
216.7803	0.3614
216.9971	0.4553
217.2138	0.373
217.4305	0.3701
217.6472	0.374
217.8639	0.3643
218.0805	0.3329
218.2972	0.3137
218.5138	0.3035
218.7305	0.3117
218.9471	0.3236
219.1637	0.2829
219.3803	0.2965
219.5969	0.2768
219.8135	0.2685
220.0301	0.2621
220.2466	0.2794
220.4632	0.2611
220.6797	0.2322
220.8962	0.2366
221.1127	0.2784
221.3292	0.2519
221.5457	0.2475
221.7622	0.2327
221.9787	0.2644
222.1951	0.241
222.4116	0.2577
222.628	0.2557
222.8444	0.2603
223.0608	0.25
223.2772	0.2592
223.4936	0.2691
223.71	0.2357
223.9264	0.2538
224.1427	0.2345
224.3591	0.2483
224.5754	0.2684
224.7917	0.2632
225.008	0.2784
225.2243	0.248
225.4406	0.2755
225.6569	0.2722
225.8732	0.2666
226.0894	0.2636
226.3057	0.2662
226.5219	0.2792
226.7381	0.27
226.9543	0.2815
227.1705	0.2756
227.3867	0.2802
227.6029	0.2995
227.8191	0.2944
228.0352	0.2896
228.2513	0.307
228.4675	0.3163
228.6836	0.3063
228.8997	0.3123
229.1158	0.3224
229.3319	0.3052
229.548	0.3148
229.764	0.3224
229.9801	0.3222
230.1961	0.3218
230.4121	0.3209
230.6282	0.3318
230.8442	0.3175
231.0602	0.3491
231.2761	0.3279
231.4921	0.3326
231.7081	0.3257
231.924	0.3393
232.14	0.3513
232.3559	0.3354
232.5718	0.342
232.7877	0.3533
233.0036	0.3416
233.2195	0.3558
233.4353	0.3473
233.6512	0.3585
233.867	0.3588
234.0829	0.3678
234.2987	0.3719
234.5145	0.369
234.7303	0.3424
234.9461	0.3812
235.1619	0.3782
235.3776	0.3782
235.5934	0.363
235.8091	0.3602
236.0249	0.4022
236.2406	0.3813
236.4563	0.3644
236.672	0.3782
236.8877	0.3906
237.1034	0.3912
237.319	0.3943
237.5347	0.3958
237.7503	0.386
237.966	0.3904
238.1816	0.398
238.3972	0.3874
238.6128	0.3931
238.8284	0.3954
239.0439	0.4158
239.2595	0.3897
239.475	0.417
239.6906	0.4305
239.9061	0.3878
240.1216	0.3781
240.3371	0.4092
240.5526	0.3934
240.7681	0.4088
240.9836	0.3933
241.199	0.4064
241.4145	0.3833
241.6299	0.387
241.8453	0.3758
242.0607	0.3713
242.2761	0.3625
242.4915	0.3652
242.7069	0.372
242.9223	0.3869
243.1376	0.3409
243.353	0.3481
243.5683	0.3478
243.7836	0.3249
243.9989	0.3286
244.2142	0.3226
244.4295	0.3067
244.6448	0.3176
244.86	0.295
245.0753	0.2899
245.2905	0.2934
245.5057	0.2766
245.721	0.271
245.9362	0.2636
246.1514	0.2713
246.3665	0.2629
246.5817	0.2524
246.7969	0.2437
247.012	0.2455
247.2271	0.2272
247.4423	0.2503
247.6574	0.232
247.8725	0.2436
248.0876	0.2319
248.3026	0.2247
248.5177	0.224
248.7328	0.2087
248.9478	0.2143
249.1628	0.2135
249.3779	0.2157
249.5929	0.2012
249.8079	0.2118
250.0228	0.2016
250.2378	0.1977
250.4528	0.203
250.6677	0.1769
250.8827	0.2023
251.0976	0.1922
251.3125	0.1794
251.5274	0.1737
251.7423	0.1743
251.9572	0.1932
252.172	0.1714
252.3869	0.1819
252.6017	0.1727
252.8166	0.1684
253.0314	0.1637
253.2462	0.1667
253.461	0.1645
253.6758	0.1729
253.8906	0.1695
254.1053	0.1625
254.3201	0.1677
254.5348	0.1714
254.7496	0.1755
254.9643	0.1705
255.179	0.1624
255.3937	0.1579
255.6083	0.1759
255.823	0.1687
256.0377	0.1589
256.2523	0.1654
256.467	0.1579
256.6816	0.1726
256.8962	0.1713
257.1108	0.1606
257.3254	0.1687
257.54	0.1531
257.7545	0.1756
257.9691	0.1671
258.1836	0.1737
258.3981	0.1746
258.6127	0.1754
258.8272	0.1473
259.0417	0.1605
259.2561	0.1538
259.4706	0.1542
259.6851	0.161
259.8995	0.1578
260.114	0.163
260.3284	0.1577
260.5428	0.1594
260.7572	0.1672
260.9716	0.165
261.186	0.1685
261.4003	0.1592
261.6147	0.1685
261.829	0.1601
262.0433	0.1618
262.2577	0.158
262.472	0.163
262.6863	0.1542
262.9005	0.1684
263.1148	0.174
263.3291	0.1528
263.5433	0.1594
263.7576	0.1536
263.9718	0.1658
264.186	0.1676
264.4002	0.165
264.6144	0.1639
264.8286	0.1714
265.0427	0.1677
265.2569	0.1527
265.471	0.1512
265.6851	0.1587
265.8993	0.1501
266.1134	0.1566
266.3275	0.1536
266.5415	0.1563
266.7556	0.1611
266.9697	0.1571
267.1837	0.1685
267.3978	0.1651
267.6118	0.1765
267.8258	0.1562
268.0398	0.1543
268.2538	0.1759
268.4677	0.1696
268.6817	0.1537
268.8957	0.1629
269.1096	0.1498
269.3235	0.1672
269.5374	0.1562
269.7514	0.1626
269.9652	0.161
270.1791	0.149
270.393	0.1513
270.6068	0.1472
270.8207	0.1585
271.0345	0.1328
271.2483	0.1599
271.4622	0.1571
271.676	0.1579
271.8897	0.1543
272.1035	0.1479
272.3173	0.1478
272.531	0.148
272.7448	0.1459
272.9585	0.1389
273.1722	0.1484
273.3859	0.1479
273.5996	0.1278
273.8133	0.1605
274.0269	0.1471
274.2406	0.1374
274.4542	0.1406
274.6679	0.1526
274.8815	0.1434
275.0951	0.1515
275.3087	0.1547
275.5223	0.1663
275.7358	0.1486
275.9494	0.1472
276.1629	0.1436
276.3765	0.1435
276.59	0.1415
276.8035	0.1527
277.017	0.1438
277.2305	0.1372
277.444	0.1538
277.6574	0.1555
277.8709	0.1508
278.0843	0.1428
278.2978	0.1503
278.5112	0.1357
278.7246	0.1458
278.938	0.1482
279.1513	0.1434
279.3647	0.1566
279.5781	0.1496
279.7914	0.1581
280.0047	0.1647
280.2181	0.1521
280.4314	0.1566
280.6447	0.1579
280.8579	0.1516
281.0712	0.151
281.2845	0.1566
281.4977	0.147
281.711	0.1423
281.9242	0.1495
282.1374	0.1539
282.3506	0.1546
282.5638	0.1577
282.7769	0.1578
282.9901	0.1475
283.2033	0.1589
283.4164	0.1647
283.6295	0.1513
283.8426	0.1449
284.0557	0.1584
284.2688	0.1641
284.4819	0.153
284.695	0.1523
284.908	0.1601
285.1211	0.1545
285.3341	0.1497
285.5471	0.1642
285.7601	0.1573
285.9731	0.1459
286.1861	0.1498
286.3991	0.1678
286.612	0.1636
286.825	0.1638
287.0379	0.161
287.2508	0.1446
287.4637	0.1642
287.6766	0.1514
287.8895	0.154
288.1024	0.1793
288.3152	0.1724
288.5281	0.1448
288.7409	0.1714
288.9538	0.1642
289.1666	0.1613
289.3794	0.1629
289.5922	0.1621
289.8049	0.1484
290.0177	0.1526
290.2304	0.1589
290.4432	0.1715
290.6559	0.1607
290.8686	0.1625
291.0813	0.1594
291.294	0.1585
291.5067	0.1606
291.7194	0.157
291.932	0.162
292.1447	0.1633
292.3573	0.1489
292.5699	0.1657
292.7825	0.1721
292.9951	0.1485
293.2077	0.1561
293.4203	0.1538
293.6328	0.1422
293.8454	0.1661
294.0579	0.1642
294.2704	0.1609
294.4829	0.1557
294.6954	0.1561
294.9079	0.1555
295.1204	0.1524
295.3328	0.15
295.5453	0.1663
295.7577	0.1514
295.9701	0.1449
296.1825	0.1565
296.3949	0.1646
296.6073	0.1466
296.8197	0.1523
297.0321	0.1706
297.2444	0.1569
297.4567	0.1545
297.6691	0.1604
297.8814	0.1468
298.0937	0.1449
298.306	0.1591
298.5182	0.1629
298.7305	0.1525
298.9428	0.1565
299.155	0.159
299.3672	0.1545
299.5794	0.1505
299.7916	0.1476
300.0038	0.1601
300.216	0.1672
300.4282	0.1547
300.6403	0.1565
300.8525	0.169
301.0646	0.1628
301.2767	0.165
301.4888	0.164
301.7009	0.1602
301.913	0.1505
302.125	0.1602
302.3371	0.1652
302.5491	0.1607
302.7612	0.1657
302.9732	0.1624
303.1852	0.1615
303.3972	0.168
303.6092	0.1507
303.8211	0.1431
304.0331	0.1426
304.245	0.1567
304.457	0.1475
304.6689	0.1484
304.8808	0.1541
305.0927	0.1457
305.3046	0.1483
305.5164	0.151
305.7283	0.1375
305.9401	0.1396
306.152	0.1521
306.3638	0.1499
306.5756	0.1436
306.7874	0.1354
306.9992	0.1498
307.2109	0.1392
307.4227	0.127
307.6344	0.1406
307.8462	0.1294
308.0579	0.1271
308.2696	0.1332
308.4813	0.1302
308.693	0.1307
308.9046	0.1292
309.1163	0.1278
309.328	0.1276
309.5396	0.1216
309.7512	0.1179
309.9628	0.1193
310.1744	0.1259
310.386	0.1186
310.5976	0.1106
310.8091	0.1163
311.0207	0.1158
311.2322	0.1071
311.4437	0.1142
311.6552	0.1034
311.8667	0.1208
312.0782	0.1009
312.2897	0.1037
312.5012	0.1135
312.7126	0.1067
312.924	0.0998
313.1355	0.1091
313.3469	0.1078
313.5583	0.1088
313.7696	0.1116
313.981	0.0917
314.1924	0.1024
314.4037	0.0989
314.6151	0.1065
314.8264	0.1019
315.0377	0.0968
315.249	0.1112
315.4603	0.1043
315.6716	0.1066
315.8828	0.1011
316.0941	0.0999
316.3053	0.1062
316.5165	0.0883
316.7277	0.0938
316.9389	0.1065
317.1501	0.0877
317.3613	0.1046
317.5724	0.0809
317.7836	0.1071
317.9947	0.0984
318.2058	0.0981
318.417	0.0842
318.6281	0.0884
318.8391	0.088
319.0502	0.0855
319.2613	0.0938
319.4723	0.1161
319.6834	0.1097
319.8944	0.0915
320.1054	0.093
320.3164	0.1007
320.5274	0.0955
320.7383	0.0902
320.9493	0.0954
321.1602	0.115
321.3712	0.0836
321.5821	0.0999
321.793	0.0972
322.0039	0.0929
322.2148	0.1011
322.4257	0.0945
322.6365	0.1067
322.8474	0.1079
323.0582	0.0982
323.269	0.1001
323.4798	0.0997
323.6906	0.0977
323.9014	0.1055
324.1122	0.1029
324.3229	0.098
324.5337	0.105
324.7444	0.0908
324.9551	0.1167
325.1658	0.1098
325.3765	0.1076
325.5872	0.1046
325.7979	0.101
326.0085	0.1113
326.2192	0.1203
326.4298	0.103
326.6404	0.1048
326.851	0.0997
327.0616	0.0964
327.2722	0.1022
327.4828	0.1046
327.6933	0.1037
327.9039	0.1126
328.1144	0.1186
328.3249	0.1041
328.5354	0.0947
328.7459	0.0981
328.9564	0.0934
329.1669	0.1041
329.3773	0.1067
329.5878	0.1116
329.7982	0.0956
330.0086	0.1059
330.219	0.116
330.4294	0.0982
330.6398	0.0932
330.8502	0.1047
331.0605	0.1112
331.2708	0.1106
331.4812	0.1138
331.6915	0.107
331.9018	0.0965
332.1121	0.1082
332.3224	0.1112
332.5326	0.1159
332.7429	0.1047
332.9531	0.1158
333.1633	0.1079
333.3735	0.1035
333.5837	0.1054
333.7939	0.1093
334.0041	0.1132
334.2143	0.1193
334.4244	0.0993
334.6346	0.0937
334.8447	0.1241
335.0548	0.1025
335.2649	0.0961
335.475	0.1183
335.685	0.1
335.8951	0.1204
336.1051	0.1131
336.3152	0.1216
336.5252	0.1073
336.7352	0.1177
336.9452	0.1127
337.1552	0.1193
337.3652	0.0976
337.5751	0.1086
337.7851	0.1088
337.995	0.0946
338.2049	0.1181
338.4148	0.1131
338.6247	0.1199
338.8346	0.1032
339.0445	0.1077
339.2543	0.1199
339.4642	0.1207
339.674	0.1134
339.8838	0.1156
340.0936	0.1114
340.3034	0.1207
340.5132	0.1208
340.7229	0.1195
340.9327	0.1197
341.1424	0.1078
341.3522	0.1241
341.5619	0.114
341.7716	0.1319
341.9813	0.1183
342.1909	0.1237
342.4006	0.1224
342.6102	0.1384
342.8199	0.113
343.0295	0.1266
343.2391	0.1336
343.4487	0.1352
343.6583	0.1162
343.8679	0.1237
344.0774	0.1183
344.287	0.1269
344.4965	0.1127
344.706	0.1373
344.9155	0.1274
345.125	0.1216
345.3345	0.1164
345.544	0.1352
345.7534	0.1306
345.9629	0.1254
346.1723	0.1231
346.3817	0.1245
346.5911	0.1302
346.8005	0.1319
347.0099	0.1284
347.2193	0.1406
347.4286	0.1239
347.638	0.1334
347.8473	0.1391
348.0566	0.1264
348.2659	0.1341
348.4752	0.1423
348.6845	0.1265
348.8937	0.1314
349.103	0.1464
349.3122	0.1297
349.5214	0.1296
349.7306	0.1417
349.9398	0.1332
350.149	0.1427
350.3582	0.1274
350.5674	0.1556
350.7765	0.1312
350.9856	0.1374
351.1948	0.1295
351.4039	0.1341
351.613	0.1407
351.822	0.1394
352.0311	0.1478
352.2402	0.1426
352.4492	0.1512
352.6582	0.1446
352.8672	0.1325
353.0762	0.1492
353.2852	0.1361
353.4942	0.1444
353.7032	0.1371
353.9121	0.1507
354.1211	0.1444
354.33	0.1424
354.5389	0.1455
354.7478	0.1505
354.9567	0.1431
355.1655	0.1402
355.3744	0.1573
355.5833	0.1551
355.7921	0.1644
356.0009	0.1573
356.2097	0.171
356.4185	0.1647
356.6273	0.1621
356.8361	0.1607
357.0448	0.1419
357.2536	0.1459
357.4623	0.1588
357.671	0.1797
357.8797	0.1687
358.0884	0.1631
358.2971	0.1715
358.5057	0.1737
358.7144	0.1656
358.923	0.1663
359.1316	0.1577
359.3402	0.1687
359.5488	0.1699
359.7574	0.1669
359.966	0.1803
360.1746	0.1722
360.3831	0.1793
360.5916	0.1644
360.8002	0.1722
361.0087	0.187
361.2172	0.1728
361.4256	0.177
361.6341	0.1835
361.8426	0.1731
362.051	0.1836
362.2594	0.1832
362.4678	0.1702
362.6762	0.2007
362.8846	0.1813
363.093	0.1671
363.3014	0.1852
363.5097	0.1637
363.718	0.176
363.9264	0.185
364.1347	0.1927
364.343	0.199
364.5513	0.1851
364.7595	0.2047
364.9678	0.1885
365.176	0.194
365.3842	0.1968
365.5925	0.1928
365.8007	0.2021
366.0089	0.1956
366.217	0.1797
366.4252	0.2048
366.6333	0.199
366.8415	0.203
367.0496	0.1794
367.2577	0.2116
367.4658	0.1991
367.6739	0.1972
367.882	0.1969
368.09	0.2047
368.2981	0.1993
368.5061	0.2061
368.7141	0.1906
368.9221	0.2173
369.1301	0.1969
369.3381	0.2086
369.5461	0.193
369.754	0.2194
369.962	0.2078
370.1699	0.2181
370.3778	0.2165
370.5857	0.2027
370.7936	0.2093
371.0015	0.2124
371.2093	0.206
371.4172	0.2206
371.625	0.2104
371.8328	0.2041
372.0406	0.2182
372.2484	0.2158
372.4562	0.2147
372.664	0.2179
372.8717	0.2242
373.0795	0.2011
373.2872	0.2252
373.4949	0.2173
373.7026	0.2209
373.9103	0.2289
374.118	0.2333
374.3256	0.2268
374.5333	0.2085
374.7409	0.2235
374.9485	0.2309
375.1561	0.2298
375.3637	0.2322
375.5713	0.232
375.7789	0.2329
375.9864	0.2153
376.194	0.213
376.4015	0.2425
376.609	0.2325
376.8165	0.2235
377.024	0.2276
377.2315	0.22
377.4389	0.2361
377.6464	0.2215
377.8538	0.2361
378.0612	0.2251
378.2686	0.2332
378.476	0.2422
378.6834	0.2202
378.8908	0.2328
379.0981	0.248
379.3055	0.2433
379.5128	0.2354
379.7201	0.2513
379.9274	0.2285
380.1347	0.2519
380.342	0.2563
380.5492	0.233
380.7565	0.2306
380.9637	0.2441
381.1709	0.221
381.3781	0.2406
381.5853	0.2515
381.7925	0.2521
381.9997	0.2526
382.2068	0.2583
382.4139	0.2585
382.6211	0.2548
382.8282	0.2589
383.0353	0.2189
383.2424	0.2395
383.4494	0.2366
383.6565	0.2489
383.8635	0.2369
384.0706	0.2435
384.2776	0.244
384.4846	0.2246
384.6916	0.2525
384.8986	0.235
385.1055	0.2436
385.3125	0.2544
385.5194	0.231
385.7263	0.2629
385.9333	0.2564
386.1402	0.2483
386.347	0.233
386.5539	0.2406
386.7608	0.2431
386.9676	0.2353
387.1744	0.2368
387.3813	0.2477
387.5881	0.2375
387.7948	0.2447
388.0016	0.235
388.2084	0.2436
388.4151	0.233
388.6219	0.2522
388.8286	0.2366
389.0353	0.2597
389.242	0.2411
389.4487	0.209
389.6553	0.2172
389.862	0.2128
390.0686	0.2293
390.2753	0.2205
390.4819	0.2347
390.6885	0.2185
390.8951	0.2351
391.1016	0.2287
391.3082	0.2266
391.5147	0.2257
391.7213	0.2292
391.9278	0.217
392.1343	0.2201
392.3408	0.2257
392.5473	0.2254
392.7537	0.2253
392.9602	0.2199
393.1666	0.2283
393.373	0.2272
393.5794	0.2279
393.7858	0.2196
393.9922	0.2045
394.1986	0.2245
394.4049	0.2252
394.6113	0.2116
394.8176	0.2076
395.0239	0.2176
395.2302	0.2041
395.4365	0.2088
395.6428	0.2093
395.8491	0.202
396.0553	0.2156
396.2615	0.183
396.4678	0.208
396.674	0.1932
396.8802	0.2026
397.0863	0.2234
397.2925	0.1968
397.4987	0.1944
397.7048	0.2056
397.9109	0.2038
398.117	0.1967
398.3231	0.2111
398.5292	0.2227
398.7353	0.2022
398.9413	0.2038
399.1474	0.1956
399.3534	0.1945
399.5594	0.194
399.7654	0.2052
399.9714	0.2187
400.1774	0.1989
400.3833	0.1876
400.5893	0.2025
400.7952	0.2034
401.0011	0.1919
401.207	0.2019
401.4129	0.2032
401.6188	0.2069
401.8247	0.2221
402.0305	0.2016
402.2364	0.1898
402.4422	0.2068
402.648	0.2093
402.8538	0.213
403.0596	0.1986
403.2654	0.1959
403.4711	0.1871
403.6768	0.1937
403.8826	0.2113
404.0883	0.2042
404.294	0.196
404.4997	0.204
404.7054	0.2019
404.911	0.1968
405.1167	0.2002
405.3223	0.2285
405.5279	0.2188
405.7335	0.2039
405.9391	0.198
406.1447	0.1886
406.3502	0.2271
406.5558	0.1914
406.7613	0.2075
406.9668	0.2116
407.1724	0.2003
407.3778	0.1938
407.5833	0.1899
407.7888	0.1732
407.9942	0.2002
408.1997	0.1887
408.4051	0.183
408.6105	0.2008
408.8159	0.2063
409.0213	0.1805
409.2267	0.2173
409.432	0.1826
409.6374	0.2033
409.8427	0.1891
410.048	0.1973
410.2533	0.1798
410.4586	0.1984
410.6639	0.1868
410.8691	0.1776
411.0744	0.1885
411.2796	0.1918
411.4848	0.194
411.69	0.1808
411.8952	0.2171
412.1004	0.1788
412.3056	0.1994
412.5107	0.1903
412.7158	0.206
412.921	0.1797
413.1261	0.1941
413.3312	0.1852
413.5362	0.1909
413.7413	0.1952
413.9464	0.1895
414.1514	0.206
414.3564	0.198
414.5614	0.1783
414.7664	0.1926
414.9714	0.1811
415.1764	0.194
415.3813	0.1926
415.5863	0.1848
415.7912	0.1918
415.9961	0.2082
416.201	0.1947
416.4059	0.1901
416.6108	0.1771
416.8156	0.1926
417.0205	0.1745
417.2253	0.196
417.4301	0.1901
417.6349	0.1656
417.8397	0.1805
418.0445	0.2043
418.2492	0.1903
418.454	0.1867
418.6587	0.185
418.8634	0.1881
419.0681	0.1637
419.2728	0.1772
419.4775	0.1688
419.6822	0.1862
419.8868	0.1654
420.0915	0.1944
420.2961	0.1738
420.5007	0.1675
420.7053	0.1843
420.9099	0.1683
421.1144	0.203
421.319	0.1815
421.5235	0.1944
421.728	0.1739
421.9325	0.1777
422.137	0.1938
422.3415	0.1666
422.546	0.2007
422.7504	0.1794
422.9549	0.1948
423.1593	0.1759
423.3637	0.1903
423.5681	0.1686
423.7725	0.1625
423.9769	0.1622
424.1812	0.1655
424.3856	0.1567
424.5899	0.1703
424.7942	0.177
424.9985	0.1674
425.2028	0.1644
425.4071	0.1789
425.6113	0.1674
425.8156	0.1529
426.0198	0.1683
426.224	0.1335
426.4282	0.1513
