Data from MonoPyChalIsomerACN10uM410nmA_Absorbance_14-53-27-173.txt Node
Date: Fri Jul 05 14:53:27 BST 2024
User: LASERRRRR
Spectrometer: FLMT03099
Trigger mode: 0
Integration Time (sec): 1.000000E-1
Scans to average: 1
Electric dark correction enabled: true
Nonlinearity correction enabled: false
Boxcar width: 0
XAxis mode: Wavelengths
Number of Pixels in Spectrum: 3648
>>>>>Begin Spectral Data<<<<<
179.3399	0.1671
179.5586	0.1671
179.7771	0.1671
179.9957	-0
180.2143	-0
180.4329	-0.2368
180.6514	-0
180.8699	0.3811
181.0885	0.0341
181.307	0.027
181.5255	-0
181.744	-0
181.9625	-0
182.181	-0.4715
182.3994	-0
182.6179	-0.0455
182.8363	0.1952
183.0547	-0.2546
183.2732	-0.0573
183.4916	0.0866
183.71	0.0573
183.9284	0.0121
184.1467	-0.2496
184.3651	-0.0106
184.5835	-0.1582
184.8018	0.6166
185.0201	-0.0559
185.2385	-0.0402
185.4568	0.0592
185.6751	-0.1036
185.8934	0.3252
186.1117	-0.0192
186.3299	0.0574
186.5482	0.041
186.7664	-0.0672
186.9847	-0.0361
187.2029	0.0621
187.4211	0.0354
187.6393	0.3081
187.8575	0.0355
188.0757	0.1879
188.2939	0.2734
188.512	0.3286
188.7302	0.1188
188.9483	-0.1415
189.1665	0.134
189.3846	-0.3552
189.6027	0.1168
189.8208	0.0727
190.0389	0.0111
190.257	0.1545
190.475	0.1108
190.6931	0.1173
190.9111	0.2767
191.1292	0.1522
191.3472	0.3117
191.5652	0.1236
191.7832	0.1382
192.0012	0.3845
192.2192	0.3068
192.4371	0.5336
192.6551	0.2717
192.873	0.5488
193.091	0.442
193.3089	0.3421
193.5268	0.3563
193.7447	0.5067
193.9626	0.4705
194.1805	0.5803
194.3984	0.8547
194.6162	0.6296
194.8341	0.4535
195.0519	0.5642
195.2697	0.5129
195.4875	0.5155
195.7054	0.5583
195.9231	0.5729
196.1409	0.4474
196.3587	0.5387
196.5765	0.5041
196.7942	0.6794
197.012	0.5582
197.2297	0.7614
197.4474	0.5944
197.6651	0.6016
197.8828	0.6366
198.1005	0.6617
198.3182	0.5347
198.5358	0.8299
198.7535	0.699
198.9711	0.5487
199.1888	0.5755
199.4064	0.6263
199.624	0.6098
199.8416	0.5897
200.0592	0.5896
200.2767	0.6997
200.4943	0.605
200.7119	0.7261
200.9294	0.553
201.1469	0.5871
201.3645	0.4713
201.582	0.61
201.7995	0.6511
202.017	0.5211
202.2344	0.5535
202.4519	0.7559
202.6694	0.5988
202.8868	0.678
203.1042	0.7214
203.3217	0.5984
203.5391	0.609
203.7565	0.5238
203.9739	0.6534
204.1913	0.5397
204.4086	0.6491
204.626	0.699
204.8433	0.6753
205.0607	0.6435
205.278	0.6975
205.4953	0.5827
205.7126	0.741
205.9299	0.738
206.1472	0.6446
206.3644	0.5984
206.5817	0.5756
206.7989	0.6306
207.0162	0.6596
207.2334	0.6702
207.4506	0.6855
207.6678	0.5498
207.885	0.6179
208.1022	0.6102
208.3194	0.6544
208.5365	0.6494
208.7537	0.5984
208.9708	0.5178
209.1879	0.681
209.405	0.6691
209.6222	0.7234
209.8392	0.6938
210.0563	0.5828
210.2734	0.6829
210.4905	0.6245
210.7075	0.6117
210.9245	0.5399
211.1416	0.7084
211.3586	0.6584
211.5756	0.5868
211.7926	0.6228
212.0096	0.5895
212.2265	0.5366
212.4435	0.5955
212.6604	0.5971
212.8774	0.5727
213.0943	0.6072
213.3112	0.5279
213.5281	0.5141
213.745	0.5084
213.9619	0.4731
214.1788	0.4934
214.3956	0.4757
214.6125	0.471
214.8293	0.4325
215.0461	0.4624
215.2629	0.4576
215.4798	0.4718
215.6965	0.4306
215.9133	0.4297
216.1301	0.4119
216.3469	0.4743
216.5636	0.3981
216.7803	0.3704
216.9971	0.4291
217.2138	0.3712
217.4305	0.362
217.6472	0.3292
217.8639	0.3606
218.0805	0.3496
218.2972	0.3187
218.5138	0.3162
218.7305	0.3086
218.9471	0.3231
219.1637	0.2867
219.3803	0.276
219.5969	0.2651
219.8135	0.2442
220.0301	0.2614
220.2466	0.2359
220.4632	0.251
220.6797	0.2339
220.8962	0.2406
221.1127	0.2355
221.3292	0.2494
221.5457	0.2198
221.7622	0.2278
221.9787	0.2393
222.1951	0.2221
222.4116	0.2505
222.628	0.2283
222.8444	0.2619
223.0608	0.2403
223.2772	0.2722
223.4936	0.2606
223.71	0.2577
223.9264	0.2724
224.1427	0.2474
224.3591	0.2245
224.5754	0.2514
224.7917	0.2371
225.008	0.2548
225.2243	0.2592
225.4406	0.2607
225.6569	0.2647
225.8732	0.2568
226.0894	0.2708
226.3057	0.24
226.5219	0.2758
226.7381	0.2485
226.9543	0.2885
227.1705	0.2964
227.3867	0.2656
227.6029	0.2943
227.8191	0.261
228.0352	0.2822
228.2513	0.2976
228.4675	0.2997
228.6836	0.2913
228.8997	0.2855
229.1158	0.2994
229.3319	0.2897
229.548	0.3071
229.764	0.3198
229.9801	0.3238
230.1961	0.3447
230.4121	0.3458
230.6282	0.341
230.8442	0.3105
231.0602	0.3432
231.2761	0.3454
231.4921	0.3358
231.7081	0.3275
231.924	0.3291
232.14	0.343
232.3559	0.3376
232.5718	0.354
232.7877	0.3663
233.0036	0.3347
233.2195	0.356
233.4353	0.3465
233.6512	0.3413
233.867	0.3555
234.0829	0.3545
234.2987	0.3689
234.5145	0.366
234.7303	0.3563
234.9461	0.3858
235.1619	0.3606
235.3776	0.3726
235.5934	0.3751
235.8091	0.3726
236.0249	0.3638
236.2406	0.3795
236.4563	0.3665
236.672	0.3848
236.8877	0.4062
237.1034	0.3799
237.319	0.3978
237.5347	0.3942
237.7503	0.3862
237.966	0.4087
238.1816	0.4054
238.3972	0.3892
238.6128	0.4009
238.8284	0.4078
239.0439	0.4011
239.2595	0.4155
239.475	0.4046
239.6906	0.4213
239.9061	0.4113
240.1216	0.4051
240.3371	0.395
240.5526	0.3898
240.7681	0.4039
240.9836	0.3945
241.199	0.3911
241.4145	0.3743
241.6299	0.3839
241.8453	0.3798
242.0607	0.3937
242.2761	0.3556
242.4915	0.3689
242.7069	0.3595
242.9223	0.3588
243.1376	0.3476
243.353	0.3374
243.5683	0.3375
243.7836	0.332
243.9989	0.3432
244.2142	0.3031
244.4295	0.3183
244.6448	0.3121
244.86	0.3035
245.0753	0.2886
245.2905	0.3022
245.5057	0.2857
245.721	0.2884
245.9362	0.2692
246.1514	0.2767
246.3665	0.2643
246.5817	0.2453
246.7969	0.2605
247.012	0.2461
247.2271	0.2361
247.4423	0.2436
247.6574	0.2432
247.8725	0.2475
248.0876	0.2319
248.3026	0.2274
248.5177	0.2243
248.7328	0.2122
248.9478	0.2047
249.1628	0.2164
249.3779	0.2122
249.5929	0.2123
249.8079	0.2234
250.0228	0.2105
250.2378	0.1994
250.4528	0.194
250.6677	0.1823
250.8827	0.1926
251.0976	0.1836
251.3125	0.1981
251.5274	0.1699
251.7423	0.1857
251.9572	0.1959
252.172	0.1853
252.3869	0.1856
252.6017	0.1736
252.8166	0.1711
253.0314	0.1615
253.2462	0.1621
253.461	0.172
253.6758	0.1713
253.8906	0.1816
254.1053	0.1722
254.3201	0.169
254.5348	0.1852
254.7496	0.1873
254.9643	0.1698
255.179	0.1675
255.3937	0.1692
255.6083	0.1735
255.823	0.1718
256.0377	0.1613
256.2523	0.167
256.467	0.1598
256.6816	0.1693
256.8962	0.1664
257.1108	0.1512
257.3254	0.1764
257.54	0.1701
257.7545	0.1642
257.9691	0.1772
258.1836	0.175
258.3981	0.1752
258.6127	0.1718
258.8272	0.1636
259.0417	0.1716
259.2561	0.1646
259.4706	0.1584
259.6851	0.156
259.8995	0.1742
260.114	0.1563
260.3284	0.1578
260.5428	0.1526
260.7572	0.1696
260.9716	0.1745
261.186	0.1625
261.4003	0.1714
261.6147	0.1708
261.829	0.1695
262.0433	0.1659
262.2577	0.1547
262.472	0.1667
262.6863	0.1543
262.9005	0.1677
263.1148	0.1695
263.3291	0.1443
263.5433	0.1569
263.7576	0.1606
263.9718	0.1709
264.186	0.1633
264.4002	0.1628
264.6144	0.1616
264.8286	0.1798
265.0427	0.1579
265.2569	0.1574
265.471	0.1659
265.6851	0.1549
265.8993	0.1559
266.1134	0.1571
266.3275	0.156
266.5415	0.1564
266.7556	0.16
266.9697	0.1686
267.1837	0.1691
267.3978	0.1651
267.6118	0.165
267.8258	0.1732
268.0398	0.1506
268.2538	0.1638
268.4677	0.1717
268.6817	0.1516
268.8957	0.1724
269.1096	0.1702
269.3235	0.1582
269.5374	0.1539
269.7514	0.1606
269.9652	0.1537
270.1791	0.1467
270.393	0.1494
270.6068	0.1584
270.8207	0.14
271.0345	0.1509
271.2483	0.1548
271.4622	0.1328
271.676	0.1533
271.8897	0.1354
272.1035	0.1431
272.3173	0.1359
272.531	0.1479
272.7448	0.1432
272.9585	0.1438
273.1722	0.1601
273.3859	0.1524
273.5996	0.1352
273.8133	0.1472
274.0269	0.141
274.2406	0.1528
274.4542	0.1469
274.6679	0.1268
274.8815	0.1431
275.0951	0.1598
275.3087	0.1535
275.5223	0.1518
275.7358	0.1604
275.9494	0.1476
276.1629	0.1415
276.3765	0.1487
276.59	0.1534
276.8035	0.1556
277.017	0.1483
277.2305	0.1389
277.444	0.1509
277.6574	0.1433
277.8709	0.1557
278.0843	0.1482
278.2978	0.1523
278.5112	0.1339
278.7246	0.1585
278.938	0.154
279.1513	0.1517
279.3647	0.1617
279.5781	0.1483
279.7914	0.1515
280.0047	0.1689
280.2181	0.1489
280.4314	0.1652
280.6447	0.1611
280.8579	0.1494
281.0712	0.1626
281.2845	0.168
281.4977	0.1572
281.711	0.1548
281.9242	0.1503
282.1374	0.1621
282.3506	0.1551
282.5638	0.1691
282.7769	0.1481
282.9901	0.1514
283.2033	0.1589
283.4164	0.1675
283.6295	0.1424
283.8426	0.152
284.0557	0.1573
284.2688	0.164
284.4819	0.1604
284.695	0.1535
284.908	0.1526
285.1211	0.1455
285.3341	0.1528
285.5471	0.1617
285.7601	0.1519
285.9731	0.1518
286.1861	0.1515
286.3991	0.1657
286.612	0.1599
286.825	0.166
287.0379	0.1734
287.2508	0.153
287.4637	0.1604
287.6766	0.1583
287.8895	0.1683
288.1024	0.1657
288.3152	0.1584
288.5281	0.1526
288.7409	0.1661
288.9538	0.1628
289.1666	0.1634
289.3794	0.1526
289.5922	0.1589
289.8049	0.1581
290.0177	0.1472
290.2304	0.1518
290.4432	0.16
290.6559	0.1535
290.8686	0.1641
291.0813	0.1547
291.294	0.1642
291.5067	0.1714
291.7194	0.1532
291.932	0.1616
292.1447	0.1476
292.3573	0.1504
292.5699	0.1578
292.7825	0.1614
292.9951	0.1664
293.2077	0.1471
293.4203	0.162
293.6328	0.1346
293.8454	0.1651
294.0579	0.1559
294.2704	0.1562
294.4829	0.1548
294.6954	0.1649
294.9079	0.1646
295.1204	0.156
295.3328	0.1585
295.5453	0.1568
295.7577	0.162
295.9701	0.1525
296.1825	0.1532
296.3949	0.1584
296.6073	0.1452
296.8197	0.1534
297.0321	0.1669
297.2444	0.1483
297.4567	0.155
297.6691	0.1517
297.8814	0.1575
298.0937	0.1569
298.306	0.1633
298.5182	0.1579
298.7305	0.1624
298.9428	0.1482
299.155	0.1647
299.3672	0.1485
299.5794	0.1403
299.7916	0.1527
300.0038	0.1535
300.216	0.158
300.4282	0.1556
300.6403	0.1555
300.8525	0.1676
301.0646	0.1481
301.2767	0.1547
301.4888	0.1484
301.7009	0.1582
301.913	0.1496
302.125	0.1527
302.3371	0.1533
302.5491	0.1478
302.7612	0.1594
302.9732	0.1471
303.1852	0.1597
303.3972	0.1522
303.6092	0.1563
303.8211	0.1437
304.0331	0.1536
304.245	0.146
304.457	0.1432
304.6689	0.1425
304.8808	0.1551
305.0927	0.1416
305.3046	0.1529
305.5164	0.1459
305.7283	0.1428
305.9401	0.148
306.152	0.1358
306.3638	0.1495
306.5756	0.1398
306.7874	0.1389
306.9992	0.1527
307.2109	0.1345
307.4227	0.1247
307.6344	0.1317
307.8462	0.1281
308.0579	0.1348
308.2696	0.1311
308.4813	0.1278
308.693	0.1352
308.9046	0.1353
309.1163	0.1278
309.328	0.1275
309.5396	0.1217
309.7512	0.1315
309.9628	0.1178
310.1744	0.1156
310.386	0.1191
310.5976	0.1121
310.8091	0.1136
311.0207	0.1178
311.2322	0.1203
311.4437	0.1013
311.6552	0.1181
311.8667	0.1115
312.0782	0.1051
312.2897	0.0998
312.5012	0.1149
312.7126	0.1079
312.924	0.0984
313.1355	0.1192
313.3469	0.103
313.5583	0.1062
313.7696	0.113
313.981	0.1121
314.1924	0.1065
314.4037	0.1028
314.6151	0.1091
314.8264	0.0985
315.0377	0.1008
315.249	0.1033
315.4603	0.108
315.6716	0.1013
315.8828	0.0961
316.0941	0.0974
316.3053	0.0958
316.5165	0.0975
316.7277	0.0947
316.9389	0.1013
317.1501	0.0952
317.3613	0.1023
317.5724	0.0914
317.7836	0.0967
317.9947	0.0998
318.2058	0.0952
318.417	0.0963
318.6281	0.0852
318.8391	0.0966
319.0502	0.0924
319.2613	0.1017
319.4723	0.0964
319.6834	0.1059
319.8944	0.0946
320.1054	0.0942
320.3164	0.1044
320.5274	0.1035
320.7383	0.1005
320.9493	0.1075
321.1602	0.1038
321.3712	0.0913
321.5821	0.1046
321.793	0.1074
322.0039	0.0966
322.2148	0.1012
322.4257	0.1043
322.6365	0.1175
322.8474	0.1056
323.0582	0.1046
323.269	0.114
323.4798	0.1029
323.6906	0.0987
323.9014	0.1013
324.1122	0.1069
324.3229	0.097
324.5337	0.1042
324.7444	0.0993
324.9551	0.1229
325.1658	0.1143
325.3765	0.1109
325.5872	0.1005
325.7979	0.1065
326.0085	0.0989
326.2192	0.1146
326.4298	0.1088
326.6404	0.0996
326.851	0.0983
327.0616	0.0997
327.2722	0.0965
327.4828	0.1157
327.6933	0.1032
327.9039	0.1111
328.1144	0.1175
328.3249	0.1149
328.5354	0.1045
328.7459	0.0996
328.9564	0.1096
329.1669	0.1164
329.3773	0.1054
329.5878	0.1052
329.7982	0.103
330.0086	0.104
330.219	0.1173
330.4294	0.1042
330.6398	0.1226
330.8502	0.0956
331.0605	0.1157
331.2708	0.108
331.4812	0.1193
331.6915	0.1102
331.9018	0.1128
332.1121	0.1051
332.3224	0.1155
332.5326	0.1209
332.7429	0.0935
332.9531	0.1114
333.1633	0.1108
333.3735	0.1043
333.5837	0.1173
333.7939	0.1087
334.0041	0.1216
334.2143	0.1028
334.4244	0.1034
334.6346	0.0824
334.8447	0.1215
335.0548	0.1117
335.2649	0.1005
335.475	0.1082
335.685	0.1127
335.8951	0.1063
336.1051	0.1059
336.3152	0.1165
336.5252	0.1059
336.7352	0.1253
336.9452	0.1037
337.1552	0.114
337.3652	0.1096
337.5751	0.1129
337.7851	0.1114
337.995	0.1055
338.2049	0.1184
338.4148	0.1178
338.6247	0.1098
338.8346	0.1098
339.0445	0.109
339.2543	0.1125
339.4642	0.1126
339.674	0.1037
339.8838	0.1157
340.0936	0.1246
340.3034	0.1129
340.5132	0.1149
340.7229	0.1286
340.9327	0.1226
341.1424	0.1126
341.3522	0.1253
341.5619	0.1226
341.7716	0.1309
341.9813	0.1187
342.1909	0.1249
342.4006	0.1226
342.6102	0.1375
342.8199	0.1351
343.0295	0.129
343.2391	0.1238
343.4487	0.1312
343.6583	0.1085
343.8679	0.1218
344.0774	0.1274
344.287	0.1381
344.4965	0.1183
344.706	0.1406
344.9155	0.1199
345.125	0.122
345.3345	0.1267
345.544	0.1455
345.7534	0.1376
345.9629	0.1272
346.1723	0.1284
346.3817	0.1318
346.5911	0.1445
346.8005	0.1304
347.0099	0.1302
347.2193	0.1457
347.4286	0.1243
347.638	0.1405
347.8473	0.1321
348.0566	0.1391
348.2659	0.1335
348.4752	0.1219
348.6845	0.138
348.8937	0.1318
349.103	0.1439
349.3122	0.1325
349.5214	0.1338
349.7306	0.1287
349.9398	0.1269
350.149	0.1337
350.3582	0.1305
350.5674	0.1412
350.7765	0.1368
350.9856	0.1384
351.1948	0.1463
351.4039	0.1185
351.613	0.1298
351.822	0.1602
352.0311	0.1502
352.2402	0.1423
352.4492	0.1367
352.6582	0.1493
352.8672	0.1529
353.0762	0.1405
353.2852	0.1477
353.4942	0.1385
353.7032	0.1415
353.9121	0.1507
354.1211	0.1334
354.33	0.152
354.5389	0.1673
354.7478	0.1492
354.9567	0.1555
355.1655	0.1294
355.3744	0.1415
355.5833	0.1495
355.7921	0.1626
356.0009	0.1603
356.2097	0.1607
356.4185	0.1603
356.6273	0.1729
356.8361	0.1618
357.0448	0.1537
357.2536	0.1427
357.4623	0.1635
357.671	0.1631
357.8797	0.1588
358.0884	0.1592
358.2971	0.1644
358.5057	0.1688
358.7144	0.1857
358.923	0.1736
359.1316	0.1764
359.3402	0.1652
359.5488	0.1717
359.7574	0.1582
359.966	0.176
360.1746	0.1803
360.3831	0.1731
360.5916	0.1634
360.8002	0.1583
361.0087	0.1793
361.2172	0.178
361.4256	0.1675
361.6341	0.1752
361.8426	0.1842
362.051	0.1769
362.2594	0.1781
362.4678	0.1693
362.6762	0.1973
362.8846	0.1716
363.093	0.1866
363.3014	0.1769
363.5097	0.1597
363.718	0.1834
363.9264	0.1804
364.1347	0.1603
364.343	0.1936
364.5513	0.1957
364.7595	0.1847
364.9678	0.1987
365.176	0.1828
365.3842	0.1733
365.5925	0.1915
365.8007	0.1767
366.0089	0.2012
366.217	0.1779
366.4252	0.1801
366.6333	0.1915
366.8415	0.1931
367.0496	0.1954
367.2577	0.2127
367.4658	0.2014
367.6739	0.195
367.882	0.204
368.09	0.1983
368.2981	0.1997
368.5061	0.2044
368.7141	0.1998
368.9221	0.1995
369.1301	0.1965
369.3381	0.207
369.5461	0.2072
369.754	0.1886
369.962	0.2133
370.1699	0.2013
370.3778	0.2136
370.5857	0.186
370.7936	0.2114
371.0015	0.2103
371.2093	0.2051
371.4172	0.2146
371.625	0.194
371.8328	0.2089
372.0406	0.2136
372.2484	0.2054
372.4562	0.2051
372.664	0.2168
372.8717	0.2181
373.0795	0.1992
373.2872	0.2151
373.4949	0.2181
373.7026	0.2157
373.9103	0.2116
374.118	0.216
374.3256	0.2093
374.5333	0.2181
374.7409	0.2152
374.9485	0.2267
375.1561	0.2264
375.3637	0.2265
375.5713	0.2143
375.7789	0.2064
375.9864	0.2312
376.194	0.2161
376.4015	0.2192
376.609	0.2452
376.8165	0.2196
377.024	0.2249
377.2315	0.2166
377.4389	0.2314
377.6464	0.2354
377.8538	0.2103
378.0612	0.2222
378.2686	0.2265
378.476	0.2498
378.6834	0.2231
378.8908	0.2267
379.0981	0.2338
379.3055	0.235
379.5128	0.2273
379.7201	0.23
379.9274	0.2185
380.1347	0.2356
380.342	0.2346
380.5492	0.2343
380.7565	0.2161
380.9637	0.2387
381.1709	0.2399
381.3781	0.2386
381.5853	0.2463
381.7925	0.2353
381.9997	0.2615
382.2068	0.236
382.4139	0.2374
382.6211	0.2252
382.8282	0.2434
383.0353	0.2395
383.2424	0.239
383.4494	0.2457
383.6565	0.2324
383.8635	0.2424
384.0706	0.2182
384.2776	0.2483
384.4846	0.2195
384.6916	0.2498
384.8986	0.2403
385.1055	0.2286
385.3125	0.2467
385.5194	0.2291
385.7263	0.2454
385.9333	0.2277
386.1402	0.222
386.347	0.2336
386.5539	0.2081
386.7608	0.2455
386.9676	0.2247
387.1744	0.2453
387.3813	0.2336
387.5881	0.2466
387.7948	0.2147
388.0016	0.2279
388.2084	0.2382
388.4151	0.231
388.6219	0.2405
388.8286	0.2302
389.0353	0.2515
389.242	0.2312
389.4487	0.2351
389.6553	0.2101
389.862	0.202
390.0686	0.2088
390.2753	0.2296
390.4819	0.2297
390.6885	0.2178
390.8951	0.2387
391.1016	0.2198
391.3082	0.2278
391.5147	0.2141
391.7213	0.2326
391.9278	0.2075
392.1343	0.2142
392.3408	0.236
392.5473	0.2256
392.7537	0.22
392.9602	0.2183
393.1666	0.2179
393.373	0.2041
393.5794	0.2149
393.7858	0.2054
393.9922	0.2076
394.1986	0.2143
394.4049	0.2062
394.6113	0.2014
394.8176	0.2023
395.0239	0.2028
395.2302	0.1885
395.4365	0.2214
395.6428	0.2018
395.8491	0.1977
396.0553	0.2078
396.2615	0.208
396.4678	0.1904
396.674	0.1962
396.8802	0.2046
397.0863	0.2035
397.2925	0.1944
397.4987	0.1899
397.7048	0.1909
397.9109	0.215
398.117	0.1862
398.3231	0.1995
398.5292	0.203
398.7353	0.2085
398.9413	0.1965
399.1474	0.2001
399.3534	0.1947
399.5594	0.1971
399.7654	0.2051
399.9714	0.2149
400.1774	0.1852
400.3833	0.1978
400.5893	0.1908
400.7952	0.2007
401.0011	0.1882
401.207	0.2121
401.4129	0.199
401.6188	0.2035
401.8247	0.1867
402.0305	0.1855
402.2364	0.1861
402.4422	0.2057
402.648	0.2038
402.8538	0.2105
403.0596	0.191
403.2654	0.2025
403.4711	0.1813
403.6768	0.2081
403.8826	0.2075
404.0883	0.1962
404.294	0.2085
404.4997	0.2017
404.7054	0.2028
404.911	0.1864
405.1167	0.2021
405.3223	0.2082
405.5279	0.2013
405.7335	0.1925
405.9391	0.1913
406.1447	0.1865
406.3502	0.2092
406.5558	0.1961
406.7613	0.1979
406.9668	0.1907
407.1724	0.1904
407.3778	0.1945
407.5833	0.1892
407.7888	0.1848
407.9942	0.202
408.1997	0.1979
408.4051	0.1956
408.6105	0.1856
408.8159	0.1724
409.0213	0.1972
409.2267	0.2114
409.432	0.1884
409.6374	0.1939
409.8427	0.1983
410.048	0.1874
410.2533	0.187
410.4586	0.1724
410.6639	0.173
410.8691	0.1845
411.0744	0.183
411.2796	0.1833
411.4848	0.1908
411.69	0.1756
411.8952	0.1962
412.1004	0.1709
412.3056	0.1891
412.5107	0.1802
412.7158	0.1998
412.921	0.1975
413.1261	0.18
413.3312	0.1811
413.5362	0.1742
413.7413	0.1983
413.9464	0.1783
414.1514	0.1908
414.3564	0.1942
414.5614	0.1806
414.7664	0.1909
414.9714	0.1932
415.1764	0.1868
415.3813	0.186
415.5863	0.1832
415.7912	0.18
415.9961	0.1965
416.201	0.1891
416.4059	0.1992
416.6108	0.1714
416.8156	0.1998
417.0205	0.1831
417.2253	0.1758
417.4301	0.1834
417.6349	0.1798
417.8397	0.181
418.0445	0.1803
418.2492	0.1873
418.454	0.1849
418.6587	0.1822
418.8634	0.1686
419.0681	0.1769
419.2728	0.1643
419.4775	0.1789
419.6822	0.1661
419.8868	0.1573
420.0915	0.1649
420.2961	0.1678
420.5007	0.1515
420.7053	0.1671
420.9099	0.1633
421.1144	0.1664
421.319	0.1732
421.5235	0.1844
421.728	0.1859
421.9325	0.1871
422.137	0.1832
422.3415	0.1697
422.546	0.1705
422.7504	0.1721
422.9549	0.1715
423.1593	0.1735
423.3637	0.1615
423.5681	0.174
423.7725	0.1606
423.9769	0.1512
424.1812	0.1523
424.3856	0.1538
424.5899	0.1737
424.7942	0.1608
424.9985	0.18
425.2028	0.1624
425.4071	0.1802
425.6113	0.1391
425.8156	0.1576
426.0198	0.162
426.224	0.1463
426.4282	0.1547
