Data from MonoPyChalIsomerACN10uM410nmA_Absorbance_14-53-31-673.txt Node
Date: Fri Jul 05 14:53:31 BST 2024
User: LASERRRRR
Spectrometer: FLMT03099
Trigger mode: 0
Integration Time (sec): 1.000000E-1
Scans to average: 1
Electric dark correction enabled: true
Nonlinearity correction enabled: false
Boxcar width: 0
XAxis mode: Wavelengths
Number of Pixels in Spectrum: 3648
>>>>>Begin Spectral Data<<<<<
179.3399	-0.2296
179.5586	-0.2296
179.7771	-0.2296
179.9957	-0.3022
180.2143	-0.2502
180.4329	0.1183
180.6514	0.423
180.8699	-0
181.0885	-0.4275
181.307	0.007
181.5255	-1.3696
181.744	-0.6099
181.9625	0.0653
182.181	-0
182.3994	0.6317
182.6179	-0.3667
182.8363	-0.1412
183.0547	0.1192
183.2732	-0.0771
183.4916	0.1713
183.71	0.2813
183.9284	-0.0681
184.1467	0.0704
184.3651	-0.0186
184.5835	-0.1446
184.8018	0.2888
185.0201	-0.0373
185.2385	-0.1038
185.4568	0.0292
185.6751	0.0237
185.8934	0.2894
186.1117	0.0191
186.3299	0.0668
186.5482	-0.0344
186.7664	-0.193
186.9847	0.0431
187.2029	0.0374
187.4211	0.3037
187.6393	0.5139
187.8575	0.1816
188.0757	0.2167
188.2939	0.1922
188.512	-0.0079
188.7302	0.0837
188.9483	-0.0063
189.1665	0.2598
189.3846	0.3823
189.6027	0.1002
189.8208	0.2095
190.0389	0.2751
190.257	0.0779
190.475	0.294
190.6931	0.1584
190.9111	0.2726
191.1292	0.1493
191.3472	0.3974
191.5652	0.4031
191.7832	0.3167
192.0012	0.7721
192.2192	0.3557
192.4371	0.4499
192.6551	0.424
192.873	0.5248
193.091	0.3407
193.3089	0.2901
193.5268	0.5663
193.7447	0.5158
193.9626	0.5536
194.1805	0.5551
194.3984	0.6511
194.6162	0.6778
194.8341	0.7759
195.0519	0.5453
195.2697	0.7745
195.4875	0.6221
195.7054	0.5155
195.9231	0.834
196.1409	0.9528
196.3587	0.5652
196.5765	0.5473
196.7942	0.4284
197.012	0.6193
197.2297	0.6105
197.4474	0.6425
197.6651	0.6694
197.8828	0.7768
198.1005	0.4705
198.3182	0.611
198.5358	0.8572
198.7535	0.5334
198.9711	0.5844
199.1888	0.6172
199.4064	0.6934
199.624	0.549
199.8416	0.6629
200.0592	0.6442
200.2767	0.704
200.4943	0.5953
200.7119	0.7815
200.9294	0.6515
201.1469	0.505
201.3645	0.5227
201.582	0.6398
201.7995	0.6097
202.017	0.6285
202.2344	0.5904
202.4519	0.6935
202.6694	0.6464
202.8868	0.5702
203.1042	0.7402
203.3217	0.7414
203.5391	0.5941
203.7565	0.5502
203.9739	0.5752
204.1913	0.5518
204.4086	0.6259
204.626	0.6858
204.8433	0.6566
205.0607	0.6237
205.278	0.5733
205.4953	0.5652
205.7126	0.6941
205.9299	0.7262
206.1472	0.8046
206.3644	0.7174
206.5817	0.645
206.7989	0.7258
207.0162	0.5957
207.2334	0.6358
207.4506	0.6661
207.6678	0.6388
207.885	0.7073
208.1022	0.6393
208.3194	0.767
208.5365	0.692
208.7537	0.6428
208.9708	0.6099
209.1879	0.5898
209.405	0.6591
209.6222	0.6704
209.8392	0.6241
210.0563	0.626
210.2734	0.7035
210.4905	0.5569
210.7075	0.6308
210.9245	0.5627
211.1416	0.6356
211.3586	0.6559
211.5756	0.5835
211.7926	0.5755
212.0096	0.5898
212.2265	0.5578
212.4435	0.5666
212.6604	0.6129
212.8774	0.6089
213.0943	0.5763
213.3112	0.5537
213.5281	0.53
213.745	0.4849
213.9619	0.4941
214.1788	0.4877
214.3956	0.4833
214.6125	0.4626
214.8293	0.4154
215.0461	0.4375
215.2629	0.4508
215.4798	0.4578
215.6965	0.4192
215.9133	0.4252
216.1301	0.4196
216.3469	0.4282
216.5636	0.3755
216.7803	0.4045
216.9971	0.4083
217.2138	0.3927
217.4305	0.3605
217.6472	0.382
217.8639	0.3659
218.0805	0.3497
218.2972	0.3489
218.5138	0.3093
218.7305	0.3088
218.9471	0.2848
219.1637	0.2834
219.3803	0.2805
219.5969	0.2597
219.8135	0.2238
220.0301	0.259
220.2466	0.2799
220.4632	0.2615
220.6797	0.2114
220.8962	0.2478
221.1127	0.2634
221.3292	0.2339
221.5457	0.218
221.7622	0.2324
221.9787	0.2387
222.1951	0.2464
222.4116	0.2282
222.628	0.2586
222.8444	0.2431
223.0608	0.2333
223.2772	0.2268
223.4936	0.2422
223.71	0.242
223.9264	0.2462
224.1427	0.2487
224.3591	0.2376
224.5754	0.2612
224.7917	0.2615
225.008	0.2678
225.2243	0.2587
225.4406	0.2738
225.6569	0.2579
225.8732	0.2369
226.0894	0.2456
226.3057	0.2472
226.5219	0.2674
226.7381	0.2669
226.9543	0.2674
227.1705	0.2556
227.3867	0.2743
227.6029	0.2848
227.8191	0.2997
228.0352	0.2904
228.2513	0.3063
228.4675	0.3066
228.6836	0.2992
228.8997	0.2965
229.1158	0.2995
229.3319	0.2906
229.548	0.3165
229.764	0.3155
229.9801	0.3205
230.1961	0.3065
230.4121	0.3063
230.6282	0.3477
230.8442	0.3148
231.0602	0.3293
231.2761	0.3306
231.4921	0.3301
231.7081	0.3385
231.924	0.3321
232.14	0.3633
232.3559	0.3303
232.5718	0.3538
232.7877	0.3376
233.0036	0.3504
233.2195	0.343
233.4353	0.3552
233.6512	0.3491
233.867	0.3461
234.0829	0.3495
234.2987	0.3512
234.5145	0.368
234.7303	0.359
234.9461	0.3743
235.1619	0.3977
235.3776	0.3611
235.5934	0.3646
235.8091	0.3344
236.0249	0.3665
236.2406	0.377
236.4563	0.3751
236.672	0.3749
236.8877	0.3762
237.1034	0.3851
237.319	0.3746
237.5347	0.3864
237.7503	0.3983
237.966	0.3928
238.1816	0.409
238.3972	0.3956
238.6128	0.3891
238.8284	0.3789
239.0439	0.3857
239.2595	0.4019
239.475	0.4052
239.6906	0.4201
239.9061	0.3893
240.1216	0.3937
240.3371	0.402
240.5526	0.406
240.7681	0.4277
240.9836	0.3763
241.199	0.3904
241.4145	0.3979
241.6299	0.3825
241.8453	0.3895
242.0607	0.3821
242.2761	0.3733
242.4915	0.3815
242.7069	0.3611
242.9223	0.3714
243.1376	0.3783
243.353	0.3546
243.5683	0.3513
243.7836	0.3487
243.9989	0.3597
244.2142	0.3237
244.4295	0.3448
244.6448	0.3287
244.86	0.3191
245.0753	0.2969
245.2905	0.3028
245.5057	0.3051
245.721	0.287
245.9362	0.2908
246.1514	0.2816
246.3665	0.2751
246.5817	0.2772
246.7969	0.2654
247.012	0.2443
247.2271	0.2614
247.4423	0.2594
247.6574	0.2608
247.8725	0.2597
248.0876	0.239
248.3026	0.2291
248.5177	0.2433
248.7328	0.211
248.9478	0.2261
249.1628	0.2277
249.3779	0.2253
249.5929	0.212
249.8079	0.2386
250.0228	0.2022
250.2378	0.2029
250.4528	0.2174
250.6677	0.1975
250.8827	0.1995
251.0976	0.201
251.3125	0.1996
251.5274	0.1908
251.7423	0.189
251.9572	0.1867
252.172	0.1817
252.3869	0.1843
252.6017	0.1811
252.8166	0.1817
253.0314	0.1716
253.2462	0.1777
253.461	0.1941
253.6758	0.1724
253.8906	0.1762
254.1053	0.1681
254.3201	0.1751
254.5348	0.1814
254.7496	0.1911
254.9643	0.1658
255.179	0.1593
255.3937	0.1703
255.6083	0.1749
255.823	0.1659
256.0377	0.1644
256.2523	0.1713
256.467	0.1443
256.6816	0.1613
256.8962	0.1568
257.1108	0.1575
257.3254	0.1716
257.54	0.1448
257.7545	0.1729
257.9691	0.1663
258.1836	0.1646
258.3981	0.1804
258.6127	0.1723
258.8272	0.1623
259.0417	0.1683
259.2561	0.16
259.4706	0.1654
259.6851	0.1556
259.8995	0.1667
260.114	0.1695
260.3284	0.1729
260.5428	0.1547
260.7572	0.1793
260.9716	0.1569
261.186	0.1557
261.4003	0.1624
261.6147	0.1659
261.829	0.1548
262.0433	0.1499
262.2577	0.1547
262.472	0.1642
262.6863	0.1671
262.9005	0.1649
263.1148	0.1701
263.3291	0.1494
263.5433	0.1746
263.7576	0.1589
263.9718	0.1657
264.186	0.1686
264.4002	0.1686
264.6144	0.1647
264.8286	0.1813
265.0427	0.1708
265.2569	0.1692
265.471	0.1547
265.6851	0.1574
265.8993	0.1721
266.1134	0.152
266.3275	0.1699
266.5415	0.1641
266.7556	0.1623
266.9697	0.1751
267.1837	0.1771
267.3978	0.1692
267.6118	0.1743
267.8258	0.1932
268.0398	0.1604
268.2538	0.1722
268.4677	0.1681
268.6817	0.1586
268.8957	0.183
269.1096	0.1719
269.3235	0.1748
269.5374	0.1703
269.7514	0.1708
269.9652	0.1636
270.1791	0.1471
270.393	0.1743
270.6068	0.1665
270.8207	0.1643
271.0345	0.1542
271.2483	0.1568
271.4622	0.1654
271.676	0.169
271.8897	0.157
272.1035	0.1533
272.3173	0.1646
272.531	0.1642
272.7448	0.1538
272.9585	0.166
273.1722	0.1571
273.3859	0.166
273.5996	0.1649
273.8133	0.1686
274.0269	0.1632
274.2406	0.1567
274.4542	0.1639
274.6679	0.1559
274.8815	0.1661
275.0951	0.1592
275.3087	0.1734
275.5223	0.1835
275.7358	0.163
275.9494	0.1677
276.1629	0.1656
276.3765	0.1697
276.59	0.1747
276.8035	0.1679
277.017	0.1544
277.2305	0.1554
277.444	0.1831
277.6574	0.1637
277.8709	0.1679
278.0843	0.1586
278.2978	0.1615
278.5112	0.1632
278.7246	0.1641
278.938	0.1665
279.1513	0.1776
279.3647	0.1938
279.5781	0.1677
279.7914	0.1569
280.0047	0.1757
280.2181	0.1629
280.4314	0.1744
280.6447	0.1706
280.8579	0.1732
281.0712	0.1723
281.2845	0.1743
281.4977	0.1698
281.711	0.159
281.9242	0.1619
282.1374	0.17
282.3506	0.1629
282.5638	0.1642
282.7769	0.1714
282.9901	0.1542
283.2033	0.1661
283.4164	0.1728
283.6295	0.167
283.8426	0.1569
284.0557	0.168
284.2688	0.1853
284.4819	0.1723
284.695	0.1622
284.908	0.1647
285.1211	0.1614
285.3341	0.1677
285.5471	0.1666
285.7601	0.168
285.9731	0.1531
286.1861	0.1623
286.3991	0.1738
286.612	0.172
286.825	0.1473
287.0379	0.1536
287.2508	0.1511
287.4637	0.1615
287.6766	0.1451
287.8895	0.1634
288.1024	0.1653
288.3152	0.1568
288.5281	0.1482
288.7409	0.1641
288.9538	0.1465
289.1666	0.1554
289.3794	0.153
289.5922	0.1539
289.8049	0.1551
290.0177	0.1592
290.2304	0.1527
290.4432	0.1537
290.6559	0.1534
290.8686	0.1525
291.0813	0.147
291.294	0.1515
291.5067	0.1527
291.7194	0.1612
291.932	0.1566
292.1447	0.1537
292.3573	0.1319
292.5699	0.1559
292.7825	0.1562
292.9951	0.1399
293.2077	0.155
293.4203	0.1489
293.6328	0.1324
293.8454	0.153
294.0579	0.1502
294.2704	0.1516
294.4829	0.1384
294.6954	0.1554
294.9079	0.1442
295.1204	0.1529
295.3328	0.1448
295.5453	0.1456
295.7577	0.1419
295.9701	0.1341
296.1825	0.1574
296.3949	0.1346
296.6073	0.1414
296.8197	0.1475
297.0321	0.1517
297.2444	0.1343
297.4567	0.1483
297.6691	0.1566
297.8814	0.1337
298.0937	0.1516
298.306	0.1506
298.5182	0.1339
298.7305	0.1398
298.9428	0.1321
299.155	0.1472
299.3672	0.1278
299.5794	0.132
299.7916	0.1233
300.0038	0.1464
300.216	0.1456
300.4282	0.139
300.6403	0.1355
300.8525	0.1471
301.0646	0.1326
301.2767	0.1445
301.4888	0.1375
301.7009	0.1351
301.913	0.1418
302.125	0.1475
302.3371	0.1389
302.5491	0.1448
302.7612	0.145
302.9732	0.1471
303.1852	0.1461
303.3972	0.1344
303.6092	0.1407
303.8211	0.1262
304.0331	0.134
304.245	0.1321
304.457	0.1252
304.6689	0.1361
304.8808	0.137
305.0927	0.1253
305.3046	0.1363
305.5164	0.1401
305.7283	0.1197
305.9401	0.1318
306.152	0.1342
306.3638	0.1325
306.5756	0.1388
306.7874	0.1364
306.9992	0.135
307.2109	0.1305
307.4227	0.119
307.6344	0.1305
307.8462	0.1284
308.0579	0.1234
308.2696	0.1236
308.4813	0.1193
308.693	0.1206
308.9046	0.1201
309.1163	0.1246
309.328	0.12
309.5396	0.1184
309.7512	0.1139
309.9628	0.1148
310.1744	0.12
310.386	0.1145
310.5976	0.1172
310.8091	0.1274
311.0207	0.1226
311.2322	0.1182
311.4437	0.1083
311.6552	0.1174
311.8667	0.121
312.0782	0.104
312.2897	0.1025
312.5012	0.113
312.7126	0.1188
312.924	0.1117
313.1355	0.1137
313.3469	0.1074
313.5583	0.1157
313.7696	0.1125
313.981	0.1163
314.1924	0.105
314.4037	0.1074
314.6151	0.1157
314.8264	0.1037
315.0377	0.1131
315.249	0.1152
315.4603	0.1209
315.6716	0.1138
315.8828	0.1078
316.0941	0.103
316.3053	0.0968
316.5165	0.1016
316.7277	0.1022
316.9389	0.1153
317.1501	0.1149
317.3613	0.108
317.5724	0.0974
317.7836	0.1212
317.9947	0.1068
318.2058	0.1029
318.417	0.0972
318.6281	0.1008
318.8391	0.1052
319.0502	0.1041
319.2613	0.1045
319.4723	0.1084
319.6834	0.1092
319.8944	0.0942
320.1054	0.1122
320.3164	0.1115
320.5274	0.1144
320.7383	0.1076
320.9493	0.1089
321.1602	0.1145
321.3712	0.1044
321.5821	0.1204
321.793	0.1154
322.0039	0.1205
322.2148	0.1042
322.4257	0.1155
322.6365	0.1271
322.8474	0.1241
323.0582	0.1207
323.269	0.1153
323.4798	0.1235
323.6906	0.1199
323.9014	0.1156
324.1122	0.1264
324.3229	0.1064
324.5337	0.1116
324.7444	0.116
324.9551	0.1342
325.1658	0.1275
325.3765	0.1191
325.5872	0.122
325.7979	0.1186
326.0085	0.1263
326.2192	0.1186
326.4298	0.1181
326.6404	0.1041
326.851	0.1165
327.0616	0.106
327.2722	0.1205
327.4828	0.1277
327.6933	0.1266
327.9039	0.1178
328.1144	0.1216
328.3249	0.1289
328.5354	0.1184
328.7459	0.1131
328.9564	0.1212
329.1669	0.1208
329.3773	0.1183
329.5878	0.1227
329.7982	0.1131
330.0086	0.1275
330.219	0.124
330.4294	0.1157
330.6398	0.1261
330.8502	0.1206
331.0605	0.1194
331.2708	0.1134
331.4812	0.1241
331.6915	0.1251
331.9018	0.12
332.1121	0.1111
332.3224	0.1145
332.5326	0.1205
332.7429	0.1224
332.9531	0.1385
333.1633	0.1158
333.3735	0.1168
333.5837	0.112
333.7939	0.1318
334.0041	0.1341
334.2143	0.1226
334.4244	0.1218
334.6346	0.1039
334.8447	0.1314
335.0548	0.112
335.2649	0.1256
335.475	0.126
335.685	0.1192
335.8951	0.1444
336.1051	0.115
336.3152	0.1324
336.5252	0.1167
336.7352	0.1359
336.9452	0.1151
337.1552	0.1297
337.3652	0.1126
337.5751	0.1304
337.7851	0.1341
337.995	0.1215
338.2049	0.1249
338.4148	0.1268
338.6247	0.1408
338.8346	0.1133
339.0445	0.1203
339.2543	0.1202
339.4642	0.1319
339.674	0.1215
339.8838	0.1252
340.0936	0.1222
340.3034	0.1453
340.5132	0.1276
340.7229	0.1356
340.9327	0.1271
341.1424	0.1322
341.3522	0.1404
341.5619	0.124
341.7716	0.1393
341.9813	0.1294
342.1909	0.1358
342.4006	0.1434
342.6102	0.1458
342.8199	0.1357
343.0295	0.1455
343.2391	0.1397
343.4487	0.1407
343.6583	0.131
343.8679	0.1379
344.0774	0.1399
344.287	0.1401
344.4965	0.1356
344.706	0.137
344.9155	0.1354
345.125	0.1345
345.3345	0.1386
345.544	0.134
345.7534	0.1452
345.9629	0.1431
346.1723	0.1348
346.3817	0.1381
346.5911	0.1368
346.8005	0.1429
347.0099	0.1376
347.2193	0.1333
347.4286	0.1308
347.638	0.1401
347.8473	0.1377
348.0566	0.1481
348.2659	0.1502
348.4752	0.1383
348.6845	0.1416
348.8937	0.1353
349.103	0.1577
349.3122	0.141
349.5214	0.1406
349.7306	0.1562
349.9398	0.1369
350.149	0.1501
350.3582	0.1444
350.5674	0.1553
350.7765	0.1447
350.9856	0.1345
351.1948	0.1414
351.4039	0.1294
351.613	0.1567
351.822	0.1593
352.0311	0.1496
352.2402	0.1485
352.4492	0.157
352.6582	0.1511
352.8672	0.1456
353.0762	0.1666
353.2852	0.1546
353.4942	0.1455
353.7032	0.1567
353.9121	0.1572
354.1211	0.1564
354.33	0.153
354.5389	0.1477
354.7478	0.1407
354.9567	0.1552
355.1655	0.141
355.3744	0.1602
355.5833	0.1555
355.7921	0.1695
356.0009	0.1639
356.2097	0.1644
356.4185	0.1535
356.6273	0.1502
356.8361	0.176
357.0448	0.1457
357.2536	0.1508
357.4623	0.155
357.671	0.1646
357.8797	0.1598
358.0884	0.1721
358.2971	0.173
358.5057	0.1566
358.7144	0.1821
358.923	0.1568
359.1316	0.1599
359.3402	0.1682
359.5488	0.1619
359.7574	0.1576
359.966	0.1796
360.1746	0.1715
360.3831	0.1763
360.5916	0.1629
360.8002	0.1646
361.0087	0.1877
361.2172	0.17
361.4256	0.1687
361.6341	0.1809
361.8426	0.1768
362.051	0.1742
362.2594	0.1696
362.4678	0.1668
362.6762	0.1889
362.8846	0.1787
363.093	0.1758
363.3014	0.1604
363.5097	0.1662
363.718	0.1678
363.9264	0.1769
364.1347	0.1757
364.343	0.1798
364.5513	0.1767
364.7595	0.1943
364.9678	0.1766
365.176	0.1905
365.3842	0.1909
365.5925	0.1787
365.8007	0.1699
366.0089	0.18
366.217	0.1778
366.4252	0.1746
366.6333	0.1945
366.8415	0.1748
367.0496	0.1757
367.2577	0.1892
367.4658	0.189
367.6739	0.1956
367.882	0.196
368.09	0.1858
368.2981	0.1893
368.5061	0.1921
368.7141	0.1861
368.9221	0.1945
369.1301	0.1846
369.3381	0.1934
369.5461	0.1921
369.754	0.1892
369.962	0.2094
370.1699	0.1817
370.3778	0.178
370.5857	0.1868
370.7936	0.1859
371.0015	0.1904
371.2093	0.1998
371.4172	0.1925
371.625	0.1844
371.8328	0.1946
372.0406	0.1877
372.2484	0.1988
372.4562	0.2024
372.664	0.185
372.8717	0.1922
373.0795	0.1699
373.2872	0.1864
373.4949	0.1774
373.7026	0.2044
373.9103	0.1936
374.118	0.1961
374.3256	0.1989
374.5333	0.1963
374.7409	0.1882
374.9485	0.2083
375.1561	0.1809
375.3637	0.2158
375.5713	0.2081
375.7789	0.1992
375.9864	0.203
376.194	0.1935
376.4015	0.2038
376.609	0.1918
376.8165	0.1808
377.024	0.1948
377.2315	0.1884
377.4389	0.1896
377.6464	0.2125
377.8538	0.2011
378.0612	0.1882
378.2686	0.2117
378.476	0.2049
378.6834	0.2155
378.8908	0.2012
379.0981	0.2007
379.3055	0.2046
379.5128	0.1989
379.7201	0.2083
379.9274	0.1827
380.1347	0.1992
380.342	0.2212
380.5492	0.2021
380.7565	0.1985
380.9637	0.2016
381.1709	0.2058
381.3781	0.2019
381.5853	0.215
381.7925	0.1915
381.9997	0.1977
382.2068	0.2244
382.4139	0.2086
382.6211	0.2015
382.8282	0.2054
383.0353	0.2019
383.2424	0.1998
383.4494	0.2176
383.6565	0.1818
383.8635	0.1976
384.0706	0.2063
384.2776	0.2006
384.4846	0.1884
384.6916	0.1988
384.8986	0.193
385.1055	0.2271
385.3125	0.197
385.5194	0.1894
385.7263	0.2033
385.9333	0.1914
386.1402	0.1968
386.347	0.2068
386.5539	0.1904
386.7608	0.2087
386.9676	0.1715
387.1744	0.1951
387.3813	0.1762
387.5881	0.2034
387.7948	0.1851
388.0016	0.1811
388.2084	0.1835
388.4151	0.1773
388.6219	0.2029
388.8286	0.1924
389.0353	0.2076
389.242	0.1915
389.4487	0.1972
389.6553	0.175
389.862	0.1691
390.0686	0.1868
390.2753	0.1996
390.4819	0.1893
390.6885	0.1696
390.8951	0.2004
391.1016	0.1838
391.3082	0.178
391.5147	0.1903
391.7213	0.1896
391.9278	0.1759
392.1343	0.1823
392.3408	0.1828
392.5473	0.1835
392.7537	0.1741
392.9602	0.1869
393.1666	0.1777
393.373	0.174
393.5794	0.1891
393.7858	0.1704
393.9922	0.1603
394.1986	0.1873
394.4049	0.1745
394.6113	0.1569
394.8176	0.1726
395.0239	0.1632
395.2302	0.154
395.4365	0.162
395.6428	0.1704
395.8491	0.1558
396.0553	0.165
396.2615	0.1583
396.4678	0.158
396.674	0.15
396.8802	0.1528
397.0863	0.1647
397.2925	0.1426
397.4987	0.1663
397.7048	0.1549
397.9109	0.1694
398.117	0.1495
398.3231	0.1641
398.5292	0.1634
398.7353	0.1587
398.9413	0.1625
399.1474	0.152
399.3534	0.1519
399.5594	0.1505
399.7654	0.1693
399.9714	0.1772
400.1774	0.1687
400.3833	0.1582
400.5893	0.1748
400.7952	0.1703
401.0011	0.1706
401.207	0.1791
401.4129	0.1564
401.6188	0.1631
401.8247	0.1683
402.0305	0.1338
402.2364	0.1517
402.4422	0.1683
402.648	0.1647
402.8538	0.1676
403.0596	0.1511
403.2654	0.1596
403.4711	0.1443
403.6768	0.1621
403.8826	0.1544
404.0883	0.1782
404.294	0.1518
404.4997	0.1651
404.7054	0.1486
404.911	0.1545
405.1167	0.1598
405.3223	0.157
405.5279	0.1752
405.7335	0.1694
405.9391	0.1781
406.1447	0.1465
406.3502	0.1738
406.5558	0.1582
406.7613	0.1557
406.9668	0.1607
407.1724	0.1625
407.3778	0.1528
407.5833	0.172
407.7888	0.1617
407.9942	0.1735
408.1997	0.1556
408.4051	0.1284
408.6105	0.1499
408.8159	0.1582
409.0213	0.1467
409.2267	0.1567
409.432	0.1401
409.6374	0.1374
409.8427	0.1409
410.048	0.1549
410.2533	0.1419
410.4586	0.1586
410.6639	0.1357
410.8691	0.1505
411.0744	0.147
411.2796	0.1406
411.4848	0.1468
411.69	0.14
411.8952	0.1727
412.1004	0.1309
412.3056	0.1644
412.5107	0.1318
412.7158	0.1677
412.921	0.1513
413.1261	0.1423
413.3312	0.1361
413.5362	0.1501
413.7413	0.1358
413.9464	0.14
414.1514	0.1522
414.3564	0.1419
414.5614	0.1366
414.7664	0.1602
414.9714	0.1613
415.1764	0.1389
415.3813	0.1628
415.5863	0.1581
415.7912	0.1537
415.9961	0.1442
416.201	0.1364
416.4059	0.1444
416.6108	0.141
416.8156	0.156
417.0205	0.149
417.2253	0.1354
417.4301	0.129
417.6349	0.147
417.8397	0.1428
418.0445	0.1553
418.2492	0.1442
418.454	0.149
418.6587	0.1472
418.8634	0.1362
419.0681	0.1231
419.2728	0.1417
419.4775	0.1405
419.6822	0.1426
419.8868	0.1128
420.0915	0.1436
420.2961	0.131
420.5007	0.1248
420.7053	0.1558
420.9099	0.1409
421.1144	0.1374
421.319	0.1342
421.5235	0.1326
421.728	0.1369
421.9325	0.1402
422.137	0.1365
422.3415	0.1397
422.546	0.125
422.7504	0.1386
422.9549	0.1409
423.1593	0.128
423.3637	0.1248
423.5681	0.1387
423.7725	0.1259
423.9769	0.1172
424.1812	0.13
424.3856	0.1086
424.5899	0.1225
424.7942	0.1232
424.9985	0.1184
425.2028	0.1063
425.4071	0.1487
425.6113	0.1228
425.8156	0.1187
426.0198	0.1296
426.224	0.1139
426.4282	0.1151
