Data from MonoPyChalIsomerACN10uM410nmA_Absorbance_14-53-25-773.txt Node
Date: Fri Jul 05 14:53:25 BST 2024
User: LASERRRRR
Spectrometer: FLMT03099
Trigger mode: 0
Integration Time (sec): 1.000000E-1
Scans to average: 1
Electric dark correction enabled: true
Nonlinearity correction enabled: false
Boxcar width: 0
XAxis mode: Wavelengths
Number of Pixels in Spectrum: 3648
>>>>>Begin Spectral Data<<<<<
179.3399	-0.1107
179.5586	-0.1107
179.7771	-0.1107
179.9957	0.3184
180.2143	-0
180.4329	-0.3821
180.6514	-0
180.8699	0.1452
181.0885	0.2115
181.307	-0.0967
181.5255	-0.7466
181.744	-0.8405
181.9625	-0
182.181	-0
182.3994	-0
182.6179	-0
182.8363	0.0197
183.0547	-0.1851
183.2732	0.0913
183.4916	0.3137
183.71	0.0562
183.9284	0.4134
184.1467	-0.1592
184.3651	0.1231
184.5835	0.0304
184.8018	0.4095
185.0201	0.1135
185.2385	0.1196
185.4568	0.2349
185.6751	0.1463
185.8934	0.2015
186.1117	0.0935
186.3299	0.0055
186.5482	0.1836
186.7664	0.064
186.9847	0.0559
187.2029	0.0217
187.4211	0.0703
187.6393	0.0245
187.8575	-0.1119
188.0757	0.2288
188.2939	0.1582
188.512	0.44
188.7302	-0.0726
188.9483	0.2693
189.1665	0.2408
189.3846	-0.1625
189.6027	0.2642
189.8208	0.2118
190.0389	0.1665
190.257	0.227
190.475	0.481
190.6931	0.2846
190.9111	0.1913
191.1292	0.0965
191.3472	0.3666
191.5652	0.3961
191.7832	0.2391
192.0012	0.4504
192.2192	0.3819
192.4371	0.4081
192.6551	0.3284
192.873	0.4261
193.091	0.4654
193.3089	0.4525
193.5268	0.6147
193.7447	0.6245
193.9626	0.6195
194.1805	0.495
194.3984	0.6256
194.6162	0.5254
194.8341	0.4883
195.0519	0.4431
195.2697	0.8721
195.4875	0.6452
195.7054	0.8023
195.9231	0.5081
196.1409	0.7675
196.3587	0.5864
196.5765	0.6071
196.7942	0.5505
197.012	0.4322
197.2297	0.563
197.4474	0.6269
197.6651	0.6117
197.8828	0.5413
198.1005	0.561
198.3182	0.5991
198.5358	0.6959
198.7535	0.6468
198.9711	0.7493
199.1888	0.6073
199.4064	0.6776
199.624	0.5622
199.8416	0.589
200.0592	0.5945
200.2767	0.6446
200.4943	0.6995
200.7119	0.8551
200.9294	0.5934
201.1469	0.5412
201.3645	0.5454
201.582	0.5821
201.7995	0.5875
202.017	0.6521
202.2344	0.6465
202.4519	0.7648
202.6694	0.6748
202.8868	0.6598
203.1042	0.7034
203.3217	0.6092
203.5391	0.7292
203.7565	0.5769
203.9739	0.655
204.1913	0.5665
204.4086	0.6576
204.626	0.7745
204.8433	0.6577
205.0607	0.6267
205.278	0.6188
205.4953	0.6387
205.7126	0.6463
205.9299	0.8551
206.1472	0.7699
206.3644	0.5877
206.5817	0.8299
206.7989	0.7464
207.0162	0.6663
207.2334	0.74
207.4506	0.633
207.6678	0.6448
207.885	0.8206
208.1022	0.7154
208.3194	0.6477
208.5365	0.6591
208.7537	0.6944
208.9708	0.6036
209.1879	0.6604
209.405	0.7073
209.6222	0.7952
209.8392	0.6147
210.0563	0.6298
210.2734	0.6776
210.4905	0.6132
210.7075	0.5761
210.9245	0.57
211.1416	0.6785
211.3586	0.7102
211.5756	0.5877
211.7926	0.6076
212.0096	0.5525
212.2265	0.5884
212.4435	0.634
212.6604	0.627
212.8774	0.6002
213.0943	0.5938
213.3112	0.5591
213.5281	0.5371
213.745	0.5667
213.9619	0.5463
214.1788	0.4646
214.3956	0.4346
214.6125	0.4916
214.8293	0.4226
215.0461	0.4676
215.2629	0.4491
215.4798	0.493
215.6965	0.4195
215.9133	0.4715
216.1301	0.4335
216.3469	0.433
216.5636	0.4122
216.7803	0.3743
216.9971	0.4208
217.2138	0.3546
217.4305	0.3683
217.6472	0.3539
217.8639	0.3848
218.0805	0.3127
218.2972	0.3324
218.5138	0.3461
218.7305	0.3142
218.9471	0.3044
219.1637	0.2651
219.3803	0.2897
219.5969	0.279
219.8135	0.2369
220.0301	0.262
220.2466	0.2679
220.4632	0.2538
220.6797	0.2442
220.8962	0.2262
221.1127	0.2515
221.3292	0.2727
221.5457	0.243
221.7622	0.244
221.9787	0.2623
222.1951	0.2363
222.4116	0.2786
222.628	0.2528
222.8444	0.258
223.0608	0.2472
223.2772	0.2456
223.4936	0.269
223.71	0.2583
223.9264	0.2827
224.1427	0.2453
224.3591	0.2555
224.5754	0.2589
224.7917	0.2616
225.008	0.26
225.2243	0.2429
225.4406	0.2772
225.6569	0.255
225.8732	0.2475
226.0894	0.2575
226.3057	0.2572
226.5219	0.3138
226.7381	0.2716
226.9543	0.2619
227.1705	0.2769
227.3867	0.2917
227.6029	0.2855
227.8191	0.2946
228.0352	0.2824
228.2513	0.2904
228.4675	0.307
228.6836	0.3293
228.8997	0.2732
229.1158	0.312
229.3319	0.2985
229.548	0.303
229.764	0.3257
229.9801	0.3221
230.1961	0.329
230.4121	0.3251
230.6282	0.3334
230.8442	0.3152
231.0602	0.3545
231.2761	0.3555
231.4921	0.3402
231.7081	0.3742
231.924	0.3392
232.14	0.3596
232.3559	0.3467
232.5718	0.3548
232.7877	0.3545
233.0036	0.3441
233.2195	0.3571
233.4353	0.3559
233.6512	0.3527
233.867	0.3662
234.0829	0.3628
234.2987	0.3784
234.5145	0.373
234.7303	0.3746
234.9461	0.3921
235.1619	0.365
235.3776	0.3784
235.5934	0.3605
235.8091	0.347
236.0249	0.3862
236.2406	0.3941
236.4563	0.3821
236.672	0.4101
236.8877	0.391
237.1034	0.3817
237.319	0.3911
237.5347	0.3918
237.7503	0.3928
237.966	0.4052
238.1816	0.3931
238.3972	0.4076
238.6128	0.3993
238.8284	0.4088
239.0439	0.401
239.2595	0.4049
239.475	0.3951
239.6906	0.4025
239.9061	0.4043
240.1216	0.4074
240.3371	0.4107
240.5526	0.3885
240.7681	0.4028
240.9836	0.3944
241.199	0.3734
241.4145	0.3796
241.6299	0.3697
241.8453	0.3748
242.0607	0.3954
242.2761	0.372
242.4915	0.3693
242.7069	0.3559
242.9223	0.3508
243.1376	0.3445
243.353	0.3384
243.5683	0.3409
243.7836	0.3267
243.9989	0.3405
244.2142	0.3116
244.4295	0.327
244.6448	0.3119
244.86	0.2868
245.0753	0.2972
245.2905	0.2927
245.5057	0.2699
245.721	0.2816
245.9362	0.2593
246.1514	0.2608
246.3665	0.2656
246.5817	0.2577
246.7969	0.2413
247.012	0.2493
247.2271	0.2429
247.4423	0.2408
247.6574	0.2585
247.8725	0.2217
248.0876	0.212
248.3026	0.2285
248.5177	0.2337
248.7328	0.2123
248.9478	0.2083
249.1628	0.2131
249.3779	0.2187
249.5929	0.1989
249.8079	0.2087
250.0228	0.2009
250.2378	0.2096
250.4528	0.2094
250.6677	0.1903
250.8827	0.1847
251.0976	0.1929
251.3125	0.1975
251.5274	0.1759
251.7423	0.189
251.9572	0.1873
252.172	0.1853
252.3869	0.1848
252.6017	0.1715
252.8166	0.1619
253.0314	0.1668
253.2462	0.1717
253.461	0.1789
253.6758	0.1619
253.8906	0.1747
254.1053	0.1662
254.3201	0.1707
254.5348	0.1784
254.7496	0.1758
254.9643	0.1658
255.179	0.1695
255.3937	0.1667
255.6083	0.1723
255.823	0.1625
256.0377	0.1617
256.2523	0.1686
256.467	0.1498
256.6816	0.1706
256.8962	0.162
257.1108	0.1606
257.3254	0.1776
257.54	0.1635
257.7545	0.1623
257.9691	0.1702
258.1836	0.1736
258.3981	0.1702
258.6127	0.1848
258.8272	0.1625
259.0417	0.1663
259.2561	0.1633
259.4706	0.1576
259.6851	0.1633
259.8995	0.1598
260.114	0.1599
260.3284	0.1668
260.5428	0.1639
260.7572	0.1565
260.9716	0.1708
261.186	0.1468
261.4003	0.1556
261.6147	0.1551
261.829	0.167
262.0433	0.1611
262.2577	0.1661
262.472	0.1734
262.6863	0.1592
262.9005	0.1596
263.1148	0.1559
263.3291	0.1404
263.5433	0.1675
263.7576	0.163
263.9718	0.1532
264.186	0.1638
264.4002	0.1541
264.6144	0.1606
264.8286	0.1699
265.0427	0.1603
265.2569	0.1713
265.471	0.1565
265.6851	0.1529
265.8993	0.1429
266.1134	0.1676
266.3275	0.1563
266.5415	0.1555
266.7556	0.1765
266.9697	0.1629
267.1837	0.1622
267.3978	0.1621
267.6118	0.1661
267.8258	0.1706
268.0398	0.1567
268.2538	0.1587
268.4677	0.1675
268.6817	0.1497
268.8957	0.1672
269.1096	0.1691
269.3235	0.1688
269.5374	0.1556
269.7514	0.1553
269.9652	0.1505
270.1791	0.1535
270.393	0.1482
270.6068	0.1565
270.8207	0.1438
271.0345	0.1422
271.2483	0.1548
271.4622	0.1508
271.676	0.1638
271.8897	0.1375
272.1035	0.1434
272.3173	0.1447
272.531	0.1376
272.7448	0.147
272.9585	0.1388
273.1722	0.1443
273.3859	0.1397
273.5996	0.1395
273.8133	0.1312
274.0269	0.1359
274.2406	0.1387
274.4542	0.1421
274.6679	0.142
274.8815	0.1498
275.0951	0.1408
275.3087	0.156
275.5223	0.1458
275.7358	0.1515
275.9494	0.1313
276.1629	0.1282
276.3765	0.1473
276.59	0.1508
276.8035	0.1408
277.017	0.1489
277.2305	0.138
277.444	0.1516
277.6574	0.137
277.8709	0.153
278.0843	0.1358
278.2978	0.1327
278.5112	0.1382
278.7246	0.1432
278.938	0.1557
279.1513	0.1487
279.3647	0.1493
279.5781	0.1408
279.7914	0.1458
280.0047	0.1509
280.2181	0.1573
280.4314	0.1585
280.6447	0.1532
280.8579	0.1447
281.0712	0.1541
281.2845	0.1493
281.4977	0.1501
281.711	0.1424
281.9242	0.1394
282.1374	0.1448
282.3506	0.1439
282.5638	0.147
282.7769	0.1427
282.9901	0.1473
283.2033	0.1706
283.4164	0.1627
283.6295	0.1464
283.8426	0.1474
284.0557	0.1634
284.2688	0.1641
284.4819	0.1585
284.695	0.1523
284.908	0.1622
285.1211	0.1566
285.3341	0.142
285.5471	0.165
285.7601	0.1524
285.9731	0.1528
286.1861	0.1583
286.3991	0.1561
286.612	0.1764
286.825	0.1573
287.0379	0.1627
287.2508	0.1627
287.4637	0.1653
287.6766	0.1599
287.8895	0.1597
288.1024	0.1792
288.3152	0.1646
288.5281	0.1489
288.7409	0.157
288.9538	0.148
289.1666	0.16
289.3794	0.1633
289.5922	0.1493
289.8049	0.1717
290.0177	0.155
290.2304	0.1639
290.4432	0.1742
290.6559	0.1565
290.8686	0.1679
291.0813	0.1698
291.294	0.1651
291.5067	0.1597
291.7194	0.1585
291.932	0.1799
292.1447	0.1557
292.3573	0.1605
292.5699	0.1629
292.7825	0.1716
292.9951	0.1578
293.2077	0.1592
293.4203	0.1687
293.6328	0.144
293.8454	0.177
294.0579	0.1603
294.2704	0.1669
294.4829	0.1502
294.6954	0.1554
294.9079	0.1665
295.1204	0.1574
295.3328	0.1648
295.5453	0.1705
295.7577	0.1638
295.9701	0.1556
296.1825	0.1669
296.3949	0.1643
296.6073	0.1658
296.8197	0.153
297.0321	0.178
297.2444	0.145
297.4567	0.1604
297.6691	0.1721
297.8814	0.1595
298.0937	0.1599
298.306	0.1726
298.5182	0.165
298.7305	0.1697
298.9428	0.1546
299.155	0.1618
299.3672	0.1625
299.5794	0.1561
299.7916	0.1652
300.0038	0.1669
300.216	0.1741
300.4282	0.1683
300.6403	0.1578
300.8525	0.1681
301.0646	0.1498
301.2767	0.1608
301.4888	0.1609
301.7009	0.1621
301.913	0.1623
302.125	0.1597
302.3371	0.1566
302.5491	0.1647
302.7612	0.1676
302.9732	0.1693
303.1852	0.1674
303.3972	0.1635
303.6092	0.1494
303.8211	0.1669
304.0331	0.1532
304.245	0.1574
304.457	0.1527
304.6689	0.1447
304.8808	0.1621
305.0927	0.1508
305.3046	0.1488
305.5164	0.161
305.7283	0.1522
305.9401	0.1528
306.152	0.1566
306.3638	0.1531
306.5756	0.142
306.7874	0.1446
306.9992	0.151
307.2109	0.1457
307.4227	0.1293
307.6344	0.1391
307.8462	0.1324
308.0579	0.1311
308.2696	0.1365
308.4813	0.1177
308.693	0.1339
308.9046	0.1368
309.1163	0.1287
309.328	0.1174
309.5396	0.1277
309.7512	0.114
309.9628	0.1263
310.1744	0.1232
310.386	0.1233
310.5976	0.1256
310.8091	0.1212
311.0207	0.1163
311.2322	0.1141
311.4437	0.1073
311.6552	0.1181
311.8667	0.1131
312.0782	0.1016
312.2897	0.0938
312.5012	0.1098
312.7126	0.0978
312.924	0.1004
313.1355	0.1189
313.3469	0.1096
313.5583	0.1025
313.7696	0.1101
313.981	0.1067
314.1924	0.0994
314.4037	0.1056
314.6151	0.1128
314.8264	0.0942
315.0377	0.0856
315.249	0.1047
315.4603	0.1139
315.6716	0.1055
315.8828	0.0936
316.0941	0.0969
316.3053	0.0889
316.5165	0.0964
316.7277	0.0869
316.9389	0.0962
317.1501	0.1006
317.3613	0.0953
317.5724	0.0879
317.7836	0.1075
317.9947	0.0949
318.2058	0.0889
318.417	0.0828
318.6281	0.082
318.8391	0.1047
319.0502	0.0961
319.2613	0.0938
319.4723	0.0971
319.6834	0.0982
319.8944	0.1043
320.1054	0.1016
320.3164	0.1054
320.5274	0.0992
320.7383	0.1029
320.9493	0.0991
321.1602	0.1064
321.3712	0.0868
321.5821	0.1103
321.793	0.0909
322.0039	0.0956
322.2148	0.0945
322.4257	0.1016
322.6365	0.1067
322.8474	0.0949
323.0582	0.1042
323.269	0.0986
323.4798	0.1099
323.6906	0.1023
323.9014	0.099
324.1122	0.1043
324.3229	0.0993
324.5337	0.1055
324.7444	0.095
324.9551	0.1093
325.1658	0.0976
325.3765	0.1
325.5872	0.1033
325.7979	0.0922
326.0085	0.1051
326.2192	0.1036
326.4298	0.0956
326.6404	0.0971
326.851	0.0955
327.0616	0.0856
327.2722	0.1072
327.4828	0.1121
327.6933	0.1054
327.9039	0.1054
328.1144	0.102
328.3249	0.1059
328.5354	0.0988
328.7459	0.1076
328.9564	0.1078
329.1669	0.1019
329.3773	0.1096
329.5878	0.1008
329.7982	0.0994
330.0086	0.1012
330.219	0.1196
330.4294	0.1065
330.6398	0.1044
330.8502	0.0929
331.0605	0.1024
331.2708	0.1108
331.4812	0.1165
331.6915	0.1028
331.9018	0.1024
332.1121	0.0996
332.3224	0.106
332.5326	0.1123
332.7429	0.1066
332.9531	0.1166
333.1633	0.1018
333.3735	0.1095
333.5837	0.1022
333.7939	0.0962
334.0041	0.1216
334.2143	0.1146
334.4244	0.1045
334.6346	0.0851
334.8447	0.1211
335.0548	0.0925
335.2649	0.095
335.475	0.1234
335.685	0.0997
335.8951	0.1186
336.1051	0.1227
336.3152	0.114
336.5252	0.1042
336.7352	0.1025
336.9452	0.1134
337.1552	0.1159
337.3652	0.1129
337.5751	0.1053
337.7851	0.1156
337.995	0.0972
338.2049	0.1218
338.4148	0.1091
338.6247	0.1211
338.8346	0.1075
339.0445	0.104
339.2543	0.098
339.4642	0.1277
339.674	0.1168
339.8838	0.1131
340.0936	0.1154
340.3034	0.1216
340.5132	0.1241
340.7229	0.1231
340.9327	0.1186
341.1424	0.1002
341.3522	0.1245
341.5619	0.1228
341.7716	0.1148
341.9813	0.1136
342.1909	0.1176
342.4006	0.1375
342.6102	0.1328
342.8199	0.1213
343.0295	0.1113
343.2391	0.1323
343.4487	0.134
343.6583	0.1195
343.8679	0.1185
344.0774	0.115
344.287	0.1259
344.4965	0.1257
344.706	0.1155
344.9155	0.1224
345.125	0.1308
345.3345	0.1207
345.544	0.1151
345.7534	0.123
345.9629	0.1162
346.1723	0.1276
346.3817	0.1202
346.5911	0.1136
346.8005	0.1359
347.0099	0.122
347.2193	0.1324
347.4286	0.128
347.638	0.1268
347.8473	0.1296
348.0566	0.1427
348.2659	0.1416
348.4752	0.1408
348.6845	0.1232
348.8937	0.1312
349.103	0.1502
349.3122	0.1244
349.5214	0.1397
349.7306	0.1437
349.9398	0.1409
350.149	0.1475
350.3582	0.1331
350.5674	0.1548
350.7765	0.1343
350.9856	0.1475
351.1948	0.1322
351.4039	0.1292
351.613	0.1329
351.822	0.1291
352.0311	0.1523
352.2402	0.1527
352.4492	0.1429
352.6582	0.1476
352.8672	0.1388
353.0762	0.1475
353.2852	0.153
353.4942	0.1372
353.7032	0.1531
353.9121	0.1502
354.1211	0.159
354.33	0.1573
354.5389	0.1575
354.7478	0.1479
354.9567	0.1431
355.1655	0.1464
355.3744	0.1465
355.5833	0.1689
355.7921	0.1618
356.0009	0.158
356.2097	0.1653
356.4185	0.1676
356.6273	0.1566
356.8361	0.1548
357.0448	0.1469
357.2536	0.1359
357.4623	0.1643
357.671	0.1624
357.8797	0.1705
358.0884	0.1761
358.2971	0.159
358.5057	0.1633
358.7144	0.1606
358.923	0.1571
359.1316	0.1792
359.3402	0.1758
359.5488	0.1721
359.7574	0.1639
359.966	0.1763
360.1746	0.1573
360.3831	0.1831
360.5916	0.1694
360.8002	0.1642
361.0087	0.1807
361.2172	0.19
361.4256	0.1739
361.6341	0.1764
361.8426	0.194
362.051	0.1823
362.2594	0.1795
362.4678	0.18
362.6762	0.2003
362.8846	0.19
363.093	0.188
363.3014	0.1756
363.5097	0.1756
363.718	0.1873
363.9264	0.1807
364.1347	0.1869
364.343	0.1972
364.5513	0.194
364.7595	0.1891
364.9678	0.1907
365.176	0.1914
365.3842	0.2027
365.5925	0.1952
365.8007	0.2071
366.0089	0.2008
366.217	0.1925
366.4252	0.2015
366.6333	0.2105
366.8415	0.2027
367.0496	0.1856
367.2577	0.2157
367.4658	0.2146
367.6739	0.2038
367.882	0.2102
368.09	0.1975
368.2981	0.2006
368.5061	0.2083
368.7141	0.2093
368.9221	0.2149
369.1301	0.2181
369.3381	0.2052
369.5461	0.2032
369.754	0.2092
369.962	0.2199
370.1699	0.2074
370.3778	0.2203
370.5857	0.2112
370.7936	0.2319
371.0015	0.2111
371.2093	0.2117
371.4172	0.2343
371.625	0.2037
371.8328	0.2165
372.0406	0.2216
372.2484	0.2306
372.4562	0.2239
372.664	0.2039
372.8717	0.2374
373.0795	0.1902
373.2872	0.2289
373.4949	0.2263
373.7026	0.2088
373.9103	0.2429
374.118	0.2162
374.3256	0.2292
374.5333	0.2103
374.7409	0.2196
374.9485	0.2473
375.1561	0.2315
375.3637	0.2408
375.5713	0.2357
375.7789	0.2286
375.9864	0.2389
376.194	0.2217
376.4015	0.2413
376.609	0.2357
376.8165	0.236
377.024	0.2391
377.2315	0.2336
377.4389	0.2571
377.6464	0.2491
377.8538	0.2447
378.0612	0.237
378.2686	0.2563
378.476	0.2516
378.6834	0.2386
378.8908	0.2467
379.0981	0.2539
379.3055	0.2331
379.5128	0.226
379.7201	0.2604
379.9274	0.2539
380.1347	0.2426
380.342	0.2605
380.5492	0.2483
380.7565	0.2465
380.9637	0.2638
381.1709	0.2412
381.3781	0.2617
381.5853	0.2532
381.7925	0.2509
381.9997	0.2451
382.2068	0.2538
382.4139	0.2593
382.6211	0.2606
382.8282	0.2582
383.0353	0.2658
383.2424	0.2507
383.4494	0.2552
383.6565	0.2317
383.8635	0.2474
384.0706	0.2469
384.2776	0.2546
384.4846	0.2527
384.6916	0.2573
384.8986	0.258
385.1055	0.2839
385.3125	0.2522
385.5194	0.2533
385.7263	0.2594
385.9333	0.2655
386.1402	0.2673
386.347	0.2618
386.5539	0.26
386.7608	0.2714
386.9676	0.232
387.1744	0.2424
387.3813	0.2607
387.5881	0.2522
387.7948	0.2523
388.0016	0.2586
388.2084	0.2541
388.4151	0.2305
388.6219	0.2588
388.8286	0.2418
389.0353	0.2798
389.242	0.2568
389.4487	0.2502
389.6553	0.2448
389.862	0.2202
390.0686	0.2499
390.2753	0.2591
390.4819	0.2358
390.6885	0.2257
390.8951	0.2552
391.1016	0.2383
391.3082	0.2387
391.5147	0.2256
391.7213	0.2436
391.9278	0.225
392.1343	0.2451
392.3408	0.2455
392.5473	0.227
392.7537	0.2343
392.9602	0.2206
393.1666	0.2326
393.373	0.2293
393.5794	0.2324
393.7858	0.2288
393.9922	0.2307
394.1986	0.2368
394.4049	0.2266
394.6113	0.239
394.8176	0.2237
395.0239	0.2201
395.2302	0.2133
395.4365	0.2188
395.6428	0.2253
395.8491	0.2032
396.0553	0.2271
396.2615	0.2245
396.4678	0.2233
396.674	0.2073
396.8802	0.2214
397.0863	0.2244
397.2925	0.2032
397.4987	0.2113
397.7048	0.2205
397.9109	0.2042
398.117	0.2081
398.3231	0.2089
398.5292	0.2154
398.7353	0.2191
398.9413	0.2236
399.1474	0.2054
399.3534	0.2146
399.5594	0.1987
399.7654	0.1951
399.9714	0.221
400.1774	0.2089
400.3833	0.2125
400.5893	0.2052
400.7952	0.2018
401.0011	0.213
401.207	0.2252
401.4129	0.2155
401.6188	0.2183
401.8247	0.2071
402.0305	0.2042
402.2364	0.202
402.4422	0.2387
402.648	0.2206
402.8538	0.2226
403.0596	0.1992
403.2654	0.2242
403.4711	0.1945
403.6768	0.2237
403.8826	0.2146
404.0883	0.2084
404.294	0.2041
404.4997	0.2214
404.7054	0.2205
404.911	0.2071
405.1167	0.2055
405.3223	0.2163
405.5279	0.2239
405.7335	0.2327
405.9391	0.2068
406.1447	0.2016
406.3502	0.2334
406.5558	0.1938
406.7613	0.2091
406.9668	0.2076
407.1724	0.2002
407.3778	0.2043
407.5833	0.1896
407.7888	0.2027
407.9942	0.2346
408.1997	0.1978
408.4051	0.2176
408.6105	0.2135
408.8159	0.2072
409.0213	0.1972
409.2267	0.2216
409.432	0.2005
409.6374	0.2205
409.8427	0.2069
410.048	0.208
410.2533	0.2054
410.4586	0.2189
410.6639	0.1966
410.8691	0.1962
411.0744	0.2079
411.2796	0.2186
411.4848	0.212
411.69	0.2149
411.8952	0.2286
412.1004	0.2071
412.3056	0.2135
412.5107	0.1847
412.7158	0.2267
412.921	0.2106
413.1261	0.2207
413.3312	0.1797
413.5362	0.2099
413.7413	0.2058
413.9464	0.2007
414.1514	0.2112
414.3564	0.2068
414.5614	0.1927
414.7664	0.218
414.9714	0.2088
415.1764	0.2002
415.3813	0.2154
415.5863	0.2105
415.7912	0.2199
415.9961	0.2145
416.201	0.2133
416.4059	0.1925
416.6108	0.186
416.8156	0.2185
417.0205	0.1997
417.2253	0.191
417.4301	0.2017
417.6349	0.2011
417.8397	0.2163
418.0445	0.2037
418.2492	0.2087
418.454	0.1836
418.6587	0.2018
418.8634	0.2169
419.0681	0.1875
419.2728	0.1781
419.4775	0.2108
419.6822	0.2001
419.8868	0.1693
420.0915	0.1892
420.2961	0.1709
420.5007	0.1938
420.7053	0.1962
420.9099	0.195
421.1144	0.1797
421.319	0.1644
421.5235	0.185
421.728	0.2009
421.9325	0.1929
422.137	0.1895
422.3415	0.1801
422.546	0.1977
422.7504	0.1879
422.9549	0.1941
423.1593	0.203
423.3637	0.1834
423.5681	0.1806
423.7725	0.1817
423.9769	0.1906
424.1812	0.1693
424.3856	0.1629
424.5899	0.1811
424.7942	0.1859
424.9985	0.171
425.2028	0.1739
425.4071	0.1863
425.6113	0.1585
425.8156	0.1706
426.0198	0.2012
426.224	0.172
426.4282	0.1815
426.6324	0.1674
