Data from MonoPyChalIsomerACN10uM410nmA_Absorbance_14-53-28-573.txt Node
Date: Fri Jul 05 14:53:28 BST 2024
User: LASERRRRR
Spectrometer: FLMT03099
Trigger mode: 0
Integration Time (sec): 1.000000E-1
Scans to average: 1
Electric dark correction enabled: true
Nonlinearity correction enabled: false
Boxcar width: 0
XAxis mode: Wavelengths
Number of Pixels in Spectrum: 3648
>>>>>Begin Spectral Data<<<<<
179.3399	0.0201
179.5586	0.0201
179.7771	0.0201
179.9957	-0
180.2143	-0
180.4329	0.0718
180.6514	-0
180.8699	-0
181.0885	-0.2786
181.307	0.2976
181.5255	-1.009
181.744	-0
181.9625	-0
182.181	-0.301
182.3994	1.356
182.6179	-0.2727
182.8363	0.0571
183.0547	0.0787
183.2732	-0.0164
183.4916	0.1267
183.71	0.0667
183.9284	0.1598
184.1467	0.0213
184.3651	-0.1748
184.5835	0.0224
184.8018	-0.1065
185.0201	0.3134
185.2385	0.0043
185.4568	0.1699
185.6751	0.149
185.8934	0.5085
186.1117	-0.0153
186.3299	-0.0584
186.5482	0.0463
186.7664	-0.0008
186.9847	0.0131
187.2029	0.0977
187.4211	0.0091
187.6393	0.5657
187.8575	-0.1939
188.0757	0.2207
188.2939	0.1712
188.512	-0.0679
188.7302	0.0686
188.9483	0.5473
189.1665	0.2217
189.3846	-0.2172
189.6027	0.0242
189.8208	0.218
190.0389	0.1193
190.257	0.1591
190.475	0.4944
190.6931	0.2449
190.9111	0.2826
191.1292	0.0023
191.3472	0.3917
191.5652	0.2113
191.7832	0.2692
192.0012	0.3
192.2192	0.614
192.4371	0.5533
192.6551	0.2142
192.873	0.3229
193.091	0.3288
193.3089	0.6916
193.5268	0.5653
193.7447	0.5491
193.9626	0.53
194.1805	0.57
194.3984	0.6274
194.6162	0.4973
194.8341	0.5947
195.0519	0.3917
195.2697	0.7035
195.4875	0.7215
195.7054	0.5742
195.9231	0.5365
196.1409	0.4601
196.3587	0.7271
196.5765	0.6046
196.7942	0.5929
197.012	0.4664
197.2297	0.7084
197.4474	0.9323
197.6651	0.6019
197.8828	0.6642
198.1005	0.4728
198.3182	0.587
198.5358	1.0235
198.7535	0.5896
198.9711	0.4658
199.1888	0.6255
199.4064	0.8612
199.624	0.6937
199.8416	0.5
200.0592	0.7015
200.2767	0.6703
200.4943	0.6488
200.7119	0.7163
200.9294	0.6628
201.1469	0.5067
201.3645	0.536
201.582	0.5181
201.7995	0.5517
202.017	0.5632
202.2344	0.5923
202.4519	0.6071
202.6694	0.6133
202.8868	0.6096
203.1042	0.6291
203.3217	0.6386
203.5391	0.5369
203.7565	0.5644
203.9739	0.6513
204.1913	0.5907
204.4086	0.6698
204.626	0.6946
204.8433	0.6222
205.0607	0.5674
205.278	0.6175
205.4953	0.6015
205.7126	0.641
205.9299	0.7161
206.1472	0.6411
206.3644	0.6779
206.5817	0.72
206.7989	0.6662
207.0162	0.6492
207.2334	0.6919
207.4506	0.7026
207.6678	0.6301
207.885	0.6114
208.1022	0.6088
208.3194	0.6327
208.5365	0.6529
208.7537	0.6013
208.9708	0.6139
209.1879	0.5995
209.405	0.7236
209.6222	0.6666
209.8392	0.6137
210.0563	0.6504
210.2734	0.5889
210.4905	0.6577
210.7075	0.7009
210.9245	0.6177
211.1416	0.6775
211.3586	0.6443
211.5756	0.5845
211.7926	0.6129
212.0096	0.5561
212.2265	0.5587
212.4435	0.536
212.6604	0.586
212.8774	0.5994
213.0943	0.5559
213.3112	0.5153
213.5281	0.553
213.745	0.4546
213.9619	0.5065
214.1788	0.4859
214.3956	0.4965
214.6125	0.4821
214.8293	0.439
215.0461	0.4352
215.2629	0.4357
215.4798	0.4813
215.6965	0.4465
215.9133	0.4232
216.1301	0.4138
216.3469	0.4224
216.5636	0.4215
216.7803	0.3481
216.9971	0.4388
217.2138	0.3867
217.4305	0.352
217.6472	0.3403
217.8639	0.3817
218.0805	0.3419
218.2972	0.3425
218.5138	0.3079
218.7305	0.3264
218.9471	0.2994
219.1637	0.2846
219.3803	0.274
219.5969	0.2593
219.8135	0.2457
220.0301	0.2943
220.2466	0.2915
220.4632	0.2528
220.6797	0.2278
220.8962	0.2474
221.1127	0.2564
221.3292	0.2484
221.5457	0.2183
221.7622	0.2143
221.9787	0.2393
222.1951	0.2236
222.4116	0.2389
222.628	0.2298
222.8444	0.2817
223.0608	0.2362
223.2772	0.2518
223.4936	0.2703
223.71	0.2399
223.9264	0.2601
224.1427	0.2538
224.3591	0.2438
224.5754	0.2436
224.7917	0.2524
225.008	0.2543
225.2243	0.2533
225.4406	0.2644
225.6569	0.255
225.8732	0.2516
226.0894	0.2573
226.3057	0.2639
226.5219	0.2684
226.7381	0.2575
226.9543	0.2806
227.1705	0.2898
227.3867	0.2571
227.6029	0.2958
227.8191	0.3039
228.0352	0.2904
228.2513	0.3006
228.4675	0.2978
228.6836	0.3148
228.8997	0.2921
229.1158	0.303
229.3319	0.2905
229.548	0.3145
229.764	0.3232
229.9801	0.3255
230.1961	0.326
230.4121	0.3324
230.6282	0.3347
230.8442	0.3278
231.0602	0.3303
231.2761	0.3427
231.4921	0.342
231.7081	0.3369
231.924	0.3366
232.14	0.3553
232.3559	0.3384
232.5718	0.3644
232.7877	0.3435
233.0036	0.3379
233.2195	0.3414
233.4353	0.356
233.6512	0.3469
233.867	0.3696
234.0829	0.3577
234.2987	0.3703
234.5145	0.369
234.7303	0.3736
234.9461	0.3687
235.1619	0.3755
235.3776	0.3694
235.5934	0.3619
235.8091	0.3639
236.0249	0.3722
236.2406	0.38
236.4563	0.366
236.672	0.3833
236.8877	0.3816
237.1034	0.3874
237.319	0.3854
237.5347	0.4056
237.7503	0.394
237.966	0.3992
238.1816	0.3808
238.3972	0.4066
238.6128	0.395
238.8284	0.3944
239.0439	0.3874
239.2595	0.3996
239.475	0.414
239.6906	0.4124
239.9061	0.4105
240.1216	0.3982
240.3371	0.405
240.5526	0.3922
240.7681	0.4121
240.9836	0.4055
241.199	0.3889
241.4145	0.3956
241.6299	0.3845
241.8453	0.371
242.0607	0.3803
242.2761	0.3554
242.4915	0.3834
242.7069	0.3554
242.9223	0.3496
243.1376	0.3529
243.353	0.3508
243.5683	0.3604
243.7836	0.3361
243.9989	0.3389
244.2142	0.3138
244.4295	0.3248
244.6448	0.3178
244.86	0.3199
245.0753	0.2901
245.2905	0.2981
245.5057	0.287
245.721	0.2744
245.9362	0.2739
246.1514	0.2687
246.3665	0.2726
246.5817	0.27
246.7969	0.2528
247.012	0.2569
247.2271	0.2336
247.4423	0.267
247.6574	0.2455
247.8725	0.2357
248.0876	0.2224
248.3026	0.2386
248.5177	0.216
248.7328	0.2246
248.9478	0.2112
249.1628	0.2155
249.3779	0.2226
249.5929	0.211
249.8079	0.2251
250.0228	0.2059
250.2378	0.2077
250.4528	0.2156
250.6677	0.1759
250.8827	0.1942
251.0976	0.1975
251.3125	0.1947
251.5274	0.1869
251.7423	0.1897
251.9572	0.1862
252.172	0.1898
252.3869	0.1989
252.6017	0.1852
252.8166	0.1725
253.0314	0.1684
253.2462	0.1663
253.461	0.1785
253.6758	0.1638
253.8906	0.1778
254.1053	0.1743
254.3201	0.1651
254.5348	0.1775
254.7496	0.1772
254.9643	0.1568
255.179	0.1785
255.3937	0.1645
255.6083	0.1755
255.823	0.1686
256.0377	0.1612
256.2523	0.1659
256.467	0.1431
256.6816	0.1654
256.8962	0.1654
257.1108	0.1548
257.3254	0.175
257.54	0.1511
257.7545	0.1612
257.9691	0.1673
258.1836	0.1555
258.3981	0.1751
258.6127	0.1666
258.8272	0.1609
259.0417	0.1705
259.2561	0.172
259.4706	0.157
259.6851	0.1537
259.8995	0.1629
260.114	0.1594
260.3284	0.1705
260.5428	0.1552
260.7572	0.1711
260.9716	0.1597
261.186	0.1611
261.4003	0.1624
261.6147	0.1703
261.829	0.1662
262.0433	0.1593
262.2577	0.1498
262.472	0.1718
262.6863	0.1483
262.9005	0.1599
263.1148	0.1596
263.3291	0.1423
263.5433	0.169
263.7576	0.1677
263.9718	0.1522
264.186	0.1596
264.4002	0.1626
264.6144	0.173
264.8286	0.1725
265.0427	0.1646
265.2569	0.1676
265.471	0.1492
265.6851	0.1615
265.8993	0.1663
266.1134	0.148
266.3275	0.165
266.5415	0.1572
266.7556	0.1615
266.9697	0.1615
267.1837	0.1715
267.3978	0.1617
267.6118	0.1628
267.8258	0.1704
268.0398	0.156
268.2538	0.1631
268.4677	0.1639
268.6817	0.1696
268.8957	0.1563
269.1096	0.1655
269.3235	0.1706
269.5374	0.1523
269.7514	0.156
269.9652	0.1556
270.1791	0.1597
270.393	0.1588
270.6068	0.164
270.8207	0.1532
271.0345	0.1461
271.2483	0.1518
271.4622	0.1416
271.676	0.1726
271.8897	0.1399
272.1035	0.1475
272.3173	0.1522
272.531	0.1609
272.7448	0.152
272.9585	0.1539
273.1722	0.159
273.3859	0.1503
273.5996	0.1384
273.8133	0.1472
274.0269	0.1521
274.2406	0.1492
274.4542	0.1479
274.6679	0.1411
274.8815	0.1555
275.0951	0.1543
275.3087	0.1621
275.5223	0.1558
275.7358	0.1572
275.9494	0.1564
276.1629	0.1445
276.3765	0.1492
276.59	0.1565
276.8035	0.1673
277.017	0.1515
277.2305	0.1501
277.444	0.1652
277.6574	0.1484
277.8709	0.1679
278.0843	0.1469
278.2978	0.1549
278.5112	0.1474
278.7246	0.1508
278.938	0.1596
279.1513	0.1567
279.3647	0.1714
279.5781	0.1527
279.7914	0.154
280.0047	0.1718
280.2181	0.1643
280.4314	0.1567
280.6447	0.1553
280.8579	0.1563
281.0712	0.1676
281.2845	0.1561
281.4977	0.1599
281.711	0.1527
281.9242	0.1603
282.1374	0.1677
282.3506	0.1642
282.5638	0.1596
282.7769	0.166
282.9901	0.1613
283.2033	0.1597
283.4164	0.1745
283.6295	0.1451
283.8426	0.1466
284.0557	0.158
284.2688	0.1773
284.4819	0.1588
284.695	0.1621
284.908	0.1692
285.1211	0.1477
285.3341	0.1567
285.5471	0.1728
285.7601	0.1694
285.9731	0.1443
286.1861	0.1615
286.3991	0.1645
286.612	0.1627
286.825	0.1634
287.0379	0.165
287.2508	0.147
287.4637	0.1549
287.6766	0.1529
287.8895	0.1606
288.1024	0.1658
288.3152	0.1668
288.5281	0.1502
288.7409	0.1586
288.9538	0.1526
289.1666	0.1487
289.3794	0.1621
289.5922	0.1505
289.8049	0.1658
290.0177	0.1447
290.2304	0.1586
290.4432	0.1568
290.6559	0.1509
290.8686	0.154
291.0813	0.1512
291.294	0.1606
291.5067	0.1527
291.7194	0.1581
291.932	0.1688
292.1447	0.1607
292.3573	0.1543
292.5699	0.1538
292.7825	0.1626
292.9951	0.1529
293.2077	0.1547
293.4203	0.1606
293.6328	0.1476
293.8454	0.1579
294.0579	0.1542
294.2704	0.1436
294.4829	0.15
294.6954	0.1529
294.9079	0.1461
295.1204	0.1495
295.3328	0.1633
295.5453	0.15
295.7577	0.1474
295.9701	0.1487
296.1825	0.1568
296.3949	0.1503
296.6073	0.1516
296.8197	0.1472
297.0321	0.1625
297.2444	0.1429
297.4567	0.1548
297.6691	0.1469
297.8814	0.1455
298.0937	0.1542
298.306	0.1617
298.5182	0.1497
298.7305	0.157
298.9428	0.1533
299.155	0.1443
299.3672	0.148
299.5794	0.1466
299.7916	0.1431
300.0038	0.151
300.216	0.1532
300.4282	0.1562
300.6403	0.1489
300.8525	0.1529
301.0646	0.1416
301.2767	0.1482
301.4888	0.1495
301.7009	0.1474
301.913	0.1606
302.125	0.1582
302.3371	0.1415
302.5491	0.1512
302.7612	0.166
302.9732	0.148
303.1852	0.1539
303.3972	0.1462
303.6092	0.1463
303.8211	0.1467
304.0331	0.139
304.245	0.1405
304.457	0.1308
304.6689	0.1447
304.8808	0.1459
305.0927	0.1366
305.3046	0.1398
305.5164	0.149
305.7283	0.1347
305.9401	0.1377
306.152	0.1488
306.3638	0.1379
306.5756	0.1413
306.7874	0.1401
306.9992	0.1461
307.2109	0.1314
307.4227	0.1227
307.6344	0.1304
307.8462	0.1429
308.0579	0.1199
308.2696	0.1401
308.4813	0.1209
308.693	0.1314
308.9046	0.1288
309.1163	0.1195
309.328	0.1182
309.5396	0.1163
309.7512	0.1204
309.9628	0.1114
310.1744	0.1058
310.386	0.1226
310.5976	0.1151
310.8091	0.1126
311.0207	0.1152
311.2322	0.1176
311.4437	0.1018
311.6552	0.1097
311.8667	0.1184
312.0782	0.0978
312.2897	0.0966
312.5012	0.1186
312.7126	0.11
312.924	0.1004
313.1355	0.1168
313.3469	0.1126
313.5583	0.1059
313.7696	0.1058
313.981	0.1142
314.1924	0.1104
314.4037	0.1037
314.6151	0.1158
314.8264	0.0961
315.0377	0.1077
315.249	0.1065
315.4603	0.1028
315.6716	0.0959
315.8828	0.0949
316.0941	0.0869
316.3053	0.0932
316.5165	0.0917
316.7277	0.0989
316.9389	0.1005
317.1501	0.0934
317.3613	0.106
317.5724	0.0899
317.7836	0.1022
317.9947	0.1057
318.2058	0.1049
318.417	0.0912
318.6281	0.0982
318.8391	0.1063
319.0502	0.1012
319.2613	0.1038
319.4723	0.1056
319.6834	0.1049
319.8944	0.1002
320.1054	0.1078
320.3164	0.1047
320.5274	0.101
320.7383	0.1037
320.9493	0.0946
321.1602	0.1123
321.3712	0.0941
321.5821	0.1066
321.793	0.0978
322.0039	0.1077
322.2148	0.1013
322.4257	0.1064
322.6365	0.1096
322.8474	0.0981
323.0582	0.107
323.269	0.1072
323.4798	0.1151
323.6906	0.1033
323.9014	0.1066
324.1122	0.1048
324.3229	0.0992
324.5337	0.1123
324.7444	0.1012
324.9551	0.1135
325.1658	0.1138
325.3765	0.1219
325.5872	0.1077
325.7979	0.099
326.0085	0.1063
326.2192	0.1076
326.4298	0.1137
326.6404	0.1124
326.851	0.1047
327.0616	0.1052
327.2722	0.1132
327.4828	0.1144
327.6933	0.1067
327.9039	0.1138
328.1144	0.1239
328.3249	0.1154
328.5354	0.1027
328.7459	0.1119
328.9564	0.1026
329.1669	0.1141
329.3773	0.1049
329.5878	0.1155
329.7982	0.1095
330.0086	0.1124
330.219	0.1176
330.4294	0.1083
330.6398	0.1148
330.8502	0.1005
331.0605	0.115
331.2708	0.1126
331.4812	0.1111
331.6915	0.1142
331.9018	0.1105
332.1121	0.1078
332.3224	0.1125
332.5326	0.1153
332.7429	0.1261
332.9531	0.1217
333.1633	0.1111
333.3735	0.1153
333.5837	0.1092
333.7939	0.0985
334.0041	0.1282
334.2143	0.1127
334.4244	0.1191
334.6346	0.0945
334.8447	0.1196
335.0548	0.1021
335.2649	0.1031
335.475	0.1202
335.685	0.1154
335.8951	0.1263
336.1051	0.1244
336.3152	0.1238
336.5252	0.1225
336.7352	0.1204
336.9452	0.1201
337.1552	0.1181
337.3652	0.105
337.5751	0.1196
337.7851	0.1194
337.995	0.1173
338.2049	0.1272
338.4148	0.1194
338.6247	0.1169
338.8346	0.1061
339.0445	0.1099
339.2543	0.1147
339.4642	0.1247
339.674	0.1093
339.8838	0.1175
340.0936	0.1295
340.3034	0.1359
340.5132	0.1212
340.7229	0.1223
340.9327	0.1163
341.1424	0.1216
341.3522	0.1325
341.5619	0.1189
341.7716	0.1237
341.9813	0.1225
342.1909	0.1151
342.4006	0.1347
342.6102	0.1274
342.8199	0.1254
343.0295	0.1246
343.2391	0.1284
343.4487	0.1327
343.6583	0.1216
343.8679	0.126
344.0774	0.1378
344.287	0.1353
344.4965	0.1367
344.706	0.1401
344.9155	0.1337
345.125	0.1232
345.3345	0.1479
345.544	0.1285
345.7534	0.1312
345.9629	0.1275
346.1723	0.137
346.3817	0.1233
346.5911	0.1253
346.8005	0.132
347.0099	0.1303
347.2193	0.1364
347.4286	0.1381
347.638	0.1485
347.8473	0.1334
348.0566	0.1512
348.2659	0.1248
348.4752	0.1449
348.6845	0.1445
348.8937	0.1389
349.103	0.1377
349.3122	0.138
349.5214	0.1321
349.7306	0.138
349.9398	0.1408
350.149	0.1418
350.3582	0.1436
350.5674	0.1492
350.7765	0.1483
350.9856	0.1443
351.1948	0.1432
351.4039	0.1352
351.613	0.1408
351.822	0.1559
352.0311	0.1513
352.2402	0.1414
352.4492	0.1494
352.6582	0.1503
352.8672	0.152
353.0762	0.1577
353.2852	0.1482
353.4942	0.1378
353.7032	0.156
353.9121	0.1515
354.1211	0.1509
354.33	0.1605
354.5389	0.1561
354.7478	0.1492
354.9567	0.1526
355.1655	0.1345
355.3744	0.1514
355.5833	0.1666
355.7921	0.1623
356.0009	0.1456
356.2097	0.1692
356.4185	0.1735
356.6273	0.1677
356.8361	0.1623
357.0448	0.1513
357.2536	0.1522
357.4623	0.1535
357.671	0.1476
357.8797	0.1619
358.0884	0.1628
358.2971	0.1708
358.5057	0.1762
358.7144	0.1699
358.923	0.1656
359.1316	0.1667
359.3402	0.172
359.5488	0.1627
359.7574	0.1562
359.966	0.1704
360.1746	0.1788
360.3831	0.167
360.5916	0.1719
360.8002	0.1632
361.0087	0.1709
361.2172	0.1672
361.4256	0.1622
361.6341	0.1849
361.8426	0.175
362.051	0.1617
362.2594	0.1801
362.4678	0.1815
362.6762	0.21
362.8846	0.1757
363.093	0.163
363.3014	0.1806
363.5097	0.1693
363.718	0.1671
363.9264	0.1754
364.1347	0.1705
364.343	0.1975
364.5513	0.1914
364.7595	0.1853
364.9678	0.1889
365.176	0.1855
365.3842	0.1699
365.5925	0.1883
365.8007	0.1832
366.0089	0.1806
366.217	0.1812
366.4252	0.2094
366.6333	0.195
366.8415	0.1927
367.0496	0.1799
367.2577	0.2032
367.4658	0.1905
367.6739	0.1808
367.882	0.1946
368.09	0.1947
368.2981	0.2095
368.5061	0.2008
368.7141	0.1896
368.9221	0.2017
369.1301	0.1913
369.3381	0.1846
369.5461	0.1928
369.754	0.1974
369.962	0.2197
370.1699	0.1971
370.3778	0.2049
370.5857	0.1881
370.7936	0.1953
371.0015	0.2004
371.2093	0.203
371.4172	0.2303
371.625	0.1925
371.8328	0.1981
372.0406	0.2061
372.2484	0.1912
372.4562	0.2043
372.664	0.213
372.8717	0.2327
373.0795	0.1872
373.2872	0.1982
373.4949	0.2079
373.7026	0.2024
373.9103	0.2156
374.118	0.2188
374.3256	0.2051
374.5333	0.2117
374.7409	0.1985
374.9485	0.2267
375.1561	0.205
375.3637	0.2254
375.5713	0.219
375.7789	0.2133
375.9864	0.2208
376.194	0.2074
376.4015	0.219
376.609	0.2234
376.8165	0.2109
377.024	0.2145
377.2315	0.201
377.4389	0.2268
377.6464	0.2249
377.8538	0.2081
378.0612	0.215
378.2686	0.2313
378.476	0.2249
378.6834	0.2233
378.8908	0.2197
379.0981	0.2253
379.3055	0.225
379.5128	0.2049
379.7201	0.2065
379.9274	0.2181
380.1347	0.2271
380.342	0.2218
380.5492	0.2102
380.7565	0.2298
380.9637	0.2276
381.1709	0.2259
381.3781	0.224
381.5853	0.2202
381.7925	0.2261
381.9997	0.2309
382.2068	0.2378
382.4139	0.2327
382.6211	0.213
382.8282	0.2233
383.0353	0.2054
383.2424	0.233
383.4494	0.2398
383.6565	0.2407
383.8635	0.2189
384.0706	0.2172
384.2776	0.24
384.4846	0.2255
384.6916	0.227
384.8986	0.2255
385.1055	0.2218
385.3125	0.2378
385.5194	0.2164
385.7263	0.2434
385.9333	0.23
386.1402	0.2068
386.347	0.2272
386.5539	0.2098
386.7608	0.225
386.9676	0.1959
387.1744	0.2209
387.3813	0.2188
387.5881	0.2255
387.7948	0.2281
388.0016	0.2111
388.2084	0.2186
388.4151	0.215
388.6219	0.21
388.8286	0.2119
389.0353	0.2344
389.242	0.2236
389.4487	0.2285
389.6553	0.2172
389.862	0.2037
390.0686	0.2025
390.2753	0.2256
390.4819	0.211
390.6885	0.2011
390.8951	0.2192
391.1016	0.2003
391.3082	0.2141
391.5147	0.2094
391.7213	0.2188
391.9278	0.1897
392.1343	0.2044
392.3408	0.2134
392.5473	0.2087
392.7537	0.1924
392.9602	0.1809
393.1666	0.1898
393.373	0.2039
393.5794	0.2179
393.7858	0.2006
393.9922	0.1928
394.1986	0.2025
394.4049	0.2072
394.6113	0.1796
394.8176	0.1927
395.0239	0.1898
395.2302	0.2011
395.4365	0.1926
395.6428	0.2006
395.8491	0.1822
396.0553	0.1952
396.2615	0.1766
396.4678	0.1847
396.674	0.1649
396.8802	0.1962
397.0863	0.1874
397.2925	0.1813
397.4987	0.1802
397.7048	0.201
397.9109	0.1862
398.117	0.1816
398.3231	0.1749
398.5292	0.1786
398.7353	0.1936
398.9413	0.1766
399.1474	0.1877
399.3534	0.1645
399.5594	0.1684
399.7654	0.1935
399.9714	0.2029
400.1774	0.1823
400.3833	0.1821
400.5893	0.1875
400.7952	0.183
401.0011	0.1849
401.207	0.189
401.4129	0.1815
401.6188	0.1701
401.8247	0.1778
402.0305	0.1906
402.2364	0.1768
402.4422	0.1804
402.648	0.1929
402.8538	0.2101
403.0596	0.1896
403.2654	0.195
403.4711	0.1736
403.6768	0.1921
403.8826	0.1881
404.0883	0.1771
404.294	0.1903
404.4997	0.1768
404.7054	0.1768
404.911	0.1755
405.1167	0.1809
405.3223	0.1829
405.5279	0.1917
405.7335	0.1902
405.9391	0.1924
406.1447	0.1648
406.3502	0.1812
406.5558	0.1628
406.7613	0.1918
406.9668	0.1815
407.1724	0.171
407.3778	0.177
407.5833	0.1781
407.7888	0.1644
407.9942	0.204
408.1997	0.1818
408.4051	0.1782
408.6105	0.1742
408.8159	0.1641
409.0213	0.1668
409.2267	0.1847
409.432	0.1808
409.6374	0.1882
409.8427	0.1786
410.048	0.1779
410.2533	0.1718
410.4586	0.18
410.6639	0.1569
410.8691	0.1599
411.0744	0.1901
411.2796	0.1627
411.4848	0.1709
411.69	0.1637
411.8952	0.1981
412.1004	0.1679
412.3056	0.177
412.5107	0.1786
412.7158	0.1918
412.921	0.1893
413.1261	0.1727
413.3312	0.1736
413.5362	0.1716
413.7413	0.1689
413.9464	0.1848
414.1514	0.1774
414.3564	0.1562
414.5614	0.1567
414.7664	0.1778
414.9714	0.1712
415.1764	0.1765
415.3813	0.1785
415.5863	0.165
415.7912	0.1703
415.9961	0.1673
416.201	0.1632
416.4059	0.1759
416.6108	0.1657
416.8156	0.1747
417.0205	0.1536
417.2253	0.1728
417.4301	0.1761
417.6349	0.177
417.8397	0.1684
418.0445	0.1627
418.2492	0.1716
418.454	0.1684
418.6587	0.1685
418.8634	0.1923
419.0681	0.1649
419.2728	0.1467
419.4775	0.1787
419.6822	0.1593
419.8868	0.1569
420.0915	0.1643
420.2961	0.15
420.5007	0.1592
420.7053	0.1771
420.9099	0.1663
421.1144	0.1607
421.319	0.1567
421.5235	0.1637
421.728	0.1562
421.9325	0.1638
422.137	0.1649
422.3415	0.1394
422.546	0.1609
422.7504	0.1523
422.9549	0.1627
423.1593	0.1524
423.3637	0.1595
423.5681	0.1634
423.7725	0.1328
423.9769	0.1408
424.1812	0.1401
424.3856	0.1471
424.5899	0.1558
424.7942	0.1512
424.9985	0.1431
425.2028	0.1341
425.4071	0.1431
425.6113	0.1299
425.8156	0.1566
426.0198	0.1525
426.224	0.132
426.4282	0.1217
426.6324	0.1338
