Data from MonoPyChalIsomerACN10uM410nmA_Absorbance_14-53-24-173.txt Node
Date: Fri Jul 05 14:53:24 BST 2024
User: LASERRRRR
Spectrometer: FLMT03099
Trigger mode: 0
Integration Time (sec): 1.000000E-1
Scans to average: 1
Electric dark correction enabled: true
Nonlinearity correction enabled: false
Boxcar width: 0
XAxis mode: Wavelengths
Number of Pixels in Spectrum: 3648
>>>>>Begin Spectral Data<<<<<
179.3399	-0.3678
179.5586	-0.3678
179.7771	-0.3678
179.9957	0.3866
180.2143	-0
180.4329	1.5258
180.6514	0.5338
180.8699	0.0458
181.0885	-0
181.307	0.7235
181.5255	-0
181.744	-0
181.9625	0.2813
182.181	-0
182.3994	-0
182.6179	-0
182.8363	-0
183.0547	-0.1955
183.2732	-0.0063
183.4916	0.1301
183.71	0.0258
183.9284	0.9307
184.1467	-0.0817
184.3651	0.1289
184.5835	-0.0574
184.8018	0.0509
185.0201	0.1323
185.2385	0.0073
185.4568	0.0574
185.6751	0.2554
185.8934	0.1837
186.1117	0.0367
186.3299	0.2143
186.5482	0.1696
186.7664	-0.1566
186.9847	-0.1851
187.2029	0.1478
187.4211	0.0309
187.6393	0.1763
187.8575	0.0667
188.0757	0.1523
188.2939	0.0804
188.512	-0.2193
188.7302	0.1318
188.9483	0.1638
189.1665	0.1046
189.3846	0.2606
189.6027	0.178
189.8208	0.2497
190.0389	0.188
190.257	0.1166
190.475	0.1829
190.6931	0.3232
190.9111	0.4544
191.1292	0.218
191.3472	0.475
191.5652	0.2786
191.7832	0.3359
192.0012	0.3725
192.2192	0.4584
192.4371	0.4733
192.6551	0.328
192.873	0.6456
193.091	0.3236
193.3089	0.5775
193.5268	0.5877
193.7447	0.4388
193.9626	0.521
194.1805	0.7748
194.3984	0.791
194.6162	0.7624
194.8341	0.4068
195.0519	0.6735
195.2697	0.5033
195.4875	0.4362
195.7054	0.6318
195.9231	0.6649
196.1409	0.5381
196.3587	0.5446
196.5765	0.5455
196.7942	0.8244
197.012	0.6444
197.2297	0.5486
197.4474	0.6354
197.6651	0.5656
197.8828	0.5628
198.1005	0.595
198.3182	0.7218
198.5358	0.7548
198.7535	0.6262
198.9711	0.5908
199.1888	0.6972
199.4064	0.7133
199.624	0.5926
199.8416	0.5752
200.0592	0.5334
200.2767	0.6658
200.4943	0.696
200.7119	0.7459
200.9294	0.6357
201.1469	0.4961
201.3645	0.5835
201.582	0.545
201.7995	0.6385
202.017	0.5204
202.2344	0.5025
202.4519	0.6947
202.6694	0.7216
202.8868	0.571
203.1042	0.6679
203.3217	0.6814
203.5391	0.6734
203.7565	0.6206
203.9739	0.5853
204.1913	0.6267
204.4086	0.6854
204.626	0.689
204.8433	0.5828
205.0607	0.6576
205.278	0.6526
205.4953	0.5521
205.7126	0.6132
205.9299	0.7684
206.1472	0.748
206.3644	0.749
206.5817	0.6829
206.7989	0.6654
207.0162	0.6903
207.2334	0.6158
207.4506	0.6564
207.6678	0.6568
207.885	0.5867
208.1022	0.6254
208.3194	0.6413
208.5365	0.6711
208.7537	0.6106
208.9708	0.5872
209.1879	0.6702
209.405	0.6363
209.6222	0.6764
209.8392	0.5853
210.0563	0.5864
210.2734	0.713
210.4905	0.6439
210.7075	0.6126
210.9245	0.5643
211.1416	0.6706
211.3586	0.6273
211.5756	0.596
211.7926	0.5851
212.0096	0.6033
212.2265	0.6048
212.4435	0.6092
212.6604	0.5805
212.8774	0.5854
213.0943	0.6013
213.3112	0.5803
213.5281	0.5314
213.745	0.5072
213.9619	0.5071
214.1788	0.4965
214.3956	0.4706
214.6125	0.4788
214.8293	0.438
215.0461	0.4335
215.2629	0.4567
215.4798	0.4588
215.6965	0.4107
215.9133	0.4315
216.1301	0.4301
216.3469	0.4291
216.5636	0.4486
216.7803	0.3795
216.9971	0.4289
217.2138	0.3627
217.4305	0.3731
217.6472	0.3812
217.8639	0.3875
218.0805	0.3209
218.2972	0.3291
218.5138	0.2926
218.7305	0.3046
218.9471	0.3048
219.1637	0.2687
219.3803	0.288
219.5969	0.2763
219.8135	0.2706
220.0301	0.2721
220.2466	0.2571
220.4632	0.2382
220.6797	0.2257
220.8962	0.2497
221.1127	0.2597
221.3292	0.2434
221.5457	0.2457
221.7622	0.243
221.9787	0.2407
222.1951	0.2525
222.4116	0.2573
222.628	0.2578
222.8444	0.2541
223.0608	0.2447
223.2772	0.2432
223.4936	0.2562
223.71	0.2546
223.9264	0.2726
224.1427	0.2376
224.3591	0.2328
224.5754	0.2583
224.7917	0.2687
225.008	0.2524
225.2243	0.2565
225.4406	0.2908
225.6569	0.2609
225.8732	0.2485
226.0894	0.2728
226.3057	0.26
226.5219	0.2777
226.7381	0.2738
226.9543	0.2988
227.1705	0.2885
227.3867	0.2597
227.6029	0.2844
227.8191	0.3052
228.0352	0.2989
228.2513	0.305
228.4675	0.3274
228.6836	0.3076
228.8997	0.3085
229.1158	0.3052
229.3319	0.3124
229.548	0.3122
229.764	0.3251
229.9801	0.3229
230.1961	0.3446
230.4121	0.3205
230.6282	0.3348
230.8442	0.3176
231.0602	0.3493
231.2761	0.3395
231.4921	0.3518
231.7081	0.3441
231.924	0.3486
232.14	0.3615
232.3559	0.3323
232.5718	0.364
232.7877	0.3452
233.0036	0.3417
233.2195	0.3609
233.4353	0.3494
233.6512	0.3489
233.867	0.3597
234.0829	0.3525
234.2987	0.3597
234.5145	0.3736
234.7303	0.3652
234.9461	0.4056
235.1619	0.4004
235.3776	0.3757
235.5934	0.3859
235.8091	0.3614
236.0249	0.3732
236.2406	0.3717
236.4563	0.3904
236.672	0.385
236.8877	0.3883
237.1034	0.4018
237.319	0.3982
237.5347	0.4175
237.7503	0.3898
237.966	0.414
238.1816	0.4056
238.3972	0.4057
238.6128	0.3884
238.8284	0.4212
239.0439	0.4117
239.2595	0.416
239.475	0.4249
239.6906	0.3988
239.9061	0.403
240.1216	0.4071
240.3371	0.4168
240.5526	0.4101
240.7681	0.3923
240.9836	0.3907
241.199	0.4004
241.4145	0.3952
241.6299	0.3794
241.8453	0.3755
242.0607	0.3619
242.2761	0.3422
242.4915	0.3557
242.7069	0.3719
242.9223	0.361
243.1376	0.3467
243.353	0.3421
243.5683	0.3492
243.7836	0.3055
243.9989	0.3229
244.2142	0.2772
244.4295	0.307
244.6448	0.3073
244.86	0.2972
245.0753	0.2785
245.2905	0.2842
245.5057	0.2633
245.721	0.2713
245.9362	0.255
246.1514	0.2519
246.3665	0.2647
246.5817	0.2371
246.7969	0.2441
247.012	0.2415
247.2271	0.2322
247.4423	0.2401
247.6574	0.2159
247.8725	0.212
248.0876	0.2156
248.3026	0.2202
248.5177	0.2168
248.7328	0.2048
248.9478	0.1947
249.1628	0.2009
249.3779	0.2185
249.5929	0.1939
249.8079	0.2116
250.0228	0.1951
250.2378	0.1943
250.4528	0.2019
250.6677	0.1697
250.8827	0.1904
251.0976	0.1975
251.3125	0.1918
251.5274	0.1706
251.7423	0.1845
251.9572	0.1803
252.172	0.1723
252.3869	0.1778
252.6017	0.1854
252.8166	0.1712
253.0314	0.1836
253.2462	0.1624
253.461	0.184
253.6758	0.1533
253.8906	0.1679
254.1053	0.1683
254.3201	0.1722
254.5348	0.1815
254.7496	0.1745
254.9643	0.173
255.179	0.1771
255.3937	0.1776
255.6083	0.1694
255.823	0.172
256.0377	0.1692
256.2523	0.1693
256.467	0.1503
256.6816	0.1605
256.8962	0.1576
257.1108	0.1636
257.3254	0.1623
257.54	0.1536
257.7545	0.1628
257.9691	0.1772
258.1836	0.168
258.3981	0.1788
258.6127	0.1756
258.8272	0.162
259.0417	0.1567
259.2561	0.1603
259.4706	0.1761
259.6851	0.1706
259.8995	0.1654
260.114	0.1621
260.3284	0.177
260.5428	0.1561
260.7572	0.1613
260.9716	0.1803
261.186	0.1556
261.4003	0.165
261.6147	0.1748
261.829	0.1564
262.0433	0.1514
262.2577	0.1517
262.472	0.1661
262.6863	0.1626
262.9005	0.17
263.1148	0.1634
263.3291	0.1489
263.5433	0.1557
263.7576	0.1579
263.9718	0.1588
264.186	0.1523
264.4002	0.1611
264.6144	0.1644
264.8286	0.1638
265.0427	0.1568
265.2569	0.1613
265.471	0.1443
265.6851	0.1558
265.8993	0.1537
266.1134	0.1425
266.3275	0.152
266.5415	0.1548
266.7556	0.1673
266.9697	0.1688
267.1837	0.1671
267.3978	0.1575
267.6118	0.1588
267.8258	0.1678
268.0398	0.1524
268.2538	0.1579
268.4677	0.1552
268.6817	0.1486
268.8957	0.1651
269.1096	0.1629
269.3235	0.1625
269.5374	0.1392
269.7514	0.1354
269.9652	0.148
270.1791	0.1452
270.393	0.1466
270.6068	0.151
270.8207	0.1422
271.0345	0.1383
271.2483	0.1565
271.4622	0.1396
271.676	0.1391
271.8897	0.1409
272.1035	0.1256
272.3173	0.129
272.531	0.149
272.7448	0.1325
272.9585	0.1246
273.1722	0.1377
273.3859	0.1426
273.5996	0.1209
273.8133	0.139
274.0269	0.1296
274.2406	0.1407
274.4542	0.144
274.6679	0.1299
274.8815	0.1337
275.0951	0.1299
275.3087	0.1394
275.5223	0.1356
275.7358	0.1353
275.9494	0.1318
276.1629	0.1278
276.3765	0.1261
276.59	0.1359
276.8035	0.1464
277.017	0.1317
277.2305	0.1436
277.444	0.1388
277.6574	0.1347
277.8709	0.1367
278.0843	0.126
278.2978	0.1444
278.5112	0.1286
278.7246	0.1519
278.938	0.1339
279.1513	0.1397
279.3647	0.147
279.5781	0.1359
279.7914	0.1413
280.0047	0.1443
280.2181	0.1489
280.4314	0.1506
280.6447	0.1444
280.8579	0.1448
281.0712	0.1432
281.2845	0.1497
281.4977	0.1465
281.711	0.1336
281.9242	0.1373
282.1374	0.1424
282.3506	0.1369
282.5638	0.1577
282.7769	0.1456
282.9901	0.1453
283.2033	0.1596
283.4164	0.1501
283.6295	0.1505
283.8426	0.1426
284.0557	0.1493
284.2688	0.1593
284.4819	0.1472
284.695	0.1626
284.908	0.1603
285.1211	0.1487
285.3341	0.1566
285.5471	0.1625
285.7601	0.1486
285.9731	0.1467
286.1861	0.1492
286.3991	0.1634
286.612	0.1684
286.825	0.1477
287.0379	0.1562
287.2508	0.1597
287.4637	0.1638
287.6766	0.1586
287.8895	0.1692
288.1024	0.1784
288.3152	0.1689
288.5281	0.1523
288.7409	0.1688
288.9538	0.1667
289.1666	0.1671
289.3794	0.1651
289.5922	0.1541
289.8049	0.1715
290.0177	0.1608
290.2304	0.1799
290.4432	0.1635
290.6559	0.1639
290.8686	0.1718
291.0813	0.1701
291.294	0.1622
291.5067	0.1883
291.7194	0.1634
291.932	0.1835
292.1447	0.1681
292.3573	0.1686
292.5699	0.1593
292.7825	0.1751
292.9951	0.1743
293.2077	0.1785
293.4203	0.1677
293.6328	0.1449
293.8454	0.1764
294.0579	0.1632
294.2704	0.1755
294.4829	0.1543
294.6954	0.1745
294.9079	0.1687
295.1204	0.1815
295.3328	0.1738
295.5453	0.1679
295.7577	0.1728
295.9701	0.1615
296.1825	0.1697
296.3949	0.1701
296.6073	0.1642
296.8197	0.1737
297.0321	0.1858
297.2444	0.1643
297.4567	0.1695
297.6691	0.1678
297.8814	0.1743
298.0937	0.1669
298.306	0.1687
298.5182	0.1729
298.7305	0.1757
298.9428	0.1595
299.155	0.1867
299.3672	0.1662
299.5794	0.1725
299.7916	0.1664
300.0038	0.1771
300.216	0.1727
300.4282	0.1702
300.6403	0.1616
300.8525	0.1672
301.0646	0.1655
301.2767	0.1749
301.4888	0.1652
301.7009	0.1664
301.913	0.1657
302.125	0.1754
302.3371	0.1737
302.5491	0.1712
302.7612	0.1822
302.9732	0.1719
303.1852	0.1649
303.3972	0.1706
303.6092	0.156
303.8211	0.16
304.0331	0.1629
304.245	0.1574
304.457	0.1555
304.6689	0.158
304.8808	0.1702
305.0927	0.1488
305.3046	0.1545
305.5164	0.16
305.7283	0.1552
305.9401	0.1561
306.152	0.1543
306.3638	0.1545
306.5756	0.1564
306.7874	0.1352
306.9992	0.1483
307.2109	0.1375
307.4227	0.1314
307.6344	0.1444
307.8462	0.1355
308.0579	0.1374
308.2696	0.1395
308.4813	0.1328
308.693	0.1377
308.9046	0.146
309.1163	0.129
309.328	0.1221
309.5396	0.1202
309.7512	0.1253
309.9628	0.1231
310.1744	0.1246
310.386	0.1093
310.5976	0.1256
310.8091	0.1209
311.0207	0.1214
311.2322	0.1251
311.4437	0.1087
311.6552	0.1057
311.8667	0.1136
312.0782	0.1091
312.2897	0.1
312.5012	0.0992
312.7126	0.1102
312.924	0.0985
313.1355	0.1105
313.3469	0.0969
313.5583	0.1012
313.7696	0.1055
313.981	0.1057
314.1924	0.0898
314.4037	0.1031
314.6151	0.1139
314.8264	0.0977
315.0377	0.0957
315.249	0.095
315.4603	0.104
315.6716	0.0959
315.8828	0.0931
316.0941	0.0936
316.3053	0.0957
316.5165	0.0873
316.7277	0.1011
316.9389	0.0999
317.1501	0.0975
317.3613	0.0978
317.5724	0.0803
317.7836	0.0921
317.9947	0.0905
318.2058	0.0853
318.417	0.0902
318.6281	0.0815
318.8391	0.0816
319.0502	0.0812
319.2613	0.0945
319.4723	0.0976
319.6834	0.0978
319.8944	0.0781
320.1054	0.093
320.3164	0.0954
320.5274	0.0916
320.7383	0.0774
320.9493	0.0899
321.1602	0.0959
321.3712	0.0766
321.5821	0.0907
321.793	0.0962
322.0039	0.0924
322.2148	0.0895
322.4257	0.0922
322.6365	0.0942
322.8474	0.094
323.0582	0.0905
323.269	0.0862
323.4798	0.0914
323.6906	0.0864
323.9014	0.104
324.1122	0.1024
324.3229	0.0905
324.5337	0.0909
324.7444	0.0849
324.9551	0.101
325.1658	0.0974
325.3765	0.083
325.5872	0.0918
325.7979	0.0884
326.0085	0.0979
326.2192	0.0932
326.4298	0.0969
326.6404	0.0917
326.851	0.0798
327.0616	0.0976
327.2722	0.0977
327.4828	0.0967
327.6933	0.0928
327.9039	0.1051
328.1144	0.1008
328.3249	0.1038
328.5354	0.089
328.7459	0.0933
328.9564	0.0944
329.1669	0.0938
329.3773	0.0986
329.5878	0.1008
329.7982	0.0926
330.0086	0.0879
330.219	0.1025
330.4294	0.0934
330.6398	0.0942
330.8502	0.0878
331.0605	0.0999
331.2708	0.1017
331.4812	0.1089
331.6915	0.1052
331.9018	0.1041
332.1121	0.0938
332.3224	0.0956
332.5326	0.1039
332.7429	0.1014
332.9531	0.1071
333.1633	0.097
333.3735	0.091
333.5837	0.1025
333.7939	0.1023
334.0041	0.1066
334.2143	0.1041
334.4244	0.0999
334.6346	0.0855
334.8447	0.1158
335.0548	0.0965
335.2649	0.1027
335.475	0.117
335.685	0.1015
335.8951	0.1172
336.1051	0.1147
336.3152	0.0991
336.5252	0.1021
336.7352	0.1161
336.9452	0.114
337.1552	0.1051
337.3652	0.0953
337.5751	0.095
337.7851	0.1013
337.995	0.1002
338.2049	0.1109
338.4148	0.1042
338.6247	0.1055
338.8346	0.1007
339.0445	0.1061
339.2543	0.11
339.4642	0.0915
339.674	0.0929
339.8838	0.113
340.0936	0.1068
340.3034	0.1139
340.5132	0.1174
340.7229	0.1058
340.9327	0.1085
341.1424	0.1115
341.3522	0.1241
341.5619	0.1217
341.7716	0.1058
341.9813	0.1104
342.1909	0.1006
342.4006	0.1148
342.6102	0.122
342.8199	0.1229
343.0295	0.1143
343.2391	0.1129
343.4487	0.1151
343.6583	0.1144
343.8679	0.1242
344.0774	0.1143
344.287	0.1242
344.4965	0.1081
344.706	0.1138
344.9155	0.1109
345.125	0.1192
345.3345	0.1296
345.544	0.1297
345.7534	0.1162
345.9629	0.126
346.1723	0.1299
346.3817	0.1166
346.5911	0.1299
346.8005	0.1271
347.0099	0.1198
347.2193	0.1308
347.4286	0.1364
347.638	0.1346
347.8473	0.1356
348.0566	0.134
348.2659	0.1243
348.4752	0.1359
348.6845	0.1265
348.8937	0.1332
349.103	0.14
349.3122	0.1266
349.5214	0.1163
349.7306	0.1323
349.9398	0.1366
350.149	0.1404
350.3582	0.138
350.5674	0.1493
350.7765	0.1456
350.9856	0.1388
351.1948	0.1312
351.4039	0.1239
351.613	0.1237
351.822	0.1443
352.0311	0.1336
352.2402	0.1393
352.4492	0.1418
352.6582	0.1408
352.8672	0.1286
353.0762	0.1395
353.2852	0.1314
353.4942	0.1412
353.7032	0.141
353.9121	0.1318
354.1211	0.1572
354.33	0.136
354.5389	0.1381
354.7478	0.1534
354.9567	0.1488
355.1655	0.1434
355.3744	0.1535
355.5833	0.1528
355.7921	0.1678
356.0009	0.1504
356.2097	0.1764
356.4185	0.1646
356.6273	0.1627
356.8361	0.1626
357.0448	0.1447
357.2536	0.1562
357.4623	0.1356
357.671	0.1588
357.8797	0.1615
358.0884	0.1702
358.2971	0.1652
358.5057	0.1815
358.7144	0.1652
358.923	0.1774
359.1316	0.1594
359.3402	0.1796
359.5488	0.1655
359.7574	0.1651
359.966	0.1811
360.1746	0.1729
360.3831	0.1709
360.5916	0.1764
360.8002	0.1726
361.0087	0.181
361.2172	0.1766
361.4256	0.1771
361.6341	0.1925
361.8426	0.1802
362.051	0.1772
362.2594	0.1655
362.4678	0.1855
362.6762	0.1951
362.8846	0.1833
363.093	0.1766
363.3014	0.183
363.5097	0.1632
363.718	0.1902
363.9264	0.1949
364.1347	0.1798
364.343	0.2052
364.5513	0.1958
364.7595	0.201
364.9678	0.2117
365.176	0.1963
365.3842	0.1946
365.5925	0.1976
365.8007	0.2002
366.0089	0.2063
366.217	0.1916
366.4252	0.2013
366.6333	0.2116
366.8415	0.2167
367.0496	0.2019
367.2577	0.2187
367.4658	0.2265
367.6739	0.2119
367.882	0.2088
368.09	0.204
368.2981	0.2062
368.5061	0.2237
368.7141	0.219
368.9221	0.2354
369.1301	0.2215
369.3381	0.2112
369.5461	0.2216
369.754	0.209
369.962	0.2186
370.1699	0.2222
370.3778	0.231
370.5857	0.2025
370.7936	0.2276
371.0015	0.234
371.2093	0.2336
371.4172	0.2405
371.625	0.213
371.8328	0.2337
372.0406	0.2152
372.2484	0.2219
372.4562	0.2409
372.664	0.2241
372.8717	0.2432
373.0795	0.2244
373.2872	0.2312
373.4949	0.2403
373.7026	0.2513
373.9103	0.2334
374.118	0.2491
374.3256	0.2587
374.5333	0.2323
374.7409	0.2327
374.9485	0.2539
375.1561	0.2426
375.3637	0.2516
375.5713	0.247
375.7789	0.2345
375.9864	0.2387
376.194	0.2418
376.4015	0.2621
376.609	0.2651
376.8165	0.2559
377.024	0.2324
377.2315	0.2266
377.4389	0.2474
377.6464	0.2551
377.8538	0.2599
378.0612	0.2505
378.2686	0.2545
378.476	0.2813
378.6834	0.2764
378.8908	0.2563
379.0981	0.2667
379.3055	0.2543
379.5128	0.2654
379.7201	0.2477
379.9274	0.2643
380.1347	0.2655
380.342	0.2593
380.5492	0.2537
380.7565	0.255
380.9637	0.2529
381.1709	0.249
381.3781	0.2704
381.5853	0.2684
381.7925	0.2633
381.9997	0.2594
382.2068	0.2807
382.4139	0.2657
382.6211	0.2468
382.8282	0.269
383.0353	0.281
383.2424	0.2645
383.4494	0.2826
383.6565	0.2744
383.8635	0.2716
384.0706	0.2616
384.2776	0.2716
384.4846	0.2732
384.6916	0.2788
384.8986	0.2713
385.1055	0.2821
385.3125	0.2631
385.5194	0.2572
385.7263	0.2975
385.9333	0.2665
386.1402	0.2625
386.347	0.2871
386.5539	0.2614
386.7608	0.2805
386.9676	0.2743
387.1744	0.2863
387.3813	0.2669
387.5881	0.276
387.7948	0.2611
388.0016	0.2698
388.2084	0.258
388.4151	0.2514
388.6219	0.2672
388.8286	0.2734
389.0353	0.2954
389.242	0.2718
389.4487	0.2683
389.6553	0.2802
389.862	0.2413
390.0686	0.2546
390.2753	0.2586
390.4819	0.2676
390.6885	0.2471
390.8951	0.2613
391.1016	0.2835
391.3082	0.2462
391.5147	0.2683
391.7213	0.2577
391.9278	0.2396
392.1343	0.2431
392.3408	0.2463
392.5473	0.2466
392.7537	0.2649
392.9602	0.2333
393.1666	0.2404
393.373	0.2429
393.5794	0.2534
393.7858	0.2359
393.9922	0.2449
394.1986	0.2617
394.4049	0.2441
394.6113	0.2361
394.8176	0.217
395.0239	0.2168
395.2302	0.2424
395.4365	0.2346
395.6428	0.2381
395.8491	0.2254
396.0553	0.2324
396.2615	0.2441
396.4678	0.243
396.674	0.2291
396.8802	0.2342
397.0863	0.2461
397.2925	0.2172
397.4987	0.2369
397.7048	0.2389
397.9109	0.239
398.117	0.2212
398.3231	0.2247
398.5292	0.2343
398.7353	0.2411
398.9413	0.2289
399.1474	0.2204
399.3534	0.2302
399.5594	0.2287
399.7654	0.248
399.9714	0.2551
400.1774	0.2241
400.3833	0.2198
400.5893	0.2281
400.7952	0.237
401.0011	0.2313
401.207	0.2449
401.4129	0.2326
401.6188	0.2445
401.8247	0.2477
402.0305	0.2219
402.2364	0.2286
402.4422	0.2323
402.648	0.2171
402.8538	0.2515
403.0596	0.2299
403.2654	0.2449
403.4711	0.215
403.6768	0.2279
403.8826	0.2441
404.0883	0.2312
404.294	0.2382
404.4997	0.229
404.7054	0.2362
404.911	0.2269
405.1167	0.2297
405.3223	0.2289
405.5279	0.2239
405.7335	0.2323
405.9391	0.2392
406.1447	0.2392
406.3502	0.2344
406.5558	0.2211
406.7613	0.2185
406.9668	0.2332
407.1724	0.2411
407.3778	0.2153
407.5833	0.229
407.7888	0.2156
407.9942	0.2568
408.1997	0.225
408.4051	0.2266
408.6105	0.2372
408.8159	0.2223
409.0213	0.2262
409.2267	0.2211
409.432	0.2167
409.6374	0.2341
409.8427	0.2313
410.048	0.2308
410.2533	0.2168
410.4586	0.2227
410.6639	0.2132
410.8691	0.2172
411.0744	0.235
411.2796	0.2165
411.4848	0.2242
411.69	0.2089
411.8952	0.2411
412.1004	0.2174
412.3056	0.2352
412.5107	0.2202
412.7158	0.2524
412.921	0.2212
413.1261	0.1982
413.3312	0.2059
413.5362	0.2232
413.7413	0.2279
413.9464	0.2324
414.1514	0.2335
414.3564	0.2193
414.5614	0.224
414.7664	0.244
414.9714	0.2251
415.1764	0.2217
415.3813	0.2294
415.5863	0.2268
415.7912	0.2165
415.9961	0.2022
416.201	0.218
416.4059	0.2227
416.6108	0.2108
416.8156	0.2114
417.0205	0.2019
417.2253	0.2198
417.4301	0.2281
417.6349	0.1908
417.8397	0.2173
418.0445	0.2153
418.2492	0.2218
418.454	0.2046
418.6587	0.2241
418.8634	0.2237
419.0681	0.2009
419.2728	0.198
419.4775	0.2246
419.6822	0.2044
419.8868	0.1844
420.0915	0.2035
420.2961	0.1916
420.5007	0.1858
420.7053	0.2185
420.9099	0.1985
421.1144	0.2077
421.319	0.2007
421.5235	0.2044
421.728	0.2052
421.9325	0.1954
422.137	0.2187
422.3415	0.2047
422.546	0.2072
422.7504	0.196
422.9549	0.1936
423.1593	0.1954
423.3637	0.2047
423.5681	0.194
423.7725	0.1843
423.9769	0.1921
424.1812	0.1985
424.3856	0.1941
424.5899	0.1983
424.7942	0.1942
424.9985	0.1868
425.2028	0.1829
425.4071	0.2004
425.6113	0.1776
425.8156	0.1924
426.0198	0.1964
426.224	0.1792
426.4282	0.1911
426.6324	0.1878
