Data from MonoPyChalIsomerACN10uM380nmA_Absorbance_13-38-29-949.txt Node
Date: Fri Jul 05 13:38:29 BST 2024
User: LASERRRRR
Spectrometer: FLMT03099
Trigger mode: 0
Integration Time (sec): 1.000000E-1
Scans to average: 1
Electric dark correction enabled: true
Nonlinearity correction enabled: false
Boxcar width: 0
XAxis mode: Wavelengths
Number of Pixels in Spectrum: 3648
>>>>>Begin Spectral Data<<<<<
179.3399	-0.0452
179.5586	-0.0452
179.7771	-0.0452
179.9957	-0
180.2143	-0
180.4329	-0.4209
180.6514	-0
180.8699	-0
181.0885	0.0024
181.307	0.2839
181.5255	-0.6243
181.744	-0.4364
181.9625	-0.1589
182.181	-0
182.3994	0.3068
182.6179	-0.2578
182.8363	0.0427
183.0547	0.0444
183.2732	0.4284
183.4916	0.0219
183.71	0.1098
183.9284	-0.0459
184.1467	-0.0975
184.3651	-0.0907
184.5835	0.0728
184.8018	0.1234
185.0201	0.0346
185.2385	0.1218
185.4568	0.2138
185.6751	0.0351
185.8934	0.1276
186.1117	-0.0433
186.3299	-0.0114
186.5482	-0.114
186.7664	-0.0544
186.9847	-0.0399
187.2029	0.0127
187.4211	0.0026
187.6393	0.4624
187.8575	-0.0915
188.0757	0.1666
188.2939	0.0983
188.512	0.0969
188.7302	0.1351
188.9483	0.3813
189.1665	0.1736
189.3846	0.1656
189.6027	0.1082
189.8208	0.1492
190.0389	-0.0148
190.257	0.1382
190.475	-0.0198
190.6931	0.2227
190.9111	0.5014
191.1292	0.1409
191.3472	0.3
191.5652	0.375
191.7832	0.4002
192.0012	0.4118
192.2192	0.5545
192.4371	0.3868
192.6551	0.4286
192.873	0.4643
193.091	0.4621
193.3089	1.0446
193.5268	0.8023
193.7447	0.6056
193.9626	0.4707
194.1805	0.5863
194.3984	1.3964
194.6162	0.647
194.8341	0.6613
195.0519	0.5218
195.2697	0.8474
195.4875	0.8521
195.7054	0.7658
195.9231	0.6575
196.1409	0.7827
196.3587	0.6338
196.5765	0.8468
196.7942	0.7148
197.012	0.5651
197.2297	0.9176
197.4474	0.9691
197.6651	0.6772
197.8828	0.6402
198.1005	1.0437
198.3182	0.6732
198.5358	1.0734
198.7535	0.7112
198.9711	0.7034
199.1888	0.7783
199.4064	1.1821
199.624	0.9003
199.8416	0.814
200.0592	0.607
200.2767	0.7702
200.4943	1.0937
200.7119	0.9053
200.9294	0.8489
201.1469	0.6835
201.3645	0.6594
201.582	0.6707
201.7995	0.9485
202.017	0.7931
202.2344	0.625
202.4519	0.7497
202.6694	1.3067
202.8868	0.6834
203.1042	0.9153
203.3217	0.8582
203.5391	0.8151
203.7565	0.7767
203.9739	0.7753
204.1913	0.7074
204.4086	0.7516
204.626	0.8286
204.8433	0.8217
205.0607	0.8153
205.278	0.8119
205.4953	0.7669
205.7126	0.696
205.9299	0.9319
206.1472	0.9165
206.3644	0.77
206.5817	0.7795
206.7989	0.9685
207.0162	0.7989
207.2334	0.8034
207.4506	0.9071
207.6678	0.8085
207.885	0.8695
208.1022	0.7487
208.3194	0.7545
208.5365	0.7343
208.7537	0.7164
208.9708	0.6712
209.1879	0.8088
209.405	0.853
209.6222	0.9437
209.8392	0.8079
210.0563	0.7876
210.2734	0.9168
210.4905	0.8343
210.7075	0.8222
210.9245	0.7651
211.1416	0.8028
211.3586	0.7911
211.5756	0.7598
211.7926	0.7714
212.0096	0.843
212.2265	0.7406
212.4435	0.7791
212.6604	0.8067
212.8774	0.7482
213.0943	0.77
213.3112	0.7918
213.5281	0.672
213.745	0.6827
213.9619	0.7201
214.1788	0.6986
214.3956	0.6824
214.6125	0.6599
214.8293	0.6292
215.0461	0.6952
215.2629	0.6572
215.4798	0.6819
215.6965	0.6693
215.9133	0.6845
216.1301	0.6683
216.3469	0.6279
216.5636	0.6824
216.7803	0.5943
216.9971	0.653
217.2138	0.6109
217.4305	0.6151
217.6472	0.5926
217.8639	0.6375
218.0805	0.6185
218.2972	0.5627
218.5138	0.5647
218.7305	0.5729
218.9471	0.5382
219.1637	0.5554
219.3803	0.5619
219.5969	0.536
219.8135	0.5298
220.0301	0.5228
220.2466	0.6049
220.4632	0.5054
220.6797	0.4936
220.8962	0.5056
221.1127	0.5468
221.3292	0.5229
221.5457	0.4882
221.7622	0.491
221.9787	0.4979
222.1951	0.4898
222.4116	0.541
222.628	0.5325
222.8444	0.5517
223.0608	0.516
223.2772	0.5336
223.4936	0.5311
223.71	0.5507
223.9264	0.5427
224.1427	0.5229
224.3591	0.5538
224.5754	0.538
224.7917	0.5668
225.008	0.5237
225.2243	0.527
225.4406	0.5681
225.6569	0.5257
225.8732	0.5375
226.0894	0.5329
226.3057	0.5358
226.5219	0.5283
226.7381	0.525
226.9543	0.5503
227.1705	0.5645
227.3867	0.5212
227.6029	0.5595
227.8191	0.535
228.0352	0.5525
228.2513	0.5612
228.4675	0.5566
228.6836	0.5458
228.8997	0.5241
229.1158	0.5674
229.3319	0.5494
229.548	0.5634
229.764	0.5518
229.9801	0.5579
230.1961	0.5483
230.4121	0.5519
230.6282	0.5609
230.8442	0.554
231.0602	0.5752
231.2761	0.5723
231.4921	0.5715
231.7081	0.5508
231.924	0.5366
232.14	0.5803
232.3559	0.5355
232.5718	0.5662
232.7877	0.5706
233.0036	0.5419
233.2195	0.5625
233.4353	0.5512
233.6512	0.5606
233.867	0.58
234.0829	0.5494
234.2987	0.5336
234.5145	0.5565
234.7303	0.5474
234.9461	0.5763
235.1619	0.5533
235.3776	0.542
235.5934	0.5534
235.8091	0.5257
236.0249	0.5361
236.2406	0.5572
236.4563	0.5503
236.672	0.5522
236.8877	0.5275
237.1034	0.537
237.319	0.528
237.5347	0.5433
237.7503	0.5608
237.966	0.5324
238.1816	0.5405
238.3972	0.5374
238.6128	0.5265
238.8284	0.5304
239.0439	0.5444
239.2595	0.5169
239.475	0.5345
239.6906	0.5376
239.9061	0.5208
240.1216	0.5024
240.3371	0.5335
240.5526	0.518
240.7681	0.5077
240.9836	0.4795
241.199	0.5121
241.4145	0.4776
241.6299	0.4827
241.8453	0.4771
242.0607	0.4954
242.2761	0.4485
242.4915	0.4576
242.7069	0.4413
242.9223	0.4445
243.1376	0.4407
243.353	0.443
243.5683	0.4302
243.7836	0.4123
243.9989	0.4037
244.2142	0.3906
244.4295	0.3999
244.6448	0.3776
244.86	0.3616
245.0753	0.3574
245.2905	0.3672
245.5057	0.351
245.721	0.3439
245.9362	0.329
246.1514	0.3415
246.3665	0.3233
246.5817	0.328
246.7969	0.3034
247.012	0.3054
247.2271	0.2975
247.4423	0.2822
247.6574	0.2812
247.8725	0.2896
248.0876	0.287
248.3026	0.2771
248.5177	0.2833
248.7328	0.2652
248.9478	0.2602
249.1628	0.2646
249.3779	0.2686
249.5929	0.2509
249.8079	0.2665
250.0228	0.2612
250.2378	0.2525
250.4528	0.2464
250.6677	0.2297
250.8827	0.2395
251.0976	0.2337
251.3125	0.2305
251.5274	0.2101
251.7423	0.2104
251.9572	0.2351
252.172	0.2173
252.3869	0.2194
252.6017	0.2152
252.8166	0.1983
253.0314	0.2071
253.2462	0.1944
253.461	0.2108
253.6758	0.2046
253.8906	0.1985
254.1053	0.1951
254.3201	0.1982
254.5348	0.2096
254.7496	0.2062
254.9643	0.1933
255.179	0.2006
255.3937	0.1861
255.6083	0.2057
255.823	0.1899
256.0377	0.1882
256.2523	0.1908
256.467	0.1732
256.6816	0.2012
256.8962	0.2021
257.1108	0.1973
257.3254	0.1945
257.54	0.1991
257.7545	0.1822
257.9691	0.1897
258.1836	0.188
258.3981	0.2098
258.6127	0.2016
258.8272	0.1876
259.0417	0.1729
259.2561	0.197
259.4706	0.188
259.6851	0.1874
259.8995	0.1971
260.114	0.179
260.3284	0.1797
260.5428	0.1866
260.7572	0.1887
260.9716	0.1867
261.186	0.1696
261.4003	0.1869
261.6147	0.1767
261.829	0.1799
262.0433	0.1784
262.2577	0.1811
262.472	0.1763
262.6863	0.1754
262.9005	0.1827
263.1148	0.1985
263.3291	0.1673
263.5433	0.1778
263.7576	0.1937
263.9718	0.1848
264.186	0.1811
264.4002	0.1884
264.6144	0.183
264.8286	0.1886
265.0427	0.1767
265.2569	0.1812
265.471	0.1677
265.6851	0.1782
265.8993	0.1661
266.1134	0.1684
266.3275	0.1731
266.5415	0.1621
266.7556	0.1889
266.9697	0.1881
267.1837	0.1861
267.3978	0.1682
267.6118	0.1984
267.8258	0.1808
268.0398	0.1635
268.2538	0.1912
268.4677	0.1821
268.6817	0.1706
268.8957	0.1714
269.1096	0.1903
269.3235	0.1828
269.5374	0.1829
269.7514	0.1641
269.9652	0.1671
270.1791	0.1657
270.393	0.166
270.6068	0.1782
270.8207	0.1713
271.0345	0.1572
271.2483	0.1774
271.4622	0.1674
271.676	0.1658
271.8897	0.1632
272.1035	0.1581
272.3173	0.1632
272.531	0.1588
272.7448	0.1772
272.9585	0.1553
273.1722	0.1713
273.3859	0.1735
273.5996	0.1504
273.8133	0.1621
274.0269	0.1638
274.2406	0.1537
274.4542	0.172
274.6679	0.1564
274.8815	0.1554
275.0951	0.1737
275.3087	0.1722
275.5223	0.1591
275.7358	0.1615
275.9494	0.1705
276.1629	0.1624
276.3765	0.1611
276.59	0.171
276.8035	0.1692
277.017	0.1604
277.2305	0.1572
277.444	0.1745
277.6574	0.1628
277.8709	0.1597
278.0843	0.1494
278.2978	0.1714
278.5112	0.1569
278.7246	0.1609
278.938	0.1682
279.1513	0.1643
279.3647	0.1737
279.5781	0.1637
279.7914	0.1797
280.0047	0.168
280.2181	0.1784
280.4314	0.1723
280.6447	0.1759
280.8579	0.1731
281.0712	0.172
281.2845	0.1755
281.4977	0.1656
281.711	0.1569
281.9242	0.1706
282.1374	0.166
282.3506	0.1737
282.5638	0.1715
282.7769	0.1777
282.9901	0.1685
283.2033	0.1818
283.4164	0.1789
283.6295	0.1513
283.8426	0.1709
284.0557	0.1721
284.2688	0.1753
284.4819	0.1712
284.695	0.1608
284.908	0.1729
285.1211	0.1669
285.3341	0.1793
285.5471	0.1823
285.7601	0.1668
285.9731	0.169
286.1861	0.1732
286.3991	0.1875
286.612	0.1768
286.825	0.161
287.0379	0.1764
287.2508	0.1781
287.4637	0.1834
287.6766	0.1805
287.8895	0.1855
288.1024	0.2004
288.3152	0.1803
288.5281	0.1725
288.7409	0.1793
288.9538	0.1819
289.1666	0.1877
289.3794	0.1745
289.5922	0.1686
289.8049	0.1787
290.0177	0.1719
290.2304	0.1762
290.4432	0.1857
290.6559	0.178
290.8686	0.1845
291.0813	0.1623
291.294	0.1731
291.5067	0.1935
291.7194	0.1741
291.932	0.1926
292.1447	0.1805
292.3573	0.1822
292.5699	0.175
292.7825	0.1869
292.9951	0.1761
293.2077	0.1643
293.4203	0.1849
293.6328	0.1689
293.8454	0.1894
294.0579	0.1776
294.2704	0.1776
294.4829	0.1564
294.6954	0.1881
294.9079	0.191
295.1204	0.1774
295.3328	0.1784
295.5453	0.1823
295.7577	0.1792
295.9701	0.1688
296.1825	0.1772
296.3949	0.1796
296.6073	0.177
296.8197	0.1673
297.0321	0.1887
297.2444	0.1737
297.4567	0.1814
297.6691	0.1766
297.8814	0.1745
298.0937	0.1714
298.306	0.1869
298.5182	0.1719
298.7305	0.1758
298.9428	0.1811
299.155	0.1815
299.3672	0.1672
299.5794	0.169
299.7916	0.1796
300.0038	0.1754
300.216	0.1666
300.4282	0.1844
300.6403	0.1651
300.8525	0.1737
301.0646	0.1603
301.2767	0.1647
301.4888	0.1654
301.7009	0.1727
301.913	0.167
302.125	0.1655
302.3371	0.1661
302.5491	0.1781
302.7612	0.1657
302.9732	0.1746
303.1852	0.1658
303.3972	0.159
303.6092	0.165
303.8211	0.1629
304.0331	0.1604
304.245	0.1612
304.457	0.155
304.6689	0.1528
304.8808	0.177
305.0927	0.1461
305.3046	0.1511
305.5164	0.1671
305.7283	0.163
305.9401	0.1657
306.152	0.1475
306.3638	0.1496
306.5756	0.1453
306.7874	0.1542
306.9992	0.1508
307.2109	0.1634
307.4227	0.1294
307.6344	0.1476
307.8462	0.1381
308.0579	0.1413
308.2696	0.1406
308.4813	0.1367
308.693	0.1476
308.9046	0.1475
309.1163	0.1378
309.328	0.1228
309.5396	0.1254
309.7512	0.1259
309.9628	0.131
310.1744	0.1292
310.386	0.1279
310.5976	0.1268
310.8091	0.1149
311.0207	0.1186
311.2322	0.1178
311.4437	0.121
311.6552	0.1185
311.8667	0.1175
312.0782	0.1046
312.2897	0.1057
312.5012	0.1153
312.7126	0.1169
312.924	0.1115
313.1355	0.1172
313.3469	0.1159
313.5583	0.1038
313.7696	0.1122
313.981	0.1119
314.1924	0.1151
314.4037	0.1104
314.6151	0.1179
314.8264	0.0896
315.0377	0.0949
315.249	0.0967
315.4603	0.1083
315.6716	0.1021
315.8828	0.0919
316.0941	0.1065
316.3053	0.0953
316.5165	0.0972
316.7277	0.0863
316.9389	0.1119
317.1501	0.1054
317.3613	0.1016
317.5724	0.0858
317.7836	0.0984
317.9947	0.0992
318.2058	0.0936
318.417	0.0815
318.6281	0.0802
318.8391	0.0979
319.0502	0.0947
319.2613	0.1057
319.4723	0.0976
319.6834	0.1146
319.8944	0.0887
320.1054	0.0989
320.3164	0.1009
320.5274	0.1017
320.7383	0.1002
320.9493	0.0983
321.1602	0.1065
321.3712	0.0858
321.5821	0.1038
321.793	0.1032
322.0039	0.1069
322.2148	0.1016
322.4257	0.1052
322.6365	0.1104
322.8474	0.0938
323.0582	0.095
323.269	0.1025
323.4798	0.1058
323.6906	0.1016
323.9014	0.0987
324.1122	0.1045
324.3229	0.0969
324.5337	0.1005
324.7444	0.0877
324.9551	0.1081
325.1658	0.1053
325.3765	0.1005
325.5872	0.1073
325.7979	0.1019
326.0085	0.0948
326.2192	0.0945
326.4298	0.1045
326.6404	0.0966
326.851	0.1
327.0616	0.0964
327.2722	0.0928
327.4828	0.1034
327.6933	0.098
327.9039	0.0981
328.1144	0.1089
328.3249	0.1046
328.5354	0.1011
328.7459	0.1011
328.9564	0.0889
329.1669	0.1008
329.3773	0.1005
329.5878	0.1043
329.7982	0.1072
330.0086	0.1057
330.219	0.1072
330.4294	0.1008
330.6398	0.0976
330.8502	0.0998
331.0605	0.0999
331.2708	0.1145
331.4812	0.1018
331.6915	0.1141
331.9018	0.0986
332.1121	0.11
332.3224	0.0963
332.5326	0.1075
332.7429	0.1038
332.9531	0.1076
333.1633	0.101
333.3735	0.1063
333.5837	0.1054
333.7939	0.0956
334.0041	0.122
334.2143	0.1109
334.4244	0.1103
334.6346	0.0872
334.8447	0.1139
335.0548	0.0999
335.2649	0.0903
335.475	0.1137
335.685	0.0928
335.8951	0.1166
336.1051	0.1053
336.3152	0.1099
336.5252	0.1059
336.7352	0.1172
336.9452	0.1156
337.1552	0.1146
337.3652	0.0991
337.5751	0.0974
337.7851	0.1105
337.995	0.0991
338.2049	0.1064
338.4148	0.104
338.6247	0.1231
338.8346	0.103
339.0445	0.1033
339.2543	0.0996
339.4642	0.1091
339.674	0.104
339.8838	0.1139
340.0936	0.1246
340.3034	0.1263
340.5132	0.1181
340.7229	0.1073
340.9327	0.1013
341.1424	0.1136
341.3522	0.11
341.5619	0.1232
341.7716	0.1272
341.9813	0.1124
342.1909	0.1172
342.4006	0.1224
342.6102	0.1258
342.8199	0.1195
343.0295	0.1178
343.2391	0.1205
343.4487	0.1321
343.6583	0.1233
343.8679	0.127
344.0774	0.1216
344.287	0.1288
344.4965	0.1185
344.706	0.1301
344.9155	0.1272
345.125	0.1279
345.3345	0.1179
345.544	0.1233
345.7534	0.1259
345.9629	0.1125
346.1723	0.118
346.3817	0.1256
346.5911	0.1307
346.8005	0.1238
347.0099	0.1213
347.2193	0.1434
347.4286	0.1139
347.638	0.1277
347.8473	0.1335
348.0566	0.1273
348.2659	0.1395
348.4752	0.131
348.6845	0.1131
348.8937	0.1426
349.103	0.1395
349.3122	0.1234
349.5214	0.1246
349.7306	0.13
349.9398	0.1267
350.149	0.1277
350.3582	0.1173
350.5674	0.1458
350.7765	0.1499
350.9856	0.1444
351.1948	0.1376
351.4039	0.1256
351.613	0.1321
351.822	0.1411
352.0311	0.1403
352.2402	0.1309
352.4492	0.1464
352.6582	0.1443
352.8672	0.1402
353.0762	0.1534
353.2852	0.1471
353.4942	0.1497
353.7032	0.1464
353.9121	0.1448
354.1211	0.1435
354.33	0.1427
354.5389	0.1422
354.7478	0.1454
354.9567	0.1411
355.1655	0.1383
355.3744	0.1539
355.5833	0.1504
355.7921	0.1618
356.0009	0.1687
356.2097	0.1766
356.4185	0.1547
356.6273	0.1626
356.8361	0.1633
357.0448	0.1513
357.2536	0.1535
357.4623	0.1547
357.671	0.1626
357.8797	0.1631
358.0884	0.1741
358.2971	0.1632
358.5057	0.1747
358.7144	0.1725
358.923	0.1622
359.1316	0.1676
359.3402	0.1628
359.5488	0.1581
359.7574	0.1624
359.966	0.1601
360.1746	0.1757
360.3831	0.1757
360.5916	0.1726
360.8002	0.1649
361.0087	0.1806
361.2172	0.1816
361.4256	0.1745
361.6341	0.1803
361.8426	0.1748
362.051	0.1848
362.2594	0.1694
362.4678	0.1741
362.6762	0.1977
362.8846	0.1881
363.093	0.1742
363.3014	0.1716
363.5097	0.164
363.718	0.1905
363.9264	0.1935
364.1347	0.185
364.343	0.1922
364.5513	0.187
364.7595	0.1956
364.9678	0.1936
365.176	0.1883
365.3842	0.1968
365.5925	0.1826
365.8007	0.2071
366.0089	0.1945
366.217	0.1865
366.4252	0.2018
366.6333	0.2151
366.8415	0.208
367.0496	0.1921
367.2577	0.2188
367.4658	0.2019
367.6739	0.2236
367.882	0.2202
368.09	0.1937
368.2981	0.2143
368.5061	0.2038
368.7141	0.2185
368.9221	0.2276
369.1301	0.2166
369.3381	0.2074
369.5461	0.2068
369.754	0.2104
369.962	0.2157
370.1699	0.2131
370.3778	0.2175
370.5857	0.2146
370.7936	0.2133
371.0015	0.2136
371.2093	0.2124
371.4172	0.2329
371.625	0.2111
371.8328	0.2163
372.0406	0.2097
372.2484	0.1957
372.4562	0.2436
372.664	0.2176
372.8717	0.2225
373.0795	0.2185
373.2872	0.2233
373.4949	0.2346
373.7026	0.2357
373.9103	0.2327
374.118	0.2307
374.3256	0.2403
374.5333	0.2244
374.7409	0.2249
374.9485	0.2454
375.1561	0.238
375.3637	0.2229
375.5713	0.2365
375.7789	0.235
375.9864	0.2367
376.194	0.2228
376.4015	0.2567
376.609	0.2464
376.8165	0.2487
377.024	0.2503
377.2315	0.2158
377.4389	0.2392
377.6464	0.2398
377.8538	0.2369
378.0612	0.2333
378.2686	0.2552
378.476	0.2587
378.6834	0.2459
378.8908	0.2595
379.0981	0.2463
379.3055	0.2557
379.5128	0.2465
379.7201	0.2359
379.9274	0.246
380.1347	0.2569
380.342	0.2545
380.5492	0.2337
380.7565	0.2574
380.9637	0.2573
381.1709	0.2468
381.3781	0.2532
381.5853	0.2678
381.7925	0.25
381.9997	0.2723
382.2068	0.2581
382.4139	0.2496
382.6211	0.2372
382.8282	0.249
383.0353	0.2566
383.2424	0.2556
383.4494	0.2596
383.6565	0.2632
383.8635	0.2498
384.0706	0.2585
384.2776	0.2765
384.4846	0.2532
384.6916	0.2633
384.8986	0.265
385.1055	0.2591
385.3125	0.2482
385.5194	0.2399
385.7263	0.2645
385.9333	0.2638
386.1402	0.2447
386.347	0.2652
386.5539	0.2509
386.7608	0.2677
386.9676	0.2474
387.1744	0.2617
387.3813	0.2475
387.5881	0.2537
387.7948	0.26
388.0016	0.2599
388.2084	0.2544
388.4151	0.2476
388.6219	0.2477
388.8286	0.244
389.0353	0.2607
389.242	0.2631
389.4487	0.2408
389.6553	0.2543
389.862	0.2311
390.0686	0.2582
390.2753	0.2638
390.4819	0.2421
390.6885	0.232
390.8951	0.2595
391.1016	0.2446
391.3082	0.2383
391.5147	0.2531
391.7213	0.239
391.9278	0.2357
392.1343	0.2493
392.3408	0.2402
392.5473	0.2281
392.7537	0.2416
392.9602	0.2181
393.1666	0.2333
393.373	0.2491
393.5794	0.2402
393.7858	0.2412
393.9922	0.2243
394.1986	0.2391
394.4049	0.2162
394.6113	0.2199
394.8176	0.2261
395.0239	0.2334
395.2302	0.2141
395.4365	0.2352
395.6428	0.2319
395.8491	0.2241
396.0553	0.2274
396.2615	0.218
396.4678	0.208
396.674	0.2039
396.8802	0.2185
397.0863	0.2462
397.2925	0.2232
397.4987	0.2042
397.7048	0.2282
397.9109	0.2194
398.117	0.2149
398.3231	0.2139
398.5292	0.2235
398.7353	0.2355
398.9413	0.2063
399.1474	0.2329
399.3534	0.217
399.5594	0.2115
399.7654	0.2108
399.9714	0.217
400.1774	0.2182
400.3833	0.2126
400.5893	0.2091
400.7952	0.2099
401.0011	0.2256
401.207	0.2294
401.4129	0.2268
401.6188	0.2156
401.8247	0.229
402.0305	0.1919
402.2364	0.2082
402.4422	0.2151
402.648	0.2306
402.8538	0.2329
403.0596	0.1996
403.2654	0.2136
403.4711	0.2068
403.6768	0.2224
403.8826	0.2313
404.0883	0.2296
404.294	0.2251
404.4997	0.2047
404.7054	0.2212
404.911	0.2112
405.1167	0.2192
405.3223	0.2364
405.5279	0.2226
405.7335	0.2185
405.9391	0.2057
406.1447	0.2069
406.3502	0.2377
406.5558	0.201
406.7613	0.215
406.9668	0.2071
407.1724	0.2116
407.3778	0.2076
407.5833	0.2139
407.7888	0.204
407.9942	0.2228
408.1997	0.2136
408.4051	0.2047
408.6105	0.2104
408.8159	0.1996
409.0213	0.1972
409.2267	0.2249
409.432	0.1972
409.6374	0.2201
409.8427	0.1976
410.048	0.2175
410.2533	0.218
410.4586	0.2016
410.6639	0.2082
410.8691	0.2103
411.0744	0.1974
411.2796	0.2179
411.4848	0.2095
411.69	0.1877
411.8952	0.2272
412.1004	0.1953
412.3056	0.2134
412.5107	0.2111
412.7158	0.2185
412.921	0.202
413.1261	0.2113
413.3312	0.2128
413.5362	0.2134
413.7413	0.2076
413.9464	0.2091
414.1514	0.208
414.3564	0.1847
414.5614	0.1973
414.7664	0.2115
414.9714	0.2122
415.1764	0.226
415.3813	0.2128
415.5863	0.2233
415.7912	0.2078
415.9961	0.1958
416.201	0.1914
416.4059	0.2284
416.6108	0.2014
416.8156	0.2142
417.0205	0.2027
417.2253	0.1952
417.4301	0.2124
417.6349	0.2235
417.8397	0.1948
418.0445	0.2043
418.2492	0.2127
418.454	0.2146
418.6587	0.2061
418.8634	0.2002
419.0681	0.1782
419.2728	0.1922
419.4775	0.1962
419.6822	0.1957
419.8868	0.1739
420.0915	0.2082
420.2961	0.1905
420.5007	0.1943
420.7053	0.198
420.9099	0.1999
421.1144	0.2116
421.319	0.1995
421.5235	0.1857
421.728	0.198
421.9325	0.1902
422.137	0.2069
422.3415	0.2043
422.546	0.1898
422.7504	0.2008
422.9549	0.1937
423.1593	0.1914
423.3637	0.1963
423.5681	0.1855
423.7725	0.1793
423.9769	0.1689
424.1812	0.1862
424.3856	0.1823
424.5899	0.184
424.7942	0.1804
424.9985	0.1945
425.2028	0.167
425.4071	0.1793
425.6113	0.1749
425.8156	0.181
426.0198	0.1847
426.224	0.1671
426.4282	0.167
