Data from MonoPyChalIsomerACN10uM380nmA_Absorbance_13-38-31-249.txt Node
Date: Fri Jul 05 13:38:31 BST 2024
User: LASERRRRR
Spectrometer: FLMT03099
Trigger mode: 0
Integration Time (sec): 1.000000E-1
Scans to average: 1
Electric dark correction enabled: true
Nonlinearity correction enabled: false
Boxcar width: 0
XAxis mode: Wavelengths
Number of Pixels in Spectrum: 3648
>>>>>Begin Spectral Data<<<<<
179.3399	-0
179.5586	-0
179.7771	-0
179.9957	1.4747
180.2143	-0
180.4329	0.4977
180.6514	0.7008
180.8699	-0
181.0885	-0
181.307	0.3022
181.5255	-0
181.744	-0
181.9625	-0
182.181	-0
182.3994	-0.0242
182.6179	-0
182.8363	0.2283
183.0547	-0.2833
183.2732	0.0298
183.4916	0.0782
183.71	0.0085
183.9284	0.1199
184.1467	-0.1046
184.3651	0.0056
184.5835	-0.0126
184.8018	0.219
185.0201	0.081
185.2385	0.0112
185.4568	0.2925
185.6751	0.3575
185.8934	0.5247
186.1117	-0.0653
186.3299	-0.0138
186.5482	0.079
186.7664	-0.1955
186.9847	-0.1518
187.2029	0.091
187.4211	0.0959
187.6393	0.2071
187.8575	-0.2818
188.0757	0.2175
188.2939	0.1531
188.512	0.1655
188.7302	-0.0163
188.9483	0.5325
189.1665	0.0997
189.3846	0.4922
189.6027	0.1187
189.8208	0.2435
190.0389	0.3163
190.257	0.1355
190.475	0.0758
190.6931	0.1832
190.9111	0.4776
191.1292	0.1128
191.3472	0.2783
191.5652	0.2215
191.7832	0.1584
192.0012	0.7872
192.2192	0.3335
192.4371	0.4508
192.6551	0.3588
192.873	0.5616
193.091	0.2944
193.3089	0.6951
193.5268	0.3933
193.7447	0.3895
193.9626	0.5871
194.1805	0.7168
194.3984	0.9193
194.6162	0.6727
194.8341	0.4946
195.0519	0.6517
195.2697	1.5774
195.4875	0.498
195.7054	0.6734
195.9231	0.6232
196.1409	0.8497
196.3587	0.8341
196.5765	0.9032
196.7942	0.8648
197.012	0.5401
197.2297	0.6534
197.4474	0.9353
197.6651	0.6534
197.8828	0.7775
198.1005	0.9903
198.3182	0.6826
198.5358	0.9812
198.7535	0.8166
198.9711	0.6466
199.1888	0.7398
199.4064	1.1858
199.624	0.8652
199.8416	0.6473
200.0592	0.753
200.2767	0.715
200.4943	1.1298
200.7119	0.9175
200.9294	0.7789
201.1469	0.8164
201.3645	0.7321
201.582	0.7151
201.7995	0.9112
202.017	0.8105
202.2344	0.758
202.4519	0.9158
202.6694	0.7366
202.8868	0.8066
203.1042	0.7596
203.3217	1.2616
203.5391	0.7432
203.7565	0.8188
203.9739	0.7733
204.1913	0.76
204.4086	0.7554
204.626	0.7963
204.8433	0.9376
205.0607	0.8353
205.278	0.8359
205.4953	0.7329
205.7126	0.7733
205.9299	1.0351
206.1472	0.8973
206.3644	0.7363
206.5817	0.8177
206.7989	0.8765
207.0162	0.8047
207.2334	0.8567
207.4506	0.8094
207.6678	0.8068
207.885	0.7766
208.1022	0.8132
208.3194	0.7715
208.5365	0.8647
208.7537	0.7929
208.9708	0.767
209.1879	0.8119
209.405	0.8732
209.6222	1.0233
209.8392	0.8317
210.0563	0.7861
210.2734	0.7977
210.4905	0.7723
210.7075	0.8441
210.9245	0.8639
211.1416	0.9838
211.3586	0.7917
211.5756	0.7694
211.7926	0.7461
212.0096	0.7743
212.2265	0.7235
212.4435	0.8167
212.6604	0.8764
212.8774	0.7702
213.0943	0.8848
213.3112	0.728
213.5281	0.7571
213.745	0.7017
213.9619	0.8115
214.1788	0.7128
214.3956	0.7209
214.6125	0.6763
214.8293	0.6928
215.0461	0.7061
215.2629	0.7035
215.4798	0.7151
215.6965	0.6351
215.9133	0.6909
216.1301	0.6445
216.3469	0.6364
216.5636	0.642
216.7803	0.6488
216.9971	0.6718
217.2138	0.6074
217.4305	0.6231
217.6472	0.5701
217.8639	0.665
218.0805	0.616
218.2972	0.5783
218.5138	0.5705
218.7305	0.6359
218.9471	0.5474
219.1637	0.5564
219.3803	0.5455
219.5969	0.5474
219.8135	0.4996
220.0301	0.5376
220.2466	0.5669
220.4632	0.5565
220.6797	0.4882
220.8962	0.507
221.1127	0.5227
221.3292	0.543
221.5457	0.4992
221.7622	0.49
221.9787	0.5196
222.1951	0.4989
222.4116	0.5159
222.628	0.5087
222.8444	0.5124
223.0608	0.5294
223.2772	0.5367
223.4936	0.5756
223.71	0.4928
223.9264	0.5613
224.1427	0.5253
224.3591	0.5094
224.5754	0.5287
224.7917	0.5422
225.008	0.5164
225.2243	0.5071
225.4406	0.5627
225.6569	0.5451
225.8732	0.5057
226.0894	0.5215
226.3057	0.5248
226.5219	0.5255
226.7381	0.5272
226.9543	0.5217
227.1705	0.5561
227.3867	0.5315
227.6029	0.5623
227.8191	0.5543
228.0352	0.5754
228.2513	0.5585
228.4675	0.5548
228.6836	0.5592
228.8997	0.5494
229.1158	0.5706
229.3319	0.5741
229.548	0.519
229.764	0.553
229.9801	0.5387
230.1961	0.5457
230.4121	0.5345
230.6282	0.5616
230.8442	0.5104
231.0602	0.5574
231.2761	0.581
231.4921	0.5544
231.7081	0.5712
231.924	0.5611
232.14	0.5728
232.3559	0.5422
232.5718	0.5646
232.7877	0.5838
233.0036	0.5573
233.2195	0.5644
233.4353	0.5428
233.6512	0.5595
233.867	0.5496
234.0829	0.575
234.2987	0.567
234.5145	0.5596
234.7303	0.5503
234.9461	0.5498
235.1619	0.5551
235.3776	0.5387
235.5934	0.58
235.8091	0.5358
236.0249	0.5401
236.2406	0.5256
236.4563	0.5343
236.672	0.557
236.8877	0.5398
237.1034	0.5337
237.319	0.5558
237.5347	0.5581
237.7503	0.5349
237.966	0.5272
238.1816	0.5421
238.3972	0.5213
238.6128	0.5217
238.8284	0.5235
239.0439	0.5363
239.2595	0.5431
239.475	0.5167
239.6906	0.5227
239.9061	0.5002
240.1216	0.5173
240.3371	0.5364
240.5526	0.4868
240.7681	0.4976
240.9836	0.4604
241.199	0.5138
241.4145	0.5079
241.6299	0.4775
241.8453	0.4726
242.0607	0.4946
242.2761	0.4651
242.4915	0.4628
242.7069	0.4473
242.9223	0.4548
243.1376	0.4351
243.353	0.4316
243.5683	0.4342
243.7836	0.4175
243.9989	0.4159
244.2142	0.4053
244.4295	0.4007
244.6448	0.3982
244.86	0.3779
245.0753	0.3743
245.2905	0.3677
245.5057	0.3528
245.721	0.3509
245.9362	0.3402
246.1514	0.3544
246.3665	0.3306
246.5817	0.3208
246.7969	0.3228
247.012	0.3103
247.2271	0.2951
247.4423	0.319
247.6574	0.294
247.8725	0.2933
248.0876	0.284
248.3026	0.2954
248.5177	0.2886
248.7328	0.2534
248.9478	0.2564
249.1628	0.2572
249.3779	0.2712
249.5929	0.2503
249.8079	0.2636
250.0228	0.2455
250.2378	0.2331
250.4528	0.2474
250.6677	0.2266
250.8827	0.2465
251.0976	0.2495
251.3125	0.2277
251.5274	0.2135
251.7423	0.2162
251.9572	0.217
252.172	0.2186
252.3869	0.2244
252.6017	0.2053
252.8166	0.1942
253.0314	0.1917
253.2462	0.1952
253.461	0.2002
253.6758	0.2132
253.8906	0.2049
254.1053	0.2066
254.3201	0.2103
254.5348	0.2136
254.7496	0.2117
254.9643	0.1959
255.179	0.1953
255.3937	0.1833
255.6083	0.2028
255.823	0.1942
256.0377	0.1884
256.2523	0.1897
256.467	0.1837
256.6816	0.1908
256.8962	0.1881
257.1108	0.1943
257.3254	0.1907
257.54	0.1894
257.7545	0.1864
257.9691	0.2032
258.1836	0.1923
258.3981	0.1864
258.6127	0.1938
258.8272	0.1924
259.0417	0.1834
259.2561	0.194
259.4706	0.1838
259.6851	0.1929
259.8995	0.1837
260.114	0.1744
260.3284	0.1901
260.5428	0.1768
260.7572	0.1796
260.9716	0.184
261.186	0.1859
261.4003	0.1838
261.6147	0.182
261.829	0.1793
262.0433	0.1717
262.2577	0.1839
262.472	0.193
262.6863	0.1737
262.9005	0.1875
263.1148	0.1852
263.3291	0.1645
263.5433	0.1691
263.7576	0.1794
263.9718	0.1898
264.186	0.1858
264.4002	0.1823
264.6144	0.1767
264.8286	0.1909
265.0427	0.1759
265.2569	0.18
265.471	0.1777
265.6851	0.1718
265.8993	0.1852
266.1134	0.1801
266.3275	0.1796
266.5415	0.1658
266.7556	0.1983
266.9697	0.1836
267.1837	0.1884
267.3978	0.1766
267.6118	0.1824
267.8258	0.1972
268.0398	0.1837
268.2538	0.1785
268.4677	0.1808
268.6817	0.1804
268.8957	0.1848
269.1096	0.1762
269.3235	0.1846
269.5374	0.1786
269.7514	0.1737
269.9652	0.1823
270.1791	0.1771
270.393	0.1768
270.6068	0.1741
270.8207	0.1676
271.0345	0.1663
271.2483	0.1765
271.4622	0.1719
271.676	0.1826
271.8897	0.1654
272.1035	0.1697
272.3173	0.1637
272.531	0.1728
272.7448	0.169
272.9585	0.1631
273.1722	0.1595
273.3859	0.1578
273.5996	0.1597
273.8133	0.1747
274.0269	0.1759
274.2406	0.1719
274.4542	0.1723
274.6679	0.1555
274.8815	0.1719
275.0951	0.163
275.3087	0.1729
275.5223	0.1814
275.7358	0.1791
275.9494	0.1739
276.1629	0.1544
276.3765	0.1654
276.59	0.1739
276.8035	0.1709
277.017	0.1679
277.2305	0.1651
277.444	0.1721
277.6574	0.1563
277.8709	0.1774
278.0843	0.1581
278.2978	0.1646
278.5112	0.1612
278.7246	0.1739
278.938	0.1804
279.1513	0.1676
279.3647	0.1776
279.5781	0.1691
279.7914	0.1686
280.0047	0.1813
280.2181	0.1675
280.4314	0.1794
280.6447	0.1798
280.8579	0.174
281.0712	0.1932
281.2845	0.1829
281.4977	0.1763
281.711	0.1701
281.9242	0.1752
282.1374	0.1863
282.3506	0.1722
282.5638	0.1709
282.7769	0.1703
282.9901	0.1642
283.2033	0.1884
283.4164	0.183
283.6295	0.1712
283.8426	0.1731
284.0557	0.1667
284.2688	0.1839
284.4819	0.1878
284.695	0.175
284.908	0.1768
285.1211	0.1702
285.3341	0.172
285.5471	0.1835
285.7601	0.1682
285.9731	0.1688
286.1861	0.1686
286.3991	0.1922
286.612	0.1898
286.825	0.1892
287.0379	0.1769
287.2508	0.1777
287.4637	0.184
287.6766	0.1711
287.8895	0.1881
288.1024	0.1918
288.3152	0.1887
288.5281	0.1709
288.7409	0.1851
288.9538	0.1799
289.1666	0.1676
289.3794	0.1653
289.5922	0.1773
289.8049	0.1862
290.0177	0.1737
290.2304	0.1873
290.4432	0.1829
290.6559	0.1679
290.8686	0.1728
291.0813	0.1762
291.294	0.1825
291.5067	0.1765
291.7194	0.1715
291.932	0.1886
292.1447	0.175
292.3573	0.1766
292.5699	0.1778
292.7825	0.1797
292.9951	0.1678
293.2077	0.1777
293.4203	0.176
293.6328	0.1614
293.8454	0.1785
294.0579	0.1622
294.2704	0.1699
294.4829	0.1671
294.6954	0.1814
294.9079	0.1805
295.1204	0.1715
295.3328	0.1753
295.5453	0.175
295.7577	0.1733
295.9701	0.1707
296.1825	0.1746
296.3949	0.1678
296.6073	0.1654
296.8197	0.1638
297.0321	0.1822
297.2444	0.1748
297.4567	0.1682
297.6691	0.1784
297.8814	0.1609
298.0937	0.1735
298.306	0.1786
298.5182	0.1742
298.7305	0.1782
298.9428	0.155
299.155	0.1698
299.3672	0.1656
299.5794	0.1724
299.7916	0.1691
300.0038	0.1719
300.216	0.1636
300.4282	0.1752
300.6403	0.1657
300.8525	0.1694
301.0646	0.1643
301.2767	0.173
301.4888	0.1657
301.7009	0.1677
301.913	0.1633
302.125	0.1699
302.3371	0.1702
302.5491	0.1653
302.7612	0.1743
302.9732	0.1763
303.1852	0.1747
303.3972	0.1694
303.6092	0.1611
303.8211	0.1571
304.0331	0.1527
304.245	0.1548
304.457	0.1672
304.6689	0.1559
304.8808	0.1746
305.0927	0.1484
305.3046	0.1578
305.5164	0.1642
305.7283	0.1585
305.9401	0.1457
306.152	0.1536
306.3638	0.1513
306.5756	0.1454
306.7874	0.1509
306.9992	0.1573
307.2109	0.1433
307.4227	0.1446
307.6344	0.1424
307.8462	0.1468
308.0579	0.1364
308.2696	0.1413
308.4813	0.1284
308.693	0.1364
308.9046	0.1411
309.1163	0.1259
309.328	0.1362
309.5396	0.125
309.7512	0.128
309.9628	0.1219
310.1744	0.1219
310.386	0.1262
310.5976	0.108
310.8091	0.1189
311.0207	0.1295
311.2322	0.1256
311.4437	0.1077
311.6552	0.1168
311.8667	0.1223
312.0782	0.0924
312.2897	0.1064
312.5012	0.1141
312.7126	0.1102
312.924	0.0949
313.1355	0.117
313.3469	0.118
313.5583	0.1238
313.7696	0.1136
313.981	0.1095
314.1924	0.1042
314.4037	0.1102
314.6151	0.1201
314.8264	0.0947
315.0377	0.1055
315.249	0.113
315.4603	0.1216
315.6716	0.1089
315.8828	0.0881
316.0941	0.1049
316.3053	0.1087
316.5165	0.0945
316.7277	0.1023
316.9389	0.1151
317.1501	0.0949
317.3613	0.1034
317.5724	0.0927
317.7836	0.102
317.9947	0.0983
318.2058	0.1061
318.417	0.0853
318.6281	0.0916
318.8391	0.1036
319.0502	0.0945
319.2613	0.102
319.4723	0.107
319.6834	0.1079
319.8944	0.082
320.1054	0.1015
320.3164	0.1057
320.5274	0.0969
320.7383	0.0903
320.9493	0.104
321.1602	0.1054
321.3712	0.091
321.5821	0.1028
321.793	0.0961
322.0039	0.1172
322.2148	0.106
322.4257	0.1105
322.6365	0.112
322.8474	0.1137
323.0582	0.1035
323.269	0.1126
323.4798	0.1192
323.6906	0.1021
323.9014	0.1039
324.1122	0.1061
324.3229	0.0921
324.5337	0.1012
324.7444	0.1109
324.9551	0.1058
325.1658	0.104
325.3765	0.1031
325.5872	0.1087
325.7979	0.1009
326.0085	0.1091
326.2192	0.1119
326.4298	0.1126
326.6404	0.0948
326.851	0.096
327.0616	0.0986
327.2722	0.1067
327.4828	0.1048
327.6933	0.1034
327.9039	0.1142
328.1144	0.1073
328.3249	0.1055
328.5354	0.1101
328.7459	0.1005
328.9564	0.0987
329.1669	0.0997
329.3773	0.1154
329.5878	0.107
329.7982	0.1068
330.0086	0.1056
330.219	0.1071
330.4294	0.1117
330.6398	0.1061
330.8502	0.1045
331.0605	0.1081
331.2708	0.1155
331.4812	0.1023
331.6915	0.1134
331.9018	0.1118
332.1121	0.106
332.3224	0.1064
332.5326	0.1201
332.7429	0.1154
332.9531	0.1098
333.1633	0.1066
333.3735	0.1021
333.5837	0.1136
333.7939	0.104
334.0041	0.1228
334.2143	0.1165
334.4244	0.1012
334.6346	0.0986
334.8447	0.1284
335.0548	0.1011
335.2649	0.1081
335.475	0.1107
335.685	0.1093
335.8951	0.1161
336.1051	0.1132
336.3152	0.1151
336.5252	0.1072
336.7352	0.1144
336.9452	0.1146
337.1552	0.1087
337.3652	0.1042
337.5751	0.1174
337.7851	0.1117
337.995	0.1116
338.2049	0.129
338.4148	0.1233
338.6247	0.1204
338.8346	0.0987
339.0445	0.1081
339.2543	0.0977
339.4642	0.1247
339.674	0.1087
339.8838	0.1081
340.0936	0.1117
340.3034	0.1259
340.5132	0.1106
340.7229	0.1227
340.9327	0.1236
341.1424	0.1125
341.3522	0.121
341.5619	0.1249
341.7716	0.1195
341.9813	0.1273
342.1909	0.1232
342.4006	0.125
342.6102	0.1245
342.8199	0.1299
343.0295	0.1371
343.2391	0.12
343.4487	0.1284
343.6583	0.1166
343.8679	0.1198
344.0774	0.126
344.287	0.1417
344.4965	0.125
344.706	0.1282
344.9155	0.1144
345.125	0.1296
345.3345	0.1332
345.544	0.1364
345.7534	0.1327
345.9629	0.1228
346.1723	0.1237
346.3817	0.1224
346.5911	0.1425
346.8005	0.1348
347.0099	0.1263
347.2193	0.1357
347.4286	0.1312
347.638	0.1491
347.8473	0.1368
348.0566	0.1314
348.2659	0.1325
348.4752	0.1347
348.6845	0.132
348.8937	0.132
349.103	0.1608
349.3122	0.1285
349.5214	0.1281
349.7306	0.1326
349.9398	0.1397
350.149	0.15
350.3582	0.1426
350.5674	0.1387
350.7765	0.1413
350.9856	0.1319
351.1948	0.1523
351.4039	0.1222
351.613	0.1271
351.822	0.1378
352.0311	0.1599
352.2402	0.1353
352.4492	0.1409
352.6582	0.1596
352.8672	0.1539
353.0762	0.1374
353.2852	0.1439
353.4942	0.1324
353.7032	0.1461
353.9121	0.1457
354.1211	0.161
354.33	0.1511
354.5389	0.1502
354.7478	0.1507
354.9567	0.1479
355.1655	0.1316
355.3744	0.1614
355.5833	0.1545
355.7921	0.1792
356.0009	0.1518
356.2097	0.1499
356.4185	0.1581
356.6273	0.1645
356.8361	0.1552
357.0448	0.1362
357.2536	0.1537
357.4623	0.1551
357.671	0.1711
357.8797	0.1522
358.0884	0.1628
358.2971	0.1598
358.5057	0.1612
358.7144	0.1644
358.923	0.1654
359.1316	0.1743
359.3402	0.1674
359.5488	0.1758
359.7574	0.1593
359.966	0.1716
360.1746	0.1865
360.3831	0.1895
360.5916	0.1694
360.8002	0.1603
361.0087	0.1879
361.2172	0.1704
361.4256	0.1728
361.6341	0.1791
361.8426	0.1768
362.051	0.1902
362.2594	0.1757
362.4678	0.1835
362.6762	0.1923
362.8846	0.1896
363.093	0.1813
363.3014	0.1779
363.5097	0.1774
363.718	0.19
363.9264	0.1894
364.1347	0.1704
364.343	0.187
364.5513	0.194
364.7595	0.197
364.9678	0.1875
365.176	0.1964
365.3842	0.2057
365.5925	0.2022
365.8007	0.1853
366.0089	0.1912
366.217	0.1866
366.4252	0.1988
366.6333	0.2048
366.8415	0.1859
367.0496	0.1957
367.2577	0.2053
367.4658	0.2112
367.6739	0.2096
367.882	0.2103
368.09	0.1949
368.2981	0.208
368.5061	0.2011
368.7141	0.2082
368.9221	0.2033
369.1301	0.2064
369.3381	0.204
369.5461	0.2024
369.754	0.2001
369.962	0.213
370.1699	0.2124
370.3778	0.2165
370.5857	0.1849
370.7936	0.2098
371.0015	0.1999
371.2093	0.2072
371.4172	0.2137
371.625	0.2046
371.8328	0.2205
372.0406	0.2193
372.2484	0.2222
372.4562	0.2115
372.664	0.215
372.8717	0.2236
373.0795	0.1792
373.2872	0.2187
373.4949	0.2139
373.7026	0.2237
373.9103	0.2342
374.118	0.2323
374.3256	0.2214
374.5333	0.2152
374.7409	0.2226
374.9485	0.2245
375.1561	0.2351
375.3637	0.2336
375.5713	0.2224
375.7789	0.2279
375.9864	0.2224
376.194	0.2103
376.4015	0.2367
376.609	0.2338
376.8165	0.233
377.024	0.22
377.2315	0.224
377.4389	0.2292
377.6464	0.2429
377.8538	0.2351
378.0612	0.2194
378.2686	0.2352
378.476	0.2635
378.6834	0.2399
378.8908	0.2317
379.0981	0.2521
379.3055	0.2536
379.5128	0.2359
379.7201	0.2339
379.9274	0.2257
380.1347	0.2582
380.342	0.253
380.5492	0.2353
380.7565	0.2428
380.9637	0.241
381.1709	0.256
381.3781	0.2404
381.5853	0.2549
381.7925	0.2593
381.9997	0.2632
382.2068	0.2548
382.4139	0.2435
382.6211	0.2411
382.8282	0.2526
383.0353	0.2542
383.2424	0.2506
383.4494	0.2441
383.6565	0.2192
383.8635	0.2508
384.0706	0.2311
384.2776	0.2477
384.4846	0.2361
384.6916	0.2669
384.8986	0.2471
385.1055	0.2453
385.3125	0.2504
385.5194	0.226
385.7263	0.2448
385.9333	0.2401
386.1402	0.2494
386.347	0.2527
386.5539	0.2419
386.7608	0.2456
386.9676	0.2271
387.1744	0.2468
387.3813	0.2409
387.5881	0.2486
387.7948	0.2516
388.0016	0.2416
388.2084	0.2403
388.4151	0.238
388.6219	0.2322
388.8286	0.2266
389.0353	0.2516
389.242	0.2348
389.4487	0.2258
389.6553	0.2342
389.862	0.2199
390.0686	0.2208
390.2753	0.2434
390.4819	0.2517
390.6885	0.2257
390.8951	0.2285
391.1016	0.2315
391.3082	0.2384
391.5147	0.2519
391.7213	0.228
391.9278	0.2191
392.1343	0.2258
392.3408	0.23
392.5473	0.2261
392.7537	0.2082
392.9602	0.2146
393.1666	0.2202
393.373	0.2147
393.5794	0.2319
393.7858	0.2065
393.9922	0.199
394.1986	0.2228
394.4049	0.2199
394.6113	0.2093
394.8176	0.2114
395.0239	0.2087
395.2302	0.2016
395.4365	0.2138
395.6428	0.2169
395.8491	0.1929
396.0553	0.2068
396.2615	0.2165
396.4678	0.2234
396.674	0.2044
396.8802	0.2049
397.0863	0.2287
397.2925	0.1926
397.4987	0.2037
397.7048	0.2086
397.9109	0.2135
398.117	0.2019
398.3231	0.2154
398.5292	0.2051
398.7353	0.2107
398.9413	0.2059
399.1474	0.2098
399.3534	0.2031
399.5594	0.1932
399.7654	0.2096
399.9714	0.2152
400.1774	0.2158
400.3833	0.2032
400.5893	0.2011
400.7952	0.2154
401.0011	0.1971
401.207	0.1968
401.4129	0.2014
401.6188	0.1986
401.8247	0.1864
402.0305	0.2003
402.2364	0.2038
402.4422	0.225
402.648	0.1967
402.8538	0.2214
403.0596	0.2017
403.2654	0.2214
403.4711	0.1972
403.6768	0.2124
403.8826	0.2188
404.0883	0.2164
404.294	0.2001
404.4997	0.2139
404.7054	0.1877
404.911	0.2115
405.1167	0.2034
405.3223	0.2245
405.5279	0.2166
405.7335	0.2077
405.9391	0.2003
406.1447	0.197
406.3502	0.2107
406.5558	0.2069
406.7613	0.2146
406.9668	0.2178
407.1724	0.1902
407.3778	0.2022
407.5833	0.201
407.7888	0.2078
407.9942	0.2181
408.1997	0.2128
408.4051	0.2101
408.6105	0.2052
408.8159	0.1961
409.0213	0.1921
409.2267	0.2035
409.432	0.1839
409.6374	0.2093
409.8427	0.1989
410.048	0.2021
410.2533	0.2001
410.4586	0.2022
410.6639	0.2011
410.8691	0.2087
411.0744	0.2002
411.2796	0.1993
411.4848	0.195
411.69	0.2008
411.8952	0.2017
412.1004	0.1953
412.3056	0.1979
412.5107	0.1984
412.7158	0.2116
412.921	0.213
413.1261	0.1993
413.3312	0.1916
413.5362	0.2009
413.7413	0.202
413.9464	0.1828
414.1514	0.1929
414.3564	0.2001
414.5614	0.1877
414.7664	0.2043
414.9714	0.1992
415.1764	0.2153
415.3813	0.1969
415.5863	0.1935
415.7912	0.189
415.9961	0.1951
416.201	0.1785
416.4059	0.1822
416.6108	0.1887
416.8156	0.2081
417.0205	0.1853
417.2253	0.1766
417.4301	0.2049
417.6349	0.19
417.8397	0.1729
418.0445	0.2082
418.2492	0.1876
418.454	0.2014
418.6587	0.1881
418.8634	0.1731
419.0681	0.1758
419.2728	0.1845
419.4775	0.1781
419.6822	0.1676
419.8868	0.1824
420.0915	0.1985
420.2961	0.1847
420.5007	0.1811
420.7053	0.1854
420.9099	0.1812
421.1144	0.1918
421.319	0.1715
421.5235	0.1876
421.728	0.1872
421.9325	0.1972
422.137	0.186
422.3415	0.1839
422.546	0.1814
422.7504	0.1802
422.9549	0.186
423.1593	0.1773
423.3637	0.1836
423.5681	0.1621
423.7725	0.158
423.9769	0.1647
424.1812	0.1505
424.3856	0.1747
424.5899	0.1761
424.7942	0.1663
424.9985	0.1801
425.2028	0.17
425.4071	0.179
425.6113	0.1499
425.8156	0.1721
426.0198	0.1608
426.224	0.1646
426.4282	0.1626
426.6324	0.1459
426.8366	0.1429
