Data from MonoPyChalIsomerACN10uM380nmA_Absorbance_13-38-32-049.txt Node
Date: Fri Jul 05 13:38:32 BST 2024
User: LASERRRRR
Spectrometer: FLMT03099
Trigger mode: 0
Integration Time (sec): 1.000000E-1
Scans to average: 1
Electric dark correction enabled: true
Nonlinearity correction enabled: false
Boxcar width: 0
XAxis mode: Wavelengths
Number of Pixels in Spectrum: 3648
>>>>>Begin Spectral Data<<<<<
179.3399	-0.0896
179.5586	-0.0896
179.7771	-0.0896
179.9957	0.4433
180.2143	-0.2852
180.4329	-0.193
180.6514	-0
180.8699	-0
181.0885	0.0474
181.307	0.0924
181.5255	-0
181.744	0.5916
181.9625	-0
182.181	-0
182.3994	-0
182.6179	-0.096
182.8363	0.0861
183.0547	-0.2275
183.2732	0.0244
183.4916	0.0716
183.71	-0.0377
183.9284	0.055
184.1467	0.0763
184.3651	-0.2141
184.5835	-0.0266
184.8018	0.0413
185.0201	-0.01
185.2385	-0.1042
185.4568	0.4697
185.6751	-0.0936
185.8934	0.0225
186.1117	-0.0563
186.3299	0.0751
186.5482	-0.0048
186.7664	-0.131
186.9847	0.085
187.2029	0.0479
187.4211	0.0988
187.6393	0.904
187.8575	-0.0814
188.0757	0.2887
188.2939	-0.0002
188.512	-0.197
188.7302	0.0831
188.9483	0.7114
189.1665	0.2022
189.3846	0.2062
189.6027	0.1221
189.8208	0.2278
190.0389	0.0425
190.257	0.151
190.475	0.0748
190.6931	0.4096
190.9111	0.4585
191.1292	0.0911
191.3472	0.2555
191.5652	0.2949
191.7832	0.1612
192.0012	0.4978
192.2192	0.297
192.4371	0.5879
192.6551	0.5284
192.873	0.5195
193.091	0.5578
193.3089	0.3336
193.5268	0.468
193.7447	0.5961
193.9626	0.4218
194.1805	0.6657
194.3984	0.779
194.6162	0.625
194.8341	0.5586
195.0519	0.5859
195.2697	0.8054
195.4875	0.8281
195.7054	0.5402
195.9231	0.6918
196.1409	1.0761
196.3587	0.5725
196.5765	0.8347
196.7942	0.6478
197.012	0.5555
197.2297	0.6392
197.4474	1.0783
197.6651	0.8259
197.8828	0.733
198.1005	0.7397
198.3182	0.8471
198.5358	0.8208
198.7535	0.6517
198.9711	0.6674
199.1888	0.7465
199.4064	1.0345
199.624	0.6822
199.8416	0.8636
200.0592	1.1423
200.2767	0.9114
200.4943	0.9581
200.7119	0.9269
200.9294	0.7627
201.1469	0.7956
201.3645	0.7571
201.582	0.6424
201.7995	0.8839
202.017	0.7415
202.2344	0.7475
202.4519	0.79
202.6694	0.8129
202.8868	0.8529
203.1042	0.8596
203.3217	1.0026
203.5391	0.7875
203.7565	0.6875
203.9739	0.7129
204.1913	0.7175
204.4086	0.8354
204.626	0.9861
204.8433	0.8375
205.0607	0.8218
205.278	0.8059
205.4953	0.9485
205.7126	0.8004
205.9299	1.024
206.1472	0.7886
206.3644	0.7833
206.5817	0.913
206.7989	0.9298
207.0162	0.868
207.2334	0.836
207.4506	0.7346
207.6678	0.8345
207.885	0.7526
208.1022	0.851
208.3194	0.8012
208.5365	0.8724
208.7537	0.8762
208.9708	0.7263
209.1879	0.9503
209.405	0.8146
209.6222	1.0423
209.8392	0.8149
210.0563	0.7965
210.2734	0.8845
210.4905	0.7857
210.7075	0.7978
210.9245	0.7481
211.1416	0.9522
211.3586	0.8072
211.5756	0.7292
211.7926	0.8957
212.0096	0.7348
212.2265	0.7061
212.4435	0.7653
212.6604	0.7967
212.8774	0.9202
213.0943	0.8558
213.3112	0.7902
213.5281	0.6695
213.745	0.6802
213.9619	0.7543
214.1788	0.7324
214.3956	0.6438
214.6125	0.6371
214.8293	0.6627
215.0461	0.6737
215.2629	0.6441
215.4798	0.7224
215.6965	0.6086
215.9133	0.6906
216.1301	0.6432
216.3469	0.6572
216.5636	0.6246
216.7803	0.5877
216.9971	0.6088
217.2138	0.6101
217.4305	0.5858
217.6472	0.591
217.8639	0.6575
218.0805	0.6323
218.2972	0.5548
218.5138	0.6027
218.7305	0.5754
218.9471	0.5427
219.1637	0.5392
219.3803	0.549
219.5969	0.5451
219.8135	0.4772
220.0301	0.5341
220.2466	0.5705
220.4632	0.5563
220.6797	0.5212
220.8962	0.5032
221.1127	0.5169
221.3292	0.5553
221.5457	0.5292
221.7622	0.4795
221.9787	0.551
222.1951	0.496
222.4116	0.5164
222.628	0.5296
222.8444	0.5262
223.0608	0.5369
223.2772	0.5074
223.4936	0.5446
223.71	0.5134
223.9264	0.5399
224.1427	0.5173
224.3591	0.5005
224.5754	0.5715
224.7917	0.554
225.008	0.5697
225.2243	0.5151
225.4406	0.5636
225.6569	0.5175
225.8732	0.5267
226.0894	0.524
226.3057	0.5457
226.5219	0.5373
226.7381	0.519
226.9543	0.5177
227.1705	0.5507
227.3867	0.5158
227.6029	0.5416
227.8191	0.5517
228.0352	0.5643
228.2513	0.5657
228.4675	0.5431
228.6836	0.5571
228.8997	0.5275
229.1158	0.5489
229.3319	0.5447
229.548	0.5278
229.764	0.5471
229.9801	0.5638
230.1961	0.5419
230.4121	0.558
230.6282	0.5677
230.8442	0.5526
231.0602	0.5873
231.2761	0.569
231.4921	0.5797
231.7081	0.561
231.924	0.5489
232.14	0.5603
232.3559	0.5461
232.5718	0.5754
232.7877	0.5475
233.0036	0.5411
233.2195	0.5413
233.4353	0.5521
233.6512	0.5487
233.867	0.5487
234.0829	0.5549
234.2987	0.5518
234.5145	0.5586
234.7303	0.545
234.9461	0.5789
235.1619	0.5562
235.3776	0.5605
235.5934	0.5506
235.8091	0.52
236.0249	0.5296
236.2406	0.5244
236.4563	0.5453
236.672	0.5448
236.8877	0.5364
237.1034	0.5545
237.319	0.5195
237.5347	0.5379
237.7503	0.5385
237.966	0.5506
238.1816	0.5586
238.3972	0.5367
238.6128	0.5029
238.8284	0.5452
239.0439	0.5572
239.2595	0.5369
239.475	0.5132
239.6906	0.5293
239.9061	0.5295
240.1216	0.5129
240.3371	0.5048
240.5526	0.5126
240.7681	0.4954
240.9836	0.4872
241.199	0.501
241.4145	0.4895
241.6299	0.489
241.8453	0.4861
242.0607	0.4638
242.2761	0.4439
242.4915	0.4712
242.7069	0.4559
242.9223	0.459
243.1376	0.4237
243.353	0.4367
243.5683	0.4384
243.7836	0.4208
243.9989	0.412
244.2142	0.3828
244.4295	0.4023
244.6448	0.4016
244.86	0.3588
245.0753	0.3642
245.2905	0.3554
245.5057	0.3625
245.721	0.3418
245.9362	0.3464
246.1514	0.3495
246.3665	0.3128
246.5817	0.3329
246.7969	0.3247
247.012	0.3246
247.2271	0.3016
247.4423	0.2951
247.6574	0.2943
247.8725	0.3012
248.0876	0.2916
248.3026	0.2809
248.5177	0.2683
248.7328	0.2646
248.9478	0.2576
249.1628	0.2607
249.3779	0.264
249.5929	0.2364
249.8079	0.2685
250.0228	0.2459
250.2378	0.2519
250.4528	0.2439
250.6677	0.2239
250.8827	0.2335
251.0976	0.232
251.3125	0.2321
251.5274	0.2194
251.7423	0.2232
251.9572	0.2309
252.172	0.2236
252.3869	0.2121
252.6017	0.218
252.8166	0.1884
253.0314	0.2026
253.2462	0.195
253.461	0.2239
253.6758	0.2024
253.8906	0.2089
254.1053	0.1953
254.3201	0.1914
254.5348	0.2109
254.7496	0.2018
254.9643	0.1932
255.179	0.2147
255.3937	0.1916
255.6083	0.2007
255.823	0.184
256.0377	0.1982
256.2523	0.1922
256.467	0.1909
256.6816	0.1809
256.8962	0.1877
257.1108	0.1884
257.3254	0.199
257.54	0.1903
257.7545	0.1924
257.9691	0.2064
258.1836	0.1805
258.3981	0.1952
258.6127	0.195
258.8272	0.1914
259.0417	0.1906
259.2561	0.1733
259.4706	0.1829
259.6851	0.184
259.8995	0.1741
260.114	0.1853
260.3284	0.1779
260.5428	0.1821
260.7572	0.191
260.9716	0.1783
261.186	0.1702
261.4003	0.1936
261.6147	0.1847
261.829	0.1912
262.0433	0.1751
262.2577	0.1772
262.472	0.1865
262.6863	0.178
262.9005	0.1865
263.1148	0.1821
263.3291	0.1747
263.5433	0.1738
263.7576	0.2003
263.9718	0.1926
264.186	0.1833
264.4002	0.1818
264.6144	0.1839
264.8286	0.1876
265.0427	0.1872
265.2569	0.1933
265.471	0.1727
265.6851	0.1675
265.8993	0.1866
266.1134	0.1752
266.3275	0.1824
266.5415	0.1828
266.7556	0.198
266.9697	0.1878
267.1837	0.1912
267.3978	0.1933
267.6118	0.1938
267.8258	0.1816
268.0398	0.1797
268.2538	0.1932
268.4677	0.1768
268.6817	0.1875
268.8957	0.1852
269.1096	0.1813
269.3235	0.1835
269.5374	0.175
269.7514	0.1811
269.9652	0.1852
270.1791	0.1675
270.393	0.1681
270.6068	0.1787
270.8207	0.173
271.0345	0.1679
271.2483	0.1776
271.4622	0.17
271.676	0.1838
271.8897	0.1651
272.1035	0.1711
272.3173	0.1615
272.531	0.1717
272.7448	0.1657
272.9585	0.1768
273.1722	0.1718
273.3859	0.1682
273.5996	0.1625
273.8133	0.1829
274.0269	0.1705
274.2406	0.1682
274.4542	0.1769
274.6679	0.1607
274.8815	0.1761
275.0951	0.1676
275.3087	0.1804
275.5223	0.1802
275.7358	0.1751
275.9494	0.1692
276.1629	0.1666
276.3765	0.1568
276.59	0.1693
276.8035	0.1697
277.017	0.1739
277.2305	0.1745
277.444	0.1797
277.6574	0.1747
277.8709	0.1778
278.0843	0.1808
278.2978	0.1833
278.5112	0.1607
278.7246	0.1772
278.938	0.1787
279.1513	0.1823
279.3647	0.1775
279.5781	0.1662
279.7914	0.1706
280.0047	0.1824
280.2181	0.1718
280.4314	0.173
280.6447	0.1829
280.8579	0.1738
281.0712	0.1851
281.2845	0.1874
281.4977	0.1822
281.711	0.173
281.9242	0.1717
282.1374	0.1731
282.3506	0.1674
282.5638	0.1673
282.7769	0.1808
282.9901	0.18
283.2033	0.1634
283.4164	0.1757
283.6295	0.1644
283.8426	0.1709
284.0557	0.1743
284.2688	0.188
284.4819	0.1855
284.695	0.1796
284.908	0.1851
285.1211	0.1669
285.3341	0.1777
285.5471	0.1762
285.7601	0.1731
285.9731	0.1832
286.1861	0.175
286.3991	0.1853
286.612	0.1829
286.825	0.1644
287.0379	0.1802
287.2508	0.1752
287.4637	0.1755
287.6766	0.1682
287.8895	0.1808
288.1024	0.1938
288.3152	0.177
288.5281	0.1676
288.7409	0.174
288.9538	0.1648
289.1666	0.1839
289.3794	0.1745
289.5922	0.1703
289.8049	0.1735
290.0177	0.1707
290.2304	0.1807
290.4432	0.1862
290.6559	0.1746
290.8686	0.1839
291.0813	0.1741
291.294	0.1717
291.5067	0.186
291.7194	0.1717
291.932	0.1814
292.1447	0.1646
292.3573	0.1609
292.5699	0.1777
292.7825	0.1591
292.9951	0.1655
293.2077	0.1747
293.4203	0.1742
293.6328	0.1657
293.8454	0.1867
294.0579	0.1674
294.2704	0.1737
294.4829	0.1707
294.6954	0.1765
294.9079	0.1654
295.1204	0.1671
295.3328	0.1792
295.5453	0.1774
295.7577	0.181
295.9701	0.1511
296.1825	0.1771
296.3949	0.171
296.6073	0.1598
296.8197	0.1676
297.0321	0.178
297.2444	0.1581
297.4567	0.1622
297.6691	0.1784
297.8814	0.1569
298.0937	0.1633
298.306	0.1695
298.5182	0.1682
298.7305	0.1752
298.9428	0.1665
299.155	0.1792
299.3672	0.1629
299.5794	0.1632
299.7916	0.1645
300.0038	0.1746
300.216	0.1661
300.4282	0.174
300.6403	0.1627
300.8525	0.1641
301.0646	0.1517
301.2767	0.166
301.4888	0.1617
301.7009	0.1723
301.913	0.1562
302.125	0.1673
302.3371	0.1681
302.5491	0.16
302.7612	0.1656
302.9732	0.1682
303.1852	0.1669
303.3972	0.1605
303.6092	0.162
303.8211	0.1465
304.0331	0.1566
304.245	0.1581
304.457	0.1473
304.6689	0.1532
304.8808	0.1622
305.0927	0.1634
305.3046	0.15
305.5164	0.162
305.7283	0.1372
305.9401	0.1543
306.152	0.1493
306.3638	0.1595
306.5756	0.1519
306.7874	0.1483
306.9992	0.1524
307.2109	0.1487
307.4227	0.1332
307.6344	0.1408
307.8462	0.1416
308.0579	0.1426
308.2696	0.1301
308.4813	0.141
308.693	0.1326
308.9046	0.1412
309.1163	0.1235
309.328	0.1271
309.5396	0.1224
309.7512	0.1223
309.9628	0.1244
310.1744	0.1189
310.386	0.119
310.5976	0.1243
310.8091	0.1301
311.0207	0.1221
311.2322	0.1206
311.4437	0.1151
311.6552	0.1175
311.8667	0.124
312.0782	0.1056
312.2897	0.1089
312.5012	0.1192
312.7126	0.1092
312.924	0.1118
313.1355	0.1175
313.3469	0.1099
313.5583	0.121
313.7696	0.1096
313.981	0.1111
314.1924	0.1072
314.4037	0.1024
314.6151	0.1167
314.8264	0.1029
315.0377	0.0996
315.249	0.1067
315.4603	0.112
315.6716	0.118
315.8828	0.0962
316.0941	0.1048
316.3053	0.0976
316.5165	0.0951
316.7277	0.1007
316.9389	0.1097
317.1501	0.0992
317.3613	0.1073
317.5724	0.0914
317.7836	0.1033
317.9947	0.0993
318.2058	0.0992
318.417	0.0981
318.6281	0.0834
318.8391	0.0925
319.0502	0.108
319.2613	0.1029
319.4723	0.113
319.6834	0.116
319.8944	0.0906
320.1054	0.1074
320.3164	0.0959
320.5274	0.1047
320.7383	0.1007
320.9493	0.1139
321.1602	0.1089
321.3712	0.091
321.5821	0.1138
321.793	0.1133
322.0039	0.0982
322.2148	0.106
322.4257	0.1146
322.6365	0.1108
322.8474	0.1114
323.0582	0.1128
323.269	0.1007
323.4798	0.1151
323.6906	0.1106
323.9014	0.104
324.1122	0.1127
324.3229	0.109
324.5337	0.1047
324.7444	0.1016
324.9551	0.1051
325.1658	0.1233
325.3765	0.1108
325.5872	0.1086
325.7979	0.0914
326.0085	0.1071
326.2192	0.1084
326.4298	0.1126
326.6404	0.0964
326.851	0.1074
327.0616	0.1051
327.2722	0.103
327.4828	0.1128
327.6933	0.1053
327.9039	0.1198
328.1144	0.1185
328.3249	0.1135
328.5354	0.1009
328.7459	0.1136
328.9564	0.112
329.1669	0.0954
329.3773	0.1092
329.5878	0.1045
329.7982	0.0968
330.0086	0.1187
330.219	0.1062
330.4294	0.0914
330.6398	0.1077
330.8502	0.108
331.0605	0.1032
331.2708	0.1086
331.4812	0.112
331.6915	0.1105
331.9018	0.1117
332.1121	0.1096
332.3224	0.1108
332.5326	0.1176
332.7429	0.1044
332.9531	0.1268
333.1633	0.1205
333.3735	0.1035
333.5837	0.1017
333.7939	0.1119
334.0041	0.1188
334.2143	0.1164
334.4244	0.1103
334.6346	0.0994
334.8447	0.1145
335.0548	0.1139
335.2649	0.1025
335.475	0.1192
335.685	0.0995
335.8951	0.1214
336.1051	0.1218
336.3152	0.13
336.5252	0.1098
336.7352	0.1245
336.9452	0.1183
337.1552	0.1198
337.3652	0.1104
337.5751	0.1153
337.7851	0.1105
337.995	0.0979
338.2049	0.1138
338.4148	0.1172
338.6247	0.1176
338.8346	0.1243
339.0445	0.1021
339.2543	0.107
339.4642	0.123
339.674	0.1088
339.8838	0.1188
340.0936	0.1212
340.3034	0.1337
340.5132	0.1182
340.7229	0.1283
340.9327	0.1144
341.1424	0.129
341.3522	0.1309
341.5619	0.1281
341.7716	0.1353
341.9813	0.1256
342.1909	0.1254
342.4006	0.1291
342.6102	0.1312
342.8199	0.1223
343.0295	0.1231
343.2391	0.127
343.4487	0.129
343.6583	0.1235
343.8679	0.1226
344.0774	0.1344
344.287	0.1274
344.4965	0.12
344.706	0.136
344.9155	0.1305
345.125	0.1277
345.3345	0.1376
345.544	0.1199
345.7534	0.1109
345.9629	0.1225
346.1723	0.1242
346.3817	0.1335
346.5911	0.122
346.8005	0.1348
347.0099	0.1288
347.2193	0.1325
347.4286	0.129
347.638	0.1432
347.8473	0.1369
348.0566	0.1406
348.2659	0.1361
348.4752	0.1406
348.6845	0.1328
348.8937	0.1415
349.103	0.145
349.3122	0.1159
349.5214	0.1317
349.7306	0.1356
349.9398	0.141
350.149	0.1411
350.3582	0.1424
350.5674	0.1613
350.7765	0.1368
350.9856	0.1406
351.1948	0.1343
351.4039	0.1479
351.613	0.12
351.822	0.1435
352.0311	0.1508
352.2402	0.1432
352.4492	0.1407
352.6582	0.1574
352.8672	0.1384
353.0762	0.1504
353.2852	0.1622
353.4942	0.1386
353.7032	0.1403
353.9121	0.1388
354.1211	0.1451
354.33	0.1529
354.5389	0.1467
354.7478	0.1493
354.9567	0.1411
355.1655	0.1372
355.3744	0.1538
355.5833	0.1483
355.7921	0.1695
356.0009	0.1616
356.2097	0.1549
356.4185	0.1636
356.6273	0.1648
356.8361	0.1651
357.0448	0.1587
357.2536	0.1467
357.4623	0.1588
357.671	0.1731
357.8797	0.1767
358.0884	0.1736
358.2971	0.1525
358.5057	0.1666
358.7144	0.1672
358.923	0.1686
359.1316	0.1681
359.3402	0.161
359.5488	0.1598
359.7574	0.1587
359.966	0.1605
360.1746	0.1761
360.3831	0.1854
360.5916	0.168
360.8002	0.1585
361.0087	0.1866
361.2172	0.185
361.4256	0.1789
361.6341	0.1803
361.8426	0.1708
362.051	0.1651
362.2594	0.1787
362.4678	0.1877
362.6762	0.1847
362.8846	0.173
363.093	0.1719
363.3014	0.1824
363.5097	0.1709
363.718	0.1959
363.9264	0.1724
364.1347	0.1823
364.343	0.1971
364.5513	0.1996
364.7595	0.1986
364.9678	0.1806
365.176	0.181
365.3842	0.1958
365.5925	0.1968
365.8007	0.198
366.0089	0.1984
366.217	0.1917
366.4252	0.1947
366.6333	0.2031
366.8415	0.2073
367.0496	0.1867
367.2577	0.2142
367.4658	0.1985
367.6739	0.1916
367.882	0.2106
368.09	0.1916
368.2981	0.2131
368.5061	0.1879
368.7141	0.2053
368.9221	0.2123
369.1301	0.2054
369.3381	0.2033
369.5461	0.2
369.754	0.1907
369.962	0.2143
370.1699	0.2185
370.3778	0.2088
370.5857	0.1835
370.7936	0.1985
371.0015	0.2076
371.2093	0.2184
371.4172	0.1974
371.625	0.1904
371.8328	0.2041
372.0406	0.212
372.2484	0.2114
372.4562	0.2226
372.664	0.2189
372.8717	0.2301
373.0795	0.1869
373.2872	0.2164
373.4949	0.2027
373.7026	0.2157
373.9103	0.2231
374.118	0.221
374.3256	0.2281
374.5333	0.2188
374.7409	0.2172
374.9485	0.2344
375.1561	0.2198
375.3637	0.221
375.5713	0.2299
375.7789	0.2164
375.9864	0.2243
376.194	0.2327
376.4015	0.2259
376.609	0.2202
376.8165	0.2359
377.024	0.2228
377.2315	0.2173
377.4389	0.2197
377.6464	0.2265
377.8538	0.2208
378.0612	0.2257
378.2686	0.2377
378.476	0.2481
378.6834	0.2317
378.8908	0.2409
379.0981	0.2273
379.3055	0.2334
379.5128	0.2186
379.7201	0.2303
379.9274	0.2211
380.1347	0.2157
380.342	0.2465
380.5492	0.2307
380.7565	0.2213
380.9637	0.2304
381.1709	0.2351
381.3781	0.2375
381.5853	0.2395
381.7925	0.2427
381.9997	0.2429
382.2068	0.2523
382.4139	0.2338
382.6211	0.2257
382.8282	0.2316
383.0353	0.242
383.2424	0.2292
383.4494	0.2522
383.6565	0.2529
383.8635	0.2337
384.0706	0.2295
384.2776	0.2416
384.4846	0.2325
384.6916	0.2416
384.8986	0.2292
385.1055	0.2642
385.3125	0.232
385.5194	0.2268
385.7263	0.2372
385.9333	0.2562
386.1402	0.2552
386.347	0.2543
386.5539	0.2213
386.7608	0.2401
386.9676	0.2398
387.1744	0.2322
387.3813	0.2204
387.5881	0.2316
387.7948	0.2288
388.0016	0.2218
388.2084	0.2472
388.4151	0.2279
388.6219	0.2363
388.8286	0.2249
389.0353	0.2481
389.242	0.2464
389.4487	0.237
389.6553	0.2378
389.862	0.206
390.0686	0.2161
390.2753	0.222
390.4819	0.2366
390.6885	0.2199
390.8951	0.2318
391.1016	0.2167
391.3082	0.2264
391.5147	0.2275
391.7213	0.2277
391.9278	0.2142
392.1343	0.2204
392.3408	0.2092
392.5473	0.2258
392.7537	0.2103
392.9602	0.2035
393.1666	0.2167
393.373	0.2208
393.5794	0.2107
393.7858	0.2168
393.9922	0.2023
394.1986	0.2126
394.4049	0.2156
394.6113	0.1987
394.8176	0.2081
395.0239	0.2004
395.2302	0.1997
395.4365	0.2044
395.6428	0.2114
395.8491	0.2031
396.0553	0.1909
396.2615	0.21
396.4678	0.1988
396.674	0.1976
396.8802	0.1951
397.0863	0.2227
397.2925	0.194
397.4987	0.2095
397.7048	0.1925
397.9109	0.2203
398.117	0.194
398.3231	0.2021
398.5292	0.1975
398.7353	0.208
398.9413	0.199
399.1474	0.2025
399.3534	0.2072
399.5594	0.1853
399.7654	0.2148
399.9714	0.1999
400.1774	0.1927
400.3833	0.1998
400.5893	0.2165
400.7952	0.1824
401.0011	0.1964
401.207	0.2175
401.4129	0.2093
401.6188	0.1972
401.8247	0.1958
402.0305	0.1928
402.2364	0.2021
402.4422	0.2088
402.648	0.2025
402.8538	0.216
403.0596	0.1858
403.2654	0.2071
403.4711	0.1876
403.6768	0.2026
403.8826	0.2111
404.0883	0.2029
404.294	0.2309
404.4997	0.18
404.7054	0.2026
404.911	0.1777
405.1167	0.1816
405.3223	0.2063
405.5279	0.2048
405.7335	0.2086
405.9391	0.2179
406.1447	0.1956
406.3502	0.1984
406.5558	0.19
406.7613	0.2078
406.9668	0.2039
407.1724	0.2176
407.3778	0.1902
407.5833	0.1888
407.7888	0.1822
407.9942	0.2143
408.1997	0.1863
408.4051	0.1921
408.6105	0.2075
408.8159	0.1833
409.0213	0.1792
409.2267	0.2143
409.432	0.2013
409.6374	0.2123
409.8427	0.1817
410.048	0.2096
410.2533	0.1988
410.4586	0.193
410.6639	0.1697
410.8691	0.1994
411.0744	0.1911
411.2796	0.1795
411.4848	0.1914
411.69	0.1906
411.8952	0.1998
412.1004	0.1774
412.3056	0.1862
412.5107	0.1899
412.7158	0.1789
412.921	0.2067
413.1261	0.1925
413.3312	0.175
413.5362	0.1926
413.7413	0.1781
413.9464	0.1955
414.1514	0.196
414.3564	0.1842
414.5614	0.1801
414.7664	0.1869
414.9714	0.1947
415.1764	0.1761
415.3813	0.1994
415.5863	0.1882
415.7912	0.1983
415.9961	0.1927
416.201	0.1995
416.4059	0.1913
416.6108	0.1779
416.8156	0.1967
417.0205	0.1855
417.2253	0.1873
417.4301	0.2023
417.6349	0.1846
417.8397	0.175
418.0445	0.1874
418.2492	0.1815
418.454	0.1757
418.6587	0.2001
418.8634	0.1802
419.0681	0.1843
419.2728	0.1772
419.4775	0.1913
419.6822	0.1711
419.8868	0.1592
420.0915	0.1711
420.2961	0.1733
420.5007	0.169
420.7053	0.1812
420.9099	0.1843
421.1144	0.1794
421.319	0.1797
421.5235	0.1789
421.728	0.1786
421.9325	0.1715
422.137	0.1739
422.3415	0.1765
422.546	0.1855
422.7504	0.1775
422.9549	0.1746
423.1593	0.1843
423.3637	0.1758
423.5681	0.1665
423.7725	0.1619
423.9769	0.1565
424.1812	0.1544
424.3856	0.161
424.5899	0.1522
424.7942	0.1713
424.9985	0.1573
425.2028	0.1583
425.4071	0.1952
425.6113	0.162
425.8156	0.1605
426.0198	0.1847
426.224	0.1568
426.4282	0.1452
426.6324	0.1721
