Data from MonoPyChalIsomerACN10uM380nmA_Absorbance_13-38-29-649.txt Node
Date: Fri Jul 05 13:38:29 BST 2024
User: LASERRRRR
Spectrometer: FLMT03099
Trigger mode: 0
Integration Time (sec): 1.000000E-1
Scans to average: 1
Electric dark correction enabled: true
Nonlinearity correction enabled: false
Boxcar width: 0
XAxis mode: Wavelengths
Number of Pixels in Spectrum: 3648
>>>>>Begin Spectral Data<<<<<
179.3399	-0.301
179.5586	-0.301
179.7771	-0.301
179.9957	-0.1451
180.2143	1.2844
180.4329	0.2759
180.6514	-0
180.8699	-0
181.0885	0.3084
181.307	-0.0012
181.5255	-0
181.744	-0.5012
181.9625	-0
182.181	-0.7186
182.3994	0.4422
182.6179	-0
182.8363	0.0021
183.0547	-0.1514
183.2732	-0.0742
183.4916	0.2114
183.71	-0.0344
183.9284	0.0799
184.1467	0.1024
184.3651	0.1005
184.5835	-0.101
184.8018	0.4613
185.0201	0.1843
185.2385	-0.0444
185.4568	0.3589
185.6751	0.0883
185.8934	0.5459
186.1117	-0.0433
186.3299	0.0067
186.5482	0.0513
186.7664	0.0187
186.9847	-0.1055
187.2029	0.0127
187.4211	-0.0427
187.6393	0.1341
187.8575	0.4438
188.0757	0.2455
188.2939	-0.0188
188.512	0.015
188.7302	0.1043
188.9483	0.3813
189.1665	0.0411
189.3846	-0.1416
189.6027	0.2298
189.8208	0.4296
190.0389	0.2083
190.257	0.0465
190.475	-0.0071
190.6931	0.293
190.9111	0.2996
191.1292	0.1297
191.3472	0.3413
191.5652	0.341
191.7832	0.2452
192.0012	0.8238
192.2192	0.3629
192.4371	0.64
192.6551	0.3667
192.873	0.379
193.091	0.2832
193.3089	0.8405
193.5268	0.4348
193.7447	0.4542
193.9626	0.4873
194.1805	0.6855
194.3984	0.8649
194.6162	0.399
194.8341	0.5539
195.0519	0.7085
195.2697	1.1455
195.4875	0.5925
195.7054	0.8253
195.9231	0.8058
196.1409	0.7962
196.3587	0.6707
196.5765	0.5565
196.7942	0.6131
197.012	0.6037
197.2297	0.6792
197.4474	1.3866
197.6651	0.7375
197.8828	0.7495
198.1005	0.7978
198.3182	0.7105
198.5358	1.0081
198.7535	0.6729
198.9711	0.7742
199.1888	0.8918
199.4064	1.4279
199.624	0.7775
199.8416	0.7913
200.0592	0.8421
200.2767	0.9965
200.4943	0.8729
200.7119	0.8803
200.9294	0.9073
201.1469	0.8274
201.3645	0.7948
201.582	0.7206
201.7995	0.8054
202.017	0.7483
202.2344	0.8243
202.4519	0.9097
202.6694	0.8655
202.8868	0.9416
203.1042	1.0072
203.3217	1.0439
203.5391	1.0302
203.7565	0.821
203.9739	0.7415
204.1913	0.7002
204.4086	0.8781
204.626	0.8511
204.8433	0.7463
205.0607	0.6922
205.278	0.924
205.4953	0.732
205.7126	0.786
205.9299	1.2476
206.1472	0.8261
206.3644	0.861
206.5817	0.7744
206.7989	0.8755
207.0162	0.7311
207.2334	0.8617
207.4506	0.7801
207.6678	0.7003
207.885	0.7639
208.1022	0.9265
208.3194	0.7667
208.5365	0.8347
208.7537	0.773
208.9708	0.6978
209.1879	0.7267
209.405	0.7812
209.6222	0.883
209.8392	0.8732
210.0563	0.7876
210.2734	0.8396
210.4905	1.0157
210.7075	0.9138
210.9245	0.7687
211.1416	1.0746
211.3586	0.8387
211.5756	0.8308
211.7926	0.7678
212.0096	0.7937
212.2265	0.7472
212.4435	0.799
212.6604	0.8853
212.8774	0.8899
213.0943	0.8696
213.3112	0.7175
213.5281	0.7456
213.745	0.747
213.9619	0.7494
214.1788	0.6853
214.3956	0.6929
214.6125	0.6783
214.8293	0.6237
215.0461	0.736
215.2629	0.6908
215.4798	0.6819
215.6965	0.6265
215.9133	0.7117
216.1301	0.6223
216.3469	0.6496
216.5636	0.6757
216.7803	0.6179
216.9971	0.6374
217.2138	0.6279
217.4305	0.6132
217.6472	0.6203
217.8639	0.6783
218.0805	0.6413
218.2972	0.5651
218.5138	0.5984
218.7305	0.5884
218.9471	0.5705
219.1637	0.557
219.3803	0.5658
219.5969	0.5339
219.8135	0.504
220.0301	0.5518
220.2466	0.5477
220.4632	0.5277
220.6797	0.5318
220.8962	0.505
221.1127	0.5099
221.3292	0.5361
221.5457	0.5132
221.7622	0.4852
221.9787	0.5452
222.1951	0.5021
222.4116	0.5362
222.628	0.5215
222.8444	0.5315
223.0608	0.4983
223.2772	0.5157
223.4936	0.5476
223.71	0.4964
223.9264	0.5575
224.1427	0.5031
224.3591	0.5226
224.5754	0.5448
224.7917	0.5185
225.008	0.5538
225.2243	0.5249
225.4406	0.5536
225.6569	0.5571
225.8732	0.552
226.0894	0.5388
226.3057	0.5512
226.5219	0.5627
226.7381	0.5452
226.9543	0.5245
227.1705	0.5744
227.3867	0.5242
227.6029	0.5486
227.8191	0.5486
228.0352	0.5348
228.2513	0.5588
228.4675	0.5918
228.6836	0.5429
228.8997	0.5298
229.1158	0.5905
229.3319	0.5461
229.548	0.5663
229.764	0.561
229.9801	0.5941
230.1961	0.5465
230.4121	0.5594
230.6282	0.5605
230.8442	0.5353
231.0602	0.5706
231.2761	0.578
231.4921	0.5368
231.7081	0.5813
231.924	0.56
232.14	0.5664
232.3559	0.5338
232.5718	0.5582
232.7877	0.5593
233.0036	0.5427
233.2195	0.5552
233.4353	0.5503
233.6512	0.5559
233.867	0.5324
234.0829	0.5415
234.2987	0.5505
234.5145	0.5421
234.7303	0.5478
234.9461	0.5721
235.1619	0.5505
235.3776	0.5592
235.5934	0.5588
235.8091	0.5632
236.0249	0.5342
236.2406	0.5599
236.4563	0.5468
236.672	0.5752
236.8877	0.5676
237.1034	0.5592
237.319	0.5402
237.5347	0.561
237.7503	0.534
237.966	0.5264
238.1816	0.5555
238.3972	0.5278
238.6128	0.5571
238.8284	0.5555
239.0439	0.5601
239.2595	0.5285
239.475	0.5559
239.6906	0.5458
239.9061	0.5275
240.1216	0.5096
240.3371	0.5194
240.5526	0.5069
240.7681	0.5343
240.9836	0.4919
241.199	0.5098
241.4145	0.4894
241.6299	0.4878
241.8453	0.4696
242.0607	0.4776
242.2761	0.4414
242.4915	0.4573
242.7069	0.4456
242.9223	0.4426
243.1376	0.4361
243.353	0.4181
243.5683	0.4373
243.7836	0.4321
243.9989	0.4215
244.2142	0.3801
244.4295	0.3997
244.6448	0.3744
244.86	0.3643
245.0753	0.3708
245.2905	0.3404
245.5057	0.3404
245.721	0.3433
245.9362	0.3265
246.1514	0.337
246.3665	0.3306
246.5817	0.3165
246.7969	0.298
247.012	0.3097
247.2271	0.3008
247.4423	0.3016
247.6574	0.3061
247.8725	0.2955
248.0876	0.2778
248.3026	0.2918
248.5177	0.2813
248.7328	0.2612
248.9478	0.2578
249.1628	0.2641
249.3779	0.2713
249.5929	0.2577
249.8079	0.2592
250.0228	0.2531
250.2378	0.2509
250.4528	0.2553
250.6677	0.2183
250.8827	0.2395
251.0976	0.224
251.3125	0.2281
251.5274	0.2191
251.7423	0.2292
251.9572	0.2175
252.172	0.2214
252.3869	0.2124
252.6017	0.2148
252.8166	0.2012
253.0314	0.203
253.2462	0.209
253.461	0.2093
253.6758	0.1973
253.8906	0.2112
254.1053	0.2126
254.3201	0.1926
254.5348	0.2044
254.7496	0.2047
254.9643	0.1885
255.179	0.2018
255.3937	0.2004
255.6083	0.192
255.823	0.2021
256.0377	0.193
256.2523	0.2014
256.467	0.1739
256.6816	0.2022
256.8962	0.1968
257.1108	0.1843
257.3254	0.2036
257.54	0.1913
257.7545	0.1858
257.9691	0.1964
258.1836	0.1838
258.3981	0.1941
258.6127	0.2047
258.8272	0.1838
259.0417	0.1825
259.2561	0.1761
259.4706	0.1938
259.6851	0.1846
259.8995	0.1784
260.114	0.1764
260.3284	0.1834
260.5428	0.1659
260.7572	0.1854
260.9716	0.1901
261.186	0.1779
261.4003	0.1832
261.6147	0.2046
261.829	0.2003
262.0433	0.1838
262.2577	0.1787
262.472	0.1931
262.6863	0.1831
262.9005	0.1782
263.1148	0.1842
263.3291	0.1657
263.5433	0.1811
263.7576	0.1905
263.9718	0.1685
264.186	0.1915
264.4002	0.1769
264.6144	0.1816
264.8286	0.1893
265.0427	0.1853
265.2569	0.179
265.471	0.1793
265.6851	0.1764
265.8993	0.1665
266.1134	0.1749
266.3275	0.1813
266.5415	0.1716
266.7556	0.1865
266.9697	0.1851
267.1837	0.1882
267.3978	0.1901
267.6118	0.186
267.8258	0.2035
268.0398	0.1748
268.2538	0.1878
268.4677	0.1781
268.6817	0.1713
268.8957	0.1886
269.1096	0.1884
269.3235	0.1839
269.5374	0.1724
269.7514	0.1722
269.9652	0.1718
270.1791	0.1718
270.393	0.1671
270.6068	0.1767
270.8207	0.1501
271.0345	0.1651
271.2483	0.1672
271.4622	0.1567
271.676	0.1703
271.8897	0.1674
272.1035	0.1621
272.3173	0.1667
272.531	0.1657
272.7448	0.1664
272.9585	0.1539
273.1722	0.1649
273.3859	0.1649
273.5996	0.1495
273.8133	0.1594
274.0269	0.1568
274.2406	0.162
274.4542	0.1631
274.6679	0.1473
274.8815	0.1655
275.0951	0.1748
275.3087	0.1646
275.5223	0.1678
275.7358	0.1684
275.9494	0.1563
276.1629	0.1603
276.3765	0.1603
276.59	0.1728
276.8035	0.1686
277.017	0.1634
277.2305	0.1466
277.444	0.1633
277.6574	0.1598
277.8709	0.1582
278.0843	0.1602
278.2978	0.1634
278.5112	0.1585
278.7246	0.1607
278.938	0.166
279.1513	0.1717
279.3647	0.1822
279.5781	0.1646
279.7914	0.1716
280.0047	0.1674
280.2181	0.162
280.4314	0.1781
280.6447	0.1742
280.8579	0.1645
281.0712	0.1706
281.2845	0.172
281.4977	0.1746
281.711	0.1718
281.9242	0.1703
282.1374	0.1732
282.3506	0.1701
282.5638	0.167
282.7769	0.171
282.9901	0.1646
283.2033	0.1825
283.4164	0.1759
283.6295	0.1572
283.8426	0.1676
284.0557	0.1653
284.2688	0.1858
284.4819	0.1741
284.695	0.1717
284.908	0.1821
285.1211	0.1572
285.3341	0.1699
285.5471	0.1888
285.7601	0.1787
285.9731	0.1735
286.1861	0.1661
286.3991	0.1756
286.612	0.18
286.825	0.1715
287.0379	0.1917
287.2508	0.1799
287.4637	0.1876
287.6766	0.1696
287.8895	0.1824
288.1024	0.1995
288.3152	0.1919
288.5281	0.1692
288.7409	0.1802
288.9538	0.1788
289.1666	0.1825
289.3794	0.1865
289.5922	0.1792
289.8049	0.183
290.0177	0.1852
290.2304	0.1838
290.4432	0.1859
290.6559	0.1786
290.8686	0.1807
291.0813	0.1781
291.294	0.1878
291.5067	0.1941
291.7194	0.1759
291.932	0.1945
292.1447	0.1759
292.3573	0.1773
292.5699	0.1838
292.7825	0.184
292.9951	0.1862
293.2077	0.1842
293.4203	0.1767
293.6328	0.1748
293.8454	0.1764
294.0579	0.1734
294.2704	0.1812
294.4829	0.1742
294.6954	0.1787
294.9079	0.1749
295.1204	0.1841
295.3328	0.1578
295.5453	0.1799
295.7577	0.1848
295.9701	0.1713
296.1825	0.1846
296.3949	0.1692
296.6073	0.1744
296.8197	0.1724
297.0321	0.1829
297.2444	0.1768
297.4567	0.1789
297.6691	0.1729
297.8814	0.1705
298.0937	0.1698
298.306	0.1876
298.5182	0.1821
298.7305	0.1785
298.9428	0.1641
299.155	0.1799
299.3672	0.1718
299.5794	0.1634
299.7916	0.1637
300.0038	0.1823
300.216	0.1766
300.4282	0.1788
300.6403	0.1734
300.8525	0.1814
301.0646	0.1718
301.2767	0.1692
301.4888	0.1717
301.7009	0.1783
301.913	0.1629
302.125	0.1735
302.3371	0.1691
302.5491	0.177
302.7612	0.1803
302.9732	0.1713
303.1852	0.1803
303.3972	0.178
303.6092	0.161
303.8211	0.1704
304.0331	0.1665
304.245	0.1594
304.457	0.1534
304.6689	0.1673
304.8808	0.1793
305.0927	0.1653
305.3046	0.1646
305.5164	0.1695
305.7283	0.1546
305.9401	0.1583
306.152	0.1566
306.3638	0.1547
306.5756	0.156
306.7874	0.1625
306.9992	0.1585
307.2109	0.1504
307.4227	0.1332
307.6344	0.1472
307.8462	0.1385
308.0579	0.1475
308.2696	0.1419
308.4813	0.1344
308.693	0.1355
308.9046	0.141
309.1163	0.1277
309.328	0.1336
309.5396	0.1291
309.7512	0.1299
309.9628	0.1314
310.1744	0.1216
310.386	0.1245
310.5976	0.1206
310.8091	0.1333
311.0207	0.1182
311.2322	0.1279
311.4437	0.1168
311.6552	0.1138
311.8667	0.127
312.0782	0.1034
312.2897	0.1082
312.5012	0.1138
312.7126	0.1069
312.924	0.1074
313.1355	0.1191
313.3469	0.1118
313.5583	0.1151
313.7696	0.1089
313.981	0.1041
314.1924	0.0869
314.4037	0.1082
314.6151	0.1181
314.8264	0.0973
315.0377	0.0971
315.249	0.1049
315.4603	0.1187
315.6716	0.1022
315.8828	0.104
316.0941	0.1033
316.3053	0.0902
316.5165	0.0852
316.7277	0.081
316.9389	0.1108
317.1501	0.1003
317.3613	0.1107
317.5724	0.0809
317.7836	0.0967
317.9947	0.0925
318.2058	0.1025
318.417	0.0875
318.6281	0.0802
318.8391	0.1002
319.0502	0.1019
319.2613	0.0951
319.4723	0.1045
319.6834	0.105
319.8944	0.0936
320.1054	0.0997
320.3164	0.1049
320.5274	0.0889
320.7383	0.0842
320.9493	0.0974
321.1602	0.1095
321.3712	0.0827
321.5821	0.0941
321.793	0.0959
322.0039	0.0867
322.2148	0.1049
322.4257	0.1092
322.6365	0.109
322.8474	0.1081
323.0582	0.098
323.269	0.0951
323.4798	0.1061
323.6906	0.0966
323.9014	0.0994
324.1122	0.1016
324.3229	0.0944
324.5337	0.0977
324.7444	0.0861
324.9551	0.1091
325.1658	0.1028
325.3765	0.1002
325.5872	0.0957
325.7979	0.1056
326.0085	0.1072
326.2192	0.1072
326.4298	0.1019
326.6404	0.0876
326.851	0.0941
327.0616	0.0871
327.2722	0.1058
327.4828	0.1093
327.6933	0.1021
327.9039	0.1012
328.1144	0.1091
328.3249	0.1151
328.5354	0.087
328.7459	0.0941
328.9564	0.0991
329.1669	0.1058
329.3773	0.1053
329.5878	0.1092
329.7982	0.1008
330.0086	0.0987
330.219	0.1205
330.4294	0.1066
330.6398	0.1046
330.8502	0.1022
331.0605	0.1085
331.2708	0.1031
331.4812	0.1017
331.6915	0.1028
331.9018	0.1038
332.1121	0.0925
332.3224	0.1077
332.5326	0.1066
332.7429	0.1
332.9531	0.1093
333.1633	0.1113
333.3735	0.11
333.5837	0.1054
333.7939	0.1016
334.0041	0.1253
334.2143	0.1081
334.4244	0.1049
334.6346	0.0889
334.8447	0.1181
335.0548	0.1111
335.2649	0.0997
335.475	0.1123
335.685	0.1059
335.8951	0.1105
336.1051	0.1096
336.3152	0.108
336.5252	0.0975
336.7352	0.1116
336.9452	0.1168
337.1552	0.1069
337.3652	0.1086
337.5751	0.1127
337.7851	0.1183
337.995	0.0981
338.2049	0.1125
338.4148	0.1139
338.6247	0.1115
338.8346	0.1107
339.0445	0.0984
339.2543	0.1092
339.4642	0.1047
339.674	0.105
339.8838	0.1078
340.0936	0.108
340.3034	0.1235
340.5132	0.1201
340.7229	0.1143
340.9327	0.1086
341.1424	0.1119
341.3522	0.1306
341.5619	0.1338
341.7716	0.1185
341.9813	0.1124
342.1909	0.1145
342.4006	0.1173
342.6102	0.1226
342.8199	0.1287
343.0295	0.1313
343.2391	0.1215
343.4487	0.1149
343.6583	0.1106
343.8679	0.1165
344.0774	0.1174
344.287	0.1263
344.4965	0.1128
344.706	0.1186
344.9155	0.1188
345.125	0.1131
345.3345	0.1194
345.544	0.1198
345.7534	0.1252
345.9629	0.1258
346.1723	0.1308
346.3817	0.1127
346.5911	0.1321
346.8005	0.1393
347.0099	0.1341
347.2193	0.1328
347.4286	0.1225
347.638	0.1341
347.8473	0.1313
348.0566	0.131
348.2659	0.1425
348.4752	0.1265
348.6845	0.1221
348.8937	0.1409
349.103	0.1368
349.3122	0.1237
349.5214	0.1338
349.7306	0.1395
349.9398	0.1424
350.149	0.1249
350.3582	0.1361
350.5674	0.1489
350.7765	0.1468
350.9856	0.1323
351.1948	0.1477
351.4039	0.1317
351.613	0.131
351.822	0.1505
352.0311	0.1467
352.2402	0.1506
352.4492	0.144
352.6582	0.148
352.8672	0.1461
353.0762	0.1373
353.2852	0.1408
353.4942	0.1281
353.7032	0.1515
353.9121	0.1419
354.1211	0.1656
354.33	0.1515
354.5389	0.1525
354.7478	0.1481
354.9567	0.1495
355.1655	0.1312
355.3744	0.1406
355.5833	0.1561
355.7921	0.1646
356.0009	0.1531
356.2097	0.1607
356.4185	0.1529
356.6273	0.165
356.8361	0.1649
357.0448	0.1503
357.2536	0.1474
357.4623	0.1547
357.671	0.1692
357.8797	0.1699
358.0884	0.1716
358.2971	0.1749
358.5057	0.1568
358.7144	0.1759
358.923	0.1745
359.1316	0.162
359.3402	0.1642
359.5488	0.1732
359.7574	0.1556
359.966	0.1699
360.1746	0.1626
360.3831	0.1652
360.5916	0.1678
360.8002	0.1532
361.0087	0.1908
361.2172	0.1747
361.4256	0.1882
361.6341	0.1906
361.8426	0.1935
362.051	0.1809
362.2594	0.1818
362.4678	0.1934
362.6762	0.2124
362.8846	0.2044
363.093	0.1783
363.3014	0.2037
363.5097	0.1705
363.718	0.1914
363.9264	0.1786
364.1347	0.1848
364.343	0.1958
364.5513	0.2001
364.7595	0.2128
364.9678	0.1949
365.176	0.1844
365.3842	0.2025
365.5925	0.1927
365.8007	0.1944
366.0089	0.1833
366.217	0.1957
366.4252	0.2039
366.6333	0.2138
366.8415	0.1971
367.0496	0.1956
367.2577	0.2201
367.4658	0.2003
367.6739	0.2078
367.882	0.2305
368.09	0.1971
368.2981	0.2093
368.5061	0.1928
368.7141	0.2123
368.9221	0.223
369.1301	0.2322
369.3381	0.2127
369.5461	0.2089
369.754	0.219
369.962	0.2254
370.1699	0.2163
370.3778	0.2248
370.5857	0.2193
370.7936	0.2108
371.0015	0.2128
371.2093	0.2186
371.4172	0.2252
371.625	0.2139
371.8328	0.2114
372.0406	0.2171
372.2484	0.2255
372.4562	0.2296
372.664	0.2311
372.8717	0.2318
373.0795	0.2039
373.2872	0.2252
373.4949	0.2203
373.7026	0.237
373.9103	0.2306
374.118	0.2242
374.3256	0.2184
374.5333	0.2277
374.7409	0.2305
374.9485	0.2612
375.1561	0.224
375.3637	0.2348
375.5713	0.2497
375.7789	0.2361
375.9864	0.235
376.194	0.2388
376.4015	0.2535
376.609	0.2518
376.8165	0.2403
377.024	0.2325
377.2315	0.2254
377.4389	0.2403
377.6464	0.249
377.8538	0.2461
378.0612	0.2477
378.2686	0.2478
378.476	0.256
378.6834	0.2579
378.8908	0.2447
379.0981	0.2465
379.3055	0.2499
379.5128	0.2456
379.7201	0.2491
379.9274	0.2483
380.1347	0.2577
380.342	0.264
380.5492	0.2477
380.7565	0.2452
380.9637	0.2484
381.1709	0.2559
381.3781	0.2585
381.5853	0.2697
381.7925	0.2594
381.9997	0.2573
382.2068	0.268
382.4139	0.261
382.6211	0.2508
382.8282	0.258
383.0353	0.2682
383.2424	0.2698
383.4494	0.2612
383.6565	0.2547
383.8635	0.27
384.0706	0.2631
384.2776	0.2542
384.4846	0.2509
384.6916	0.253
384.8986	0.2475
385.1055	0.248
385.3125	0.2689
385.5194	0.2275
385.7263	0.2713
385.9333	0.2658
386.1402	0.2733
386.347	0.2817
386.5539	0.2468
386.7608	0.2618
386.9676	0.2547
387.1744	0.2681
387.3813	0.2523
387.5881	0.2556
387.7948	0.2522
388.0016	0.2521
388.2084	0.2514
388.4151	0.2481
388.6219	0.2638
388.8286	0.2686
389.0353	0.2631
389.242	0.2658
389.4487	0.2443
389.6553	0.2334
389.862	0.223
390.0686	0.2494
390.2753	0.2563
390.4819	0.2424
390.6885	0.2634
390.8951	0.23
391.1016	0.251
391.3082	0.2513
391.5147	0.2495
391.7213	0.2411
391.9278	0.2528
392.1343	0.2461
392.3408	0.2393
392.5473	0.2313
392.7537	0.247
392.9602	0.2287
393.1666	0.2323
393.373	0.2261
393.5794	0.2602
393.7858	0.2437
393.9922	0.2327
394.1986	0.2503
394.4049	0.2442
394.6113	0.2396
394.8176	0.219
395.0239	0.2382
395.2302	0.2267
395.4365	0.2291
395.6428	0.2216
395.8491	0.2271
396.0553	0.2242
396.2615	0.2279
396.4678	0.2176
396.674	0.2242
396.8802	0.2366
397.0863	0.2502
397.2925	0.2153
397.4987	0.2246
397.7048	0.226
397.9109	0.2272
398.117	0.21
398.3231	0.2232
398.5292	0.2202
398.7353	0.2271
398.9413	0.2181
399.1474	0.2146
399.3534	0.2168
399.5594	0.208
399.7654	0.2338
399.9714	0.2336
400.1774	0.2373
400.3833	0.2213
400.5893	0.2178
400.7952	0.2265
401.0011	0.2289
401.207	0.2398
401.4129	0.2201
401.6188	0.2212
401.8247	0.2138
402.0305	0.2158
402.2364	0.2326
402.4422	0.2303
402.648	0.2286
402.8538	0.2244
403.0596	0.2208
403.2654	0.2283
403.4711	0.2253
403.6768	0.2302
403.8826	0.2115
404.0883	0.2303
404.294	0.2208
404.4997	0.2267
404.7054	0.2145
404.911	0.2292
405.1167	0.2165
405.3223	0.2415
405.5279	0.2263
405.7335	0.2416
405.9391	0.2195
406.1447	0.2141
406.3502	0.2365
406.5558	0.2137
406.7613	0.2265
406.9668	0.2188
407.1724	0.2129
407.3778	0.2119
407.5833	0.2162
407.7888	0.2112
407.9942	0.2397
408.1997	0.2268
408.4051	0.2078
408.6105	0.2158
408.8159	0.2115
409.0213	0.2154
409.2267	0.213
409.432	0.2074
409.6374	0.2228
409.8427	0.2014
410.048	0.2108
410.2533	0.2157
410.4586	0.2453
410.6639	0.2087
410.8691	0.1967
411.0744	0.2181
411.2796	0.2023
411.4848	0.2163
411.69	0.2232
411.8952	0.2488
412.1004	0.2108
412.3056	0.2143
412.5107	0.2015
412.7158	0.2285
412.921	0.2072
413.1261	0.2267
413.3312	0.2163
413.5362	0.1965
413.7413	0.2029
413.9464	0.2025
414.1514	0.2095
414.3564	0.2061
414.5614	0.199
414.7664	0.2059
414.9714	0.2114
415.1764	0.2134
415.3813	0.2393
415.5863	0.2141
415.7912	0.204
415.9961	0.2062
416.201	0.2344
416.4059	0.2351
416.6108	0.1999
416.8156	0.216
417.0205	0.2181
417.2253	0.2018
417.4301	0.2015
417.6349	0.2047
417.8397	0.1879
418.0445	0.2124
418.2492	0.2075
418.454	0.2214
418.6587	0.203
418.8634	0.2265
419.0681	0.1916
419.2728	0.2005
419.4775	0.1982
419.6822	0.1793
419.8868	0.1891
420.0915	0.1942
420.2961	0.1929
420.5007	0.183
420.7053	0.2021
420.9099	0.2038
421.1144	0.2051
421.319	0.1925
421.5235	0.2101
421.728	0.1948
421.9325	0.19
422.137	0.2027
422.3415	0.1775
422.546	0.211
422.7504	0.1974
422.9549	0.2056
423.1593	0.1834
423.3637	0.2094
423.5681	0.1853
423.7725	0.1828
423.9769	0.1791
424.1812	0.1929
424.3856	0.175
424.5899	0.1842
424.7942	0.1763
424.9985	0.1889
425.2028	0.1826
425.4071	0.1839
425.6113	0.1585
425.8156	0.1736
426.0198	0.1967
426.224	0.1642
