Data from MonoPyChalIsomerACN10uM380nmA_Absorbance_13-38-30-149.txt Node
Date: Fri Jul 05 13:38:30 BST 2024
User: LASERRRRR
Spectrometer: FLMT03099
Trigger mode: 0
Integration Time (sec): 1.000000E-1
Scans to average: 1
Electric dark correction enabled: true
Nonlinearity correction enabled: false
Boxcar width: 0
XAxis mode: Wavelengths
Number of Pixels in Spectrum: 3648
>>>>>Begin Spectral Data<<<<<
179.3399	-0.2362
179.5586	-0.2362
179.7771	-0.2362
179.9957	-0.0236
180.2143	-0.2241
180.4329	-0.3951
180.6514	0.3367
180.8699	-0
181.0885	0.2572
181.307	0.1078
181.5255	-0.7666
181.744	0.2906
181.9625	-0
182.181	-0
182.3994	0.3107
182.6179	1.0235
182.8363	-0.2935
183.0547	0.4042
183.2732	0.2113
183.4916	0.1083
183.71	0.1738
183.9284	0.2724
184.1467	0.1151
184.3651	-0.0336
184.5835	0.1941
184.8018	0.2334
185.0201	0.102
185.2385	0.3122
185.4568	1.0352
185.6751	0.505
185.8934	0.2526
186.1117	0.313
186.3299	0.0612
186.5482	-0.0519
186.7664	-0.0466
186.9847	-0.1535
187.2029	0.0189
187.4211	0.2156
187.6393	0.6972
187.8575	-0.0193
188.0757	0.2601
188.2939	0.2121
188.512	1.5576
188.7302	-0.0718
188.9483	0.3942
189.1665	0.1421
189.3846	0.4367
189.6027	0.3121
189.8208	0.1946
190.0389	0.1629
190.257	0.1541
190.475	0.2918
190.6931	0.3912
190.9111	0.3807
191.1292	0.3042
191.3472	0.4591
191.5652	0.3204
191.7832	0.149
192.0012	0.422
192.2192	0.3065
192.4371	0.3278
192.6551	0.5063
192.873	0.6038
193.091	0.4562
193.3089	-0
193.5268	0.5766
193.7447	0.5311
193.9626	0.5892
194.1805	0.7684
194.3984	0.9359
194.6162	0.6075
194.8341	0.695
195.0519	0.7019
195.2697	0.7428
195.4875	0.646
195.7054	0.7408
195.9231	0.7496
196.1409	0.9121
196.3587	0.8103
196.5765	0.8211
196.7942	0.7408
197.012	0.8349
197.2297	0.7667
197.4474	0.7251
197.6651	0.8007
197.8828	0.6815
198.1005	0.7435
198.3182	1.2571
198.5358	0.9372
198.7535	0.7798
198.9711	0.7098
199.1888	0.8033
199.4064	0.9225
199.624	1.2302
199.8416	0.9297
200.0592	0.8566
200.2767	0.8388
200.4943	1.1521
200.7119	1.0355
200.9294	0.826
201.1469	0.7985
201.3645	0.6947
201.582	0.8544
201.7995	0.7685
202.017	0.7169
202.2344	0.7279
202.4519	0.9679
202.6694	0.9453
202.8868	0.7687
203.1042	0.9479
203.3217	1.2883
203.5391	0.9486
203.7565	0.6943
203.9739	1.0146
204.1913	0.7505
204.4086	0.9883
204.626	1.0583
204.8433	0.8212
205.0607	0.8179
205.278	0.9192
205.4953	0.75
205.7126	0.8386
205.9299	1.0688
206.1472	0.8517
206.3644	0.8832
206.5817	0.7868
206.7989	0.8902
207.0162	0.7841
207.2334	0.8215
207.4506	0.8519
207.6678	0.8156
207.885	0.7107
208.1022	0.8047
208.3194	0.812
208.5365	0.8142
208.7537	0.86
208.9708	0.7803
209.1879	0.8273
209.405	0.9944
209.6222	1.0978
209.8392	0.8329
210.0563	0.8095
210.2734	0.9079
210.4905	0.8207
210.7075	0.8241
210.9245	0.792
211.1416	0.8856
211.3586	0.854
211.5756	0.7321
211.7926	0.8157
212.0096	0.7377
212.2265	0.7726
212.4435	0.8354
212.6604	0.8874
212.8774	0.7937
213.0943	0.8087
213.3112	0.6779
213.5281	0.7858
213.745	0.65
213.9619	0.7788
214.1788	0.6943
214.3956	0.7763
214.6125	0.6996
214.8293	0.6783
215.0461	0.7473
215.2629	0.6942
215.4798	0.7445
215.6965	0.6315
215.9133	0.7102
216.1301	0.6273
216.3469	0.6998
216.5636	0.6766
216.7803	0.6117
216.9971	0.7022
217.2138	0.5834
217.4305	0.6305
217.6472	0.639
217.8639	0.6655
218.0805	0.6629
218.2972	0.5999
218.5138	0.5873
218.7305	0.5704
218.9471	0.5617
219.1637	0.5729
219.3803	0.5603
219.5969	0.5414
219.8135	0.5368
220.0301	0.5586
220.2466	0.5756
220.4632	0.504
220.6797	0.4997
220.8962	0.52
221.1127	0.54
221.3292	0.5366
221.5457	0.5056
221.7622	0.527
221.9787	0.5134
222.1951	0.5072
222.4116	0.5361
222.628	0.5266
222.8444	0.5435
223.0608	0.5053
223.2772	0.5089
223.4936	0.5475
223.71	0.5392
223.9264	0.5206
224.1427	0.5239
224.3591	0.5254
224.5754	0.5653
224.7917	0.5347
225.008	0.5434
225.2243	0.5079
225.4406	0.559
225.6569	0.5251
225.8732	0.5224
226.0894	0.4979
226.3057	0.5653
226.5219	0.5422
226.7381	0.5274
226.9543	0.5486
227.1705	0.5699
227.3867	0.5353
227.6029	0.5674
227.8191	0.5417
228.0352	0.5338
228.2513	0.5977
228.4675	0.5679
228.6836	0.555
228.8997	0.5627
229.1158	0.5937
229.3319	0.5577
229.548	0.5727
229.764	0.5475
229.9801	0.5573
230.1961	0.5739
230.4121	0.563
230.6282	0.5585
230.8442	0.537
231.0602	0.5576
231.2761	0.543
231.4921	0.5889
231.7081	0.5756
231.924	0.5492
232.14	0.5766
232.3559	0.5359
232.5718	0.5888
232.7877	0.5588
233.0036	0.5376
233.2195	0.5633
233.4353	0.5563
233.6512	0.5649
233.867	0.5432
234.0829	0.5366
234.2987	0.578
234.5145	0.5674
234.7303	0.5659
234.9461	0.5887
235.1619	0.5732
235.3776	0.5527
235.5934	0.5621
235.8091	0.5121
236.0249	0.5665
236.2406	0.5479
236.4563	0.5554
236.672	0.5467
236.8877	0.5533
237.1034	0.5419
237.319	0.5349
237.5347	0.5455
237.7503	0.54
237.966	0.5519
238.1816	0.5516
238.3972	0.5471
238.6128	0.5247
238.8284	0.5627
239.0439	0.5671
239.2595	0.5098
239.475	0.537
239.6906	0.5352
239.9061	0.5158
240.1216	0.5238
240.3371	0.5387
240.5526	0.5294
240.7681	0.5524
240.9836	0.4919
241.199	0.5302
241.4145	0.4816
241.6299	0.4864
241.8453	0.4745
242.0607	0.4734
242.2761	0.4669
242.4915	0.481
242.7069	0.4553
242.9223	0.4278
243.1376	0.4304
243.353	0.4326
243.5683	0.4352
243.7836	0.4007
243.9989	0.4135
244.2142	0.3891
244.4295	0.3914
244.6448	0.4147
244.86	0.3815
245.0753	0.3602
245.2905	0.3661
245.5057	0.3387
245.721	0.3519
245.9362	0.3294
246.1514	0.3435
246.3665	0.3295
246.5817	0.3267
246.7969	0.3122
247.012	0.2953
247.2271	0.2868
247.4423	0.3063
247.6574	0.3013
247.8725	0.2805
248.0876	0.281
248.3026	0.2762
248.5177	0.2827
248.7328	0.2614
248.9478	0.2574
249.1628	0.2634
249.3779	0.2592
249.5929	0.2519
249.8079	0.2651
250.0228	0.2477
250.2378	0.2476
250.4528	0.2423
250.6677	0.2389
250.8827	0.2317
251.0976	0.2302
251.3125	0.2255
251.5274	0.206
251.7423	0.2206
251.9572	0.2125
252.172	0.2157
252.3869	0.2035
252.6017	0.2125
252.8166	0.203
253.0314	0.1957
253.2462	0.1954
253.461	0.2078
253.6758	0.1961
253.8906	0.2136
254.1053	0.1893
254.3201	0.196
254.5348	0.2122
254.7496	0.2038
254.9643	0.2011
255.179	0.1987
255.3937	0.1977
255.6083	0.2013
255.823	0.2006
256.0377	0.1916
256.2523	0.1949
256.467	0.1777
256.6816	0.2004
256.8962	0.1856
257.1108	0.183
257.3254	0.2014
257.54	0.1869
257.7545	0.1904
257.9691	0.1996
258.1836	0.1809
258.3981	0.1974
258.6127	0.2055
258.8272	0.1838
259.0417	0.1864
259.2561	0.1826
259.4706	0.185
259.6851	0.1806
259.8995	0.1819
260.114	0.1809
260.3284	0.1827
260.5428	0.1742
260.7572	0.1885
260.9716	0.1808
261.186	0.1904
261.4003	0.1872
261.6147	0.1965
261.829	0.1913
262.0433	0.1731
262.2577	0.1846
262.472	0.1848
262.6863	0.1822
262.9005	0.1834
263.1148	0.1827
263.3291	0.173
263.5433	0.1824
263.7576	0.1893
263.9718	0.1726
264.186	0.1735
264.4002	0.1795
264.6144	0.1794
264.8286	0.1893
265.0427	0.1778
265.2569	0.1843
265.471	0.1739
265.6851	0.1741
265.8993	0.1772
266.1134	0.177
266.3275	0.1811
266.5415	0.1716
266.7556	0.1823
266.9697	0.1797
267.1837	0.1895
267.3978	0.1802
267.6118	0.1833
267.8258	0.1962
268.0398	0.1645
268.2538	0.1901
268.4677	0.1849
268.6817	0.1825
268.8957	0.1854
269.1096	0.1682
269.3235	0.1912
269.5374	0.1708
269.7514	0.1826
269.9652	0.174
270.1791	0.1817
270.393	0.1813
270.6068	0.185
270.8207	0.1955
271.0345	0.1659
271.2483	0.1829
271.4622	0.164
271.676	0.1647
271.8897	0.1601
272.1035	0.1621
272.3173	0.1659
272.531	0.16
272.7448	0.174
272.9585	0.1564
273.1722	0.1698
273.3859	0.164
273.5996	0.1588
273.8133	0.1552
274.0269	0.1621
274.2406	0.1514
274.4542	0.1705
274.6679	0.1512
274.8815	0.1675
275.0951	0.1734
275.3087	0.1709
275.5223	0.1791
275.7358	0.1666
275.9494	0.1651
276.1629	0.1663
276.3765	0.1657
276.59	0.1804
276.8035	0.1748
277.017	0.1704
277.2305	0.1586
277.444	0.1667
277.6574	0.1611
277.8709	0.1686
278.0843	0.1521
278.2978	0.1648
278.5112	0.1605
278.7246	0.152
278.938	0.1658
279.1513	0.1781
279.3647	0.1823
279.5781	0.1564
279.7914	0.1679
280.0047	0.1841
280.2181	0.1617
280.4314	0.1688
280.6447	0.1809
280.8579	0.1623
281.0712	0.1746
281.2845	0.1759
281.4977	0.1648
281.711	0.1628
281.9242	0.175
282.1374	0.1746
282.3506	0.1723
282.5638	0.1699
282.7769	0.1675
282.9901	0.1731
283.2033	0.1763
283.4164	0.1791
283.6295	0.1631
283.8426	0.183
284.0557	0.1841
284.2688	0.1929
284.4819	0.1767
284.695	0.1755
284.908	0.1755
285.1211	0.1662
285.3341	0.1784
285.5471	0.1795
285.7601	0.1764
285.9731	0.1675
286.1861	0.1734
286.3991	0.1819
286.612	0.1835
286.825	0.1836
287.0379	0.1798
287.2508	0.1725
287.4637	0.1881
287.6766	0.1754
287.8895	0.1842
288.1024	0.1815
288.3152	0.1862
288.5281	0.1683
288.7409	0.1765
288.9538	0.1728
289.1666	0.1843
289.3794	0.1793
289.5922	0.176
289.8049	0.1902
290.0177	0.1779
290.2304	0.1784
290.4432	0.1827
290.6559	0.1701
290.8686	0.1825
291.0813	0.1723
291.294	0.1687
291.5067	0.179
291.7194	0.1787
291.932	0.1784
292.1447	0.1838
292.3573	0.1691
292.5699	0.175
292.7825	0.1829
292.9951	0.1757
293.2077	0.1762
293.4203	0.1863
293.6328	0.1685
293.8454	0.1882
294.0579	0.1845
294.2704	0.1848
294.4829	0.1776
294.6954	0.179
294.9079	0.1808
295.1204	0.1757
295.3328	0.1894
295.5453	0.176
295.7577	0.1851
295.9701	0.1707
296.1825	0.1713
296.3949	0.1724
296.6073	0.1759
296.8197	0.163
297.0321	0.1778
297.2444	0.164
297.4567	0.1847
297.6691	0.1813
297.8814	0.1704
298.0937	0.1695
298.306	0.1786
298.5182	0.1743
298.7305	0.1813
298.9428	0.1737
299.155	0.1825
299.3672	0.1689
299.5794	0.1737
299.7916	0.176
300.0038	0.1737
300.216	0.18
300.4282	0.1871
300.6403	0.167
300.8525	0.1886
301.0646	0.1787
301.2767	0.1728
301.4888	0.1707
301.7009	0.1766
301.913	0.1769
302.125	0.1846
302.3371	0.1716
302.5491	0.1717
302.7612	0.176
302.9732	0.1768
303.1852	0.1815
303.3972	0.1783
303.6092	0.1657
303.8211	0.1594
304.0331	0.1689
304.245	0.1606
304.457	0.1513
304.6689	0.1572
304.8808	0.1788
305.0927	0.1537
305.3046	0.1575
305.5164	0.1677
305.7283	0.1596
305.9401	0.1655
306.152	0.1556
306.3638	0.1459
306.5756	0.1535
306.7874	0.1528
306.9992	0.1604
307.2109	0.1527
307.4227	0.1341
307.6344	0.1502
307.8462	0.1429
308.0579	0.1423
308.2696	0.1413
308.4813	0.1314
308.693	0.1364
308.9046	0.1485
309.1163	0.1476
309.328	0.1436
309.5396	0.1297
309.7512	0.1328
309.9628	0.1244
310.1744	0.1318
310.386	0.135
310.5976	0.1285
310.8091	0.1278
311.0207	0.1207
311.2322	0.1282
311.4437	0.1131
311.6552	0.122
311.8667	0.118
312.0782	0.11
312.2897	0.1019
312.5012	0.1154
312.7126	0.1048
312.924	0.0961
313.1355	0.1197
313.3469	0.11
313.5583	0.1181
313.7696	0.1082
313.981	0.116
314.1924	0.1109
314.4037	0.103
314.6151	0.1179
314.8264	0.0946
315.0377	0.1078
315.249	0.1137
315.4603	0.1082
315.6716	0.113
315.8828	0.0982
316.0941	0.1086
316.3053	0.0971
316.5165	0.0896
316.7277	0.0946
316.9389	0.1093
317.1501	0.1068
317.3613	0.1087
317.5724	0.0843
317.7836	0.1065
317.9947	0.094
318.2058	0.099
318.417	0.0927
318.6281	0.0971
318.8391	0.0946
319.0502	0.0983
319.2613	0.0993
319.4723	0.103
319.6834	0.1047
319.8944	0.0902
320.1054	0.103
320.3164	0.1079
320.5274	0.0927
320.7383	0.0935
320.9493	0.1033
321.1602	0.096
321.3712	0.0888
321.5821	0.1087
321.793	0.098
322.0039	0.1042
322.2148	0.1029
322.4257	0.1049
322.6365	0.0956
322.8474	0.1025
323.0582	0.1016
323.269	0.1025
323.4798	0.1082
323.6906	0.1078
323.9014	0.0996
324.1122	0.1052
324.3229	0.0926
324.5337	0.1094
324.7444	0.0972
324.9551	0.1142
325.1658	0.1016
325.3765	0.1117
325.5872	0.1028
325.7979	0.1072
326.0085	0.1008
326.2192	0.1139
326.4298	0.0988
326.6404	0.1036
326.851	0.1078
327.0616	0.098
327.2722	0.1081
327.4828	0.1051
327.6933	0.0949
327.9039	0.1025
328.1144	0.1192
328.3249	0.1146
328.5354	0.1003
328.7459	0.1005
328.9564	0.0976
329.1669	0.0995
329.3773	0.1066
329.5878	0.1083
329.7982	0.1071
330.0086	0.103
330.219	0.1143
330.4294	0.1044
330.6398	0.1033
330.8502	0.0974
331.0605	0.1001
331.2708	0.1153
331.4812	0.109
331.6915	0.1149
331.9018	0.1113
332.1121	0.1024
332.3224	0.111
332.5326	0.1172
332.7429	0.1096
332.9531	0.1189
333.1633	0.1179
333.3735	0.1067
333.5837	0.0967
333.7939	0.1037
334.0041	0.1109
334.2143	0.1109
334.4244	0.1134
334.6346	0.0931
334.8447	0.118
335.0548	0.1011
335.2649	0.1066
335.475	0.1275
335.685	0.1098
335.8951	0.1156
336.1051	0.1169
336.3152	0.1096
336.5252	0.1222
336.7352	0.1156
336.9452	0.1222
337.1552	0.1257
337.3652	0.1096
337.5751	0.1034
337.7851	0.1081
337.995	0.1045
338.2049	0.1227
338.4148	0.1235
338.6247	0.1169
338.8346	0.1015
339.0445	0.1138
339.2543	0.1069
339.4642	0.1219
339.674	0.1179
339.8838	0.1184
340.0936	0.1192
340.3034	0.1247
340.5132	0.1229
340.7229	0.1153
340.9327	0.1107
341.1424	0.1225
341.3522	0.1151
341.5619	0.1193
341.7716	0.1169
341.9813	0.1362
342.1909	0.1177
342.4006	0.1249
342.6102	0.1247
342.8199	0.1221
343.0295	0.1155
343.2391	0.1354
343.4487	0.1241
343.6583	0.1171
343.8679	0.1224
344.0774	0.1396
344.287	0.1271
344.4965	0.1217
344.706	0.1178
344.9155	0.1365
345.125	0.1389
345.3345	0.1291
345.544	0.125
345.7534	0.1384
345.9629	0.1112
346.1723	0.1181
346.3817	0.1145
346.5911	0.1211
346.8005	0.1342
347.0099	0.1261
347.2193	0.1289
347.4286	0.1239
347.638	0.136
347.8473	0.1366
348.0566	0.1325
348.2659	0.1553
348.4752	0.1223
348.6845	0.1319
348.8937	0.1282
349.103	0.1422
349.3122	0.136
349.5214	0.1316
349.7306	0.1426
349.9398	0.1405
350.149	0.1446
350.3582	0.1369
350.5674	0.1371
350.7765	0.1432
350.9856	0.1264
351.1948	0.1397
351.4039	0.1297
351.613	0.1317
351.822	0.1439
352.0311	0.1547
352.2402	0.1446
352.4492	0.1544
352.6582	0.1529
352.8672	0.1389
353.0762	0.1528
353.2852	0.1441
353.4942	0.1412
353.7032	0.16
353.9121	0.141
354.1211	0.1482
354.33	0.1461
354.5389	0.1501
354.7478	0.1385
354.9567	0.1421
355.1655	0.1306
355.3744	0.1716
355.5833	0.158
355.7921	0.1733
356.0009	0.1608
356.2097	0.1652
356.4185	0.1673
356.6273	0.1629
356.8361	0.1629
357.0448	0.1572
357.2536	0.1418
357.4623	0.1604
357.671	0.1582
357.8797	0.1607
358.0884	0.1579
358.2971	0.1647
358.5057	0.1641
358.7144	0.1697
358.923	0.1695
359.1316	0.1674
359.3402	0.1645
359.5488	0.1669
359.7574	0.1559
359.966	0.177
360.1746	0.1698
360.3831	0.174
360.5916	0.1686
360.8002	0.1625
361.0087	0.1848
361.2172	0.1787
361.4256	0.1836
361.6341	0.1895
361.8426	0.1847
362.051	0.1844
362.2594	0.1837
362.4678	0.172
362.6762	0.1931
362.8846	0.1769
363.093	0.1869
363.3014	0.1734
363.5097	0.1837
363.718	0.1854
363.9264	0.1914
364.1347	0.1871
364.343	0.1836
364.5513	0.1992
364.7595	0.2077
364.9678	0.1909
365.176	0.1945
365.3842	0.1828
365.5925	0.1969
365.8007	0.1998
366.0089	0.2027
366.217	0.2024
366.4252	0.2138
366.6333	0.2075
366.8415	0.2052
367.0496	0.1997
367.2577	0.2441
367.4658	0.2068
367.6739	0.2137
367.882	0.2129
368.09	0.185
368.2981	0.2089
368.5061	0.1995
368.7141	0.218
368.9221	0.2093
369.1301	0.2212
369.3381	0.215
369.5461	0.2138
369.754	0.2143
369.962	0.2183
370.1699	0.2216
370.3778	0.2268
370.5857	0.216
370.7936	0.2143
371.0015	0.2059
371.2093	0.2288
371.4172	0.2328
371.625	0.1991
371.8328	0.2255
372.0406	0.224
372.2484	0.2242
372.4562	0.2275
372.664	0.2397
372.8717	0.2288
373.0795	0.2055
373.2872	0.2285
373.4949	0.2257
373.7026	0.235
373.9103	0.2297
374.118	0.235
374.3256	0.2482
374.5333	0.2317
374.7409	0.22
374.9485	0.2471
375.1561	0.2391
375.3637	0.2324
375.5713	0.2499
375.7789	0.2322
375.9864	0.2498
376.194	0.2275
376.4015	0.2486
376.609	0.2348
376.8165	0.2533
377.024	0.2439
377.2315	0.2414
377.4389	0.2426
377.6464	0.243
377.8538	0.2514
378.0612	0.2534
378.2686	0.249
378.476	0.2549
378.6834	0.2473
378.8908	0.2478
379.0981	0.2522
379.3055	0.2478
379.5128	0.2467
379.7201	0.2475
379.9274	0.2446
380.1347	0.25
380.342	0.2683
380.5492	0.2441
380.7565	0.2534
380.9637	0.2587
381.1709	0.2493
381.3781	0.2486
381.5853	0.2566
381.7925	0.2439
381.9997	0.2608
382.2068	0.2733
382.4139	0.252
382.6211	0.2358
382.8282	0.2589
383.0353	0.2494
383.2424	0.2472
383.4494	0.2784
383.6565	0.2667
383.8635	0.2524
384.0706	0.2575
384.2776	0.2731
384.4846	0.2536
384.6916	0.2779
384.8986	0.2396
385.1055	0.2695
385.3125	0.2565
385.5194	0.2475
385.7263	0.2602
385.9333	0.2668
386.1402	0.2542
386.347	0.2654
386.5539	0.2675
386.7608	0.2818
386.9676	0.2457
387.1744	0.2546
387.3813	0.2532
387.5881	0.2666
387.7948	0.2666
388.0016	0.2598
388.2084	0.2638
388.4151	0.2341
388.6219	0.268
388.8286	0.2508
389.0353	0.2846
389.242	0.2526
389.4487	0.2402
389.6553	0.2336
389.862	0.2341
390.0686	0.2433
390.2753	0.2364
390.4819	0.253
390.6885	0.2515
390.8951	0.2423
391.1016	0.2469
391.3082	0.2426
391.5147	0.2452
391.7213	0.2452
391.9278	0.2368
392.1343	0.232
392.3408	0.2426
392.5473	0.241
392.7537	0.2155
392.9602	0.2324
393.1666	0.2398
393.373	0.2405
393.5794	0.2528
393.7858	0.2311
393.9922	0.2152
394.1986	0.2246
394.4049	0.2491
394.6113	0.2276
394.8176	0.2316
395.0239	0.2254
395.2302	0.2171
395.4365	0.2232
395.6428	0.2166
395.8491	0.2271
396.0553	0.2165
396.2615	0.2107
396.4678	0.2312
396.674	0.1989
396.8802	0.2004
397.0863	0.2333
397.2925	0.2041
397.4987	0.2231
397.7048	0.232
397.9109	0.2119
398.117	0.205
398.3231	0.2177
398.5292	0.2242
398.7353	0.2264
398.9413	0.2272
399.1474	0.2066
399.3534	0.1974
399.5594	0.209
399.7654	0.2368
399.9714	0.2347
400.1774	0.2061
400.3833	0.2123
400.5893	0.2262
400.7952	0.2081
401.0011	0.2124
401.207	0.2208
401.4129	0.2339
401.6188	0.2216
401.8247	0.2173
402.0305	0.2078
402.2364	0.2057
402.4422	0.2354
402.648	0.2368
402.8538	0.2144
403.0596	0.214
403.2654	0.2072
403.4711	0.2265
403.6768	0.2214
403.8826	0.2275
404.0883	0.223
404.294	0.214
404.4997	0.214
404.7054	0.2226
404.911	0.1956
405.1167	0.2164
405.3223	0.2412
405.5279	0.2262
405.7335	0.2354
405.9391	0.2133
406.1447	0.2119
406.3502	0.2327
406.5558	0.2118
406.7613	0.2263
406.9668	0.2151
407.1724	0.2106
407.3778	0.2063
407.5833	0.2199
407.7888	0.1895
407.9942	0.2394
408.1997	0.2155
408.4051	0.2073
408.6105	0.2146
408.8159	0.2117
409.0213	0.2056
409.2267	0.2059
409.432	0.2091
409.6374	0.2259
409.8427	0.2264
410.048	0.2301
410.2533	0.2133
410.4586	0.2104
410.6639	0.2144
410.8691	0.2198
411.0744	0.203
411.2796	0.1823
411.4848	0.2335
411.69	0.2079
411.8952	0.2477
412.1004	0.1836
412.3056	0.214
412.5107	0.1971
412.7158	0.2326
412.921	0.2066
413.1261	0.1957
413.3312	0.2014
413.5362	0.2133
413.7413	0.1918
413.9464	0.2156
414.1514	0.2087
414.3564	0.2014
414.5614	0.2031
414.7664	0.2051
414.9714	0.1993
415.1764	0.2246
415.3813	0.2167
415.5863	0.2061
415.7912	0.2096
415.9961	0.2109
416.201	0.2045
416.4059	0.2276
416.6108	0.1878
416.8156	0.2099
417.0205	0.2024
417.2253	0.183
417.4301	0.2262
417.6349	0.2123
417.8397	0.2011
418.0445	0.2182
418.2492	0.2121
418.454	0.2151
418.6587	0.2061
418.8634	0.2017
419.0681	0.1903
419.2728	0.194
419.4775	0.1997
419.6822	0.2082
419.8868	0.1871
420.0915	0.2072
420.2961	0.1781
420.5007	0.183
420.7053	0.1976
420.9099	0.1966
421.1144	0.2112
421.319	0.2044
421.5235	0.207
421.728	0.1999
421.9325	0.1898
422.137	0.2027
422.3415	0.1795
422.546	0.196
422.7504	0.1851
422.9549	0.1873
423.1593	0.1932
423.3637	0.2059
423.5681	0.1855
423.7725	0.1693
423.9769	0.177
424.1812	0.1879
424.3856	0.1699
424.5899	0.1864
424.7942	0.1563
424.9985	0.1775
425.2028	0.1937
425.4071	0.2074
425.6113	0.1599
425.8156	0.1796
426.0198	0.1771
426.224	0.1656
426.4282	0.172
