Data from MonoPyChalIsomerACN10uM380nmA_Absorbance_13-38-32-849.txt Node
Date: Fri Jul 05 13:38:32 BST 2024
User: LASERRRRR
Spectrometer: FLMT03099
Trigger mode: 0
Integration Time (sec): 1.000000E-1
Scans to average: 1
Electric dark correction enabled: true
Nonlinearity correction enabled: false
Boxcar width: 0
XAxis mode: Wavelengths
Number of Pixels in Spectrum: 3648
>>>>>Begin Spectral Data<<<<<
179.3399	0.9728
179.5586	0.9728
179.7771	0.9728
179.9957	0.1577
180.2143	-0
180.4329	-0
180.6514	-0
180.8699	-0
181.0885	-0.0663
181.307	-0.1853
181.5255	-0
181.744	-0
181.9625	-0.4059
182.181	-0
182.3994	-0
182.6179	-0
182.8363	-0.131
183.0547	0.1375
183.2732	0.1034
183.4916	0.0768
183.71	0.0156
183.9284	0.4296
184.1467	-0.1797
184.3651	-0.0236
184.5835	-0.1284
184.8018	-0.0061
185.0201	0.2079
185.2385	0.0151
185.4568	-0.1008
185.6751	0.2934
185.8934	0.2476
186.1117	0.0727
186.3299	0.1354
186.5482	0.094
186.7664	-0.1093
186.9847	-0.1262
187.2029	0.0063
187.4211	0.1192
187.6393	0.0499
187.8575	-0.0664
188.0757	0.4669
188.2939	0.0274
188.512	0.4273
188.7302	0.2051
188.9483	0.0912
189.1665	0.1306
189.3846	-0.0922
189.6027	0.2668
189.8208	0.1658
190.0389	0.1858
190.257	0.2046
190.475	0.1705
190.6931	0.1266
190.9111	0.2831
191.1292	0.2485
191.3472	0.6593
191.5652	0.263
191.7832	0.3446
192.0012	0.5794
192.2192	0.3633
192.4371	0.7924
192.6551	0.4291
192.873	0.3263
193.091	0.3218
193.3089	0.3875
193.5268	0.6459
193.7447	0.5196
193.9626	0.5192
194.1805	0.5345
194.3984	0.8117
194.6162	0.6305
194.8341	0.7407
195.0519	0.545
195.2697	0.685
195.4875	0.9069
195.7054	0.7365
195.9231	0.5931
196.1409	0.739
196.3587	0.6857
196.5765	0.7507
196.7942	0.7591
197.012	0.6505
197.2297	0.5944
197.4474	0.9158
197.6651	0.733
197.8828	0.7498
198.1005	1.1094
198.3182	0.7565
198.5358	1.1407
198.7535	0.7449
198.9711	0.6029
199.1888	0.8133
199.4064	0.9758
199.624	0.7779
199.8416	0.7917
200.0592	0.9442
200.2767	0.7626
200.4943	0.714
200.7119	0.9847
200.9294	0.8874
201.1469	0.641
201.3645	0.6786
201.582	0.6768
201.7995	0.695
202.017	0.7593
202.2344	0.738
202.4519	1.0136
202.6694	0.6649
202.8868	0.6915
203.1042	0.8976
203.3217	0.9859
203.5391	0.7977
203.7565	0.7451
203.9739	0.8318
204.1913	0.8025
204.4086	0.8458
204.626	0.8822
204.8433	0.7314
205.0607	0.777
205.278	0.8522
205.4953	0.7814
205.7126	0.7364
205.9299	1.0595
206.1472	0.9032
206.3644	0.9045
206.5817	0.8733
206.7989	0.9298
207.0162	0.7707
207.2334	0.9292
207.4506	0.9701
207.6678	0.7329
207.885	0.8381
208.1022	0.8301
208.3194	0.8875
208.5365	0.8148
208.7537	0.8193
208.9708	0.6928
209.1879	0.8739
209.405	0.8453
209.6222	0.9743
209.8392	0.7948
210.0563	0.6888
210.2734	0.7887
210.4905	0.86
210.7075	0.8582
210.9245	0.7219
211.1416	0.9319
211.3586	0.7758
211.5756	0.7099
211.7926	0.8705
212.0096	0.8071
212.2265	0.72
212.4435	0.7291
212.6604	0.7528
212.8774	0.7435
213.0943	0.8235
213.3112	0.7205
213.5281	0.7366
213.745	0.7456
213.9619	0.7157
214.1788	0.6624
214.3956	0.6998
214.6125	0.6634
214.8293	0.6532
215.0461	0.664
215.2629	0.6897
215.4798	0.7462
215.6965	0.6106
215.9133	0.6739
216.1301	0.655
216.3469	0.6849
216.5636	0.6296
216.7803	0.5934
216.9971	0.6489
217.2138	0.5728
217.4305	0.6086
217.6472	0.5988
217.8639	0.6318
218.0805	0.6393
218.2972	0.5548
218.5138	0.5671
218.7305	0.5421
218.9471	0.5682
219.1637	0.5822
219.3803	0.5802
219.5969	0.5487
219.8135	0.5021
220.0301	0.547
220.2466	0.5435
220.4632	0.5442
220.6797	0.4778
220.8962	0.5157
221.1127	0.5468
221.3292	0.5178
221.5457	0.5451
221.7622	0.4934
221.9787	0.5322
222.1951	0.4938
222.4116	0.5141
222.628	0.5086
222.8444	0.5071
223.0608	0.5275
223.2772	0.5096
223.4936	0.544
223.71	0.5202
223.9264	0.5422
224.1427	0.5085
224.3591	0.5255
224.5754	0.542
224.7917	0.5315
225.008	0.5259
225.2243	0.5115
225.4406	0.5597
225.6569	0.5639
225.8732	0.4931
226.0894	0.5357
226.3057	0.5257
226.5219	0.5408
226.7381	0.5076
226.9543	0.531
227.1705	0.5533
227.3867	0.5422
227.6029	0.5528
227.8191	0.4952
228.0352	0.5591
228.2513	0.5545
228.4675	0.5398
228.6836	0.5676
228.8997	0.5409
229.1158	0.5528
229.3319	0.548
229.548	0.5571
229.764	0.5699
229.9801	0.5541
230.1961	0.556
230.4121	0.5732
230.6282	0.5477
230.8442	0.5309
231.0602	0.5486
231.2761	0.5516
231.4921	0.5856
231.7081	0.5561
231.924	0.5244
232.14	0.5863
232.3559	0.5278
232.5718	0.5694
232.7877	0.5747
233.0036	0.5529
233.2195	0.5476
233.4353	0.5461
233.6512	0.5445
233.867	0.534
234.0829	0.5596
234.2987	0.5755
234.5145	0.5446
234.7303	0.5606
234.9461	0.5849
235.1619	0.5521
235.3776	0.5456
235.5934	0.5755
235.8091	0.5311
236.0249	0.5463
236.2406	0.5394
236.4563	0.5492
236.672	0.5558
236.8877	0.5458
237.1034	0.5474
237.319	0.5284
237.5347	0.5423
237.7503	0.5322
237.966	0.548
238.1816	0.5376
238.3972	0.5181
238.6128	0.5206
238.8284	0.5423
239.0439	0.531
239.2595	0.5241
239.475	0.5342
239.6906	0.5283
239.9061	0.5245
240.1216	0.5236
240.3371	0.5222
240.5526	0.5208
240.7681	0.5097
240.9836	0.492
241.199	0.5221
241.4145	0.5048
241.6299	0.4894
241.8453	0.5035
242.0607	0.481
242.2761	0.4633
242.4915	0.4784
242.7069	0.4707
242.9223	0.4396
243.1376	0.426
243.353	0.4335
243.5683	0.4463
243.7836	0.4231
243.9989	0.4451
244.2142	0.3954
244.4295	0.4069
244.6448	0.3897
244.86	0.3768
245.0753	0.3757
245.2905	0.3784
245.5057	0.3568
245.721	0.3506
245.9362	0.3532
246.1514	0.3525
246.3665	0.3384
246.5817	0.3412
246.7969	0.3174
247.012	0.2919
247.2271	0.3078
247.4423	0.3164
247.6574	0.3074
247.8725	0.2953
248.0876	0.2656
248.3026	0.2905
248.5177	0.2732
248.7328	0.2686
248.9478	0.2664
249.1628	0.2592
249.3779	0.2701
249.5929	0.2476
249.8079	0.2662
250.0228	0.253
250.2378	0.2515
250.4528	0.2558
250.6677	0.2291
250.8827	0.2394
251.0976	0.2391
251.3125	0.238
251.5274	0.2244
251.7423	0.2214
251.9572	0.2209
252.172	0.2115
252.3869	0.2225
252.6017	0.2054
252.8166	0.2015
253.0314	0.2053
253.2462	0.2058
253.461	0.2141
253.6758	0.2026
253.8906	0.2139
254.1053	0.2074
254.3201	0.2082
254.5348	0.2202
254.7496	0.2127
254.9643	0.197
255.179	0.198
255.3937	0.19
255.6083	0.1998
255.823	0.2012
256.0377	0.1838
256.2523	0.1872
256.467	0.1826
256.6816	0.1944
256.8962	0.1858
257.1108	0.1772
257.3254	0.1925
257.54	0.195
257.7545	0.2015
257.9691	0.197
258.1836	0.1847
258.3981	0.1833
258.6127	0.1911
258.8272	0.1944
259.0417	0.1896
259.2561	0.1791
259.4706	0.191
259.6851	0.1876
259.8995	0.1954
260.114	0.1902
260.3284	0.1923
260.5428	0.1769
260.7572	0.1942
260.9716	0.1843
261.186	0.1857
261.4003	0.1708
261.6147	0.1906
261.829	0.1894
262.0433	0.1903
262.2577	0.1808
262.472	0.1819
262.6863	0.182
262.9005	0.1924
263.1148	0.1819
263.3291	0.1598
263.5433	0.1865
263.7576	0.1829
263.9718	0.1907
264.186	0.2021
264.4002	0.1816
264.6144	0.1842
264.8286	0.1939
265.0427	0.1812
265.2569	0.1783
265.471	0.168
265.6851	0.1862
265.8993	0.1849
266.1134	0.1811
266.3275	0.1859
266.5415	0.1742
266.7556	0.1924
266.9697	0.1804
267.1837	0.1796
267.3978	0.1749
267.6118	0.1927
267.8258	0.2084
268.0398	0.1713
268.2538	0.197
268.4677	0.1847
268.6817	0.196
268.8957	0.189
269.1096	0.1767
269.3235	0.1846
269.5374	0.177
269.7514	0.1688
269.9652	0.1776
270.1791	0.1738
270.393	0.1818
270.6068	0.1743
270.8207	0.174
271.0345	0.1737
271.2483	0.1765
271.4622	0.165
271.676	0.1822
271.8897	0.1681
272.1035	0.1731
272.3173	0.1599
272.531	0.1682
272.7448	0.1805
272.9585	0.1577
273.1722	0.1643
273.3859	0.1813
273.5996	0.1646
273.8133	0.1736
274.0269	0.168
274.2406	0.1541
274.4542	0.1803
274.6679	0.1614
274.8815	0.159
275.0951	0.176
275.3087	0.1848
275.5223	0.1814
275.7358	0.1831
275.9494	0.1784
276.1629	0.1678
276.3765	0.176
276.59	0.1835
276.8035	0.1888
277.017	0.1651
277.2305	0.1706
277.444	0.1813
277.6574	0.1722
277.8709	0.1908
278.0843	0.1691
278.2978	0.1647
278.5112	0.1727
278.7246	0.1611
278.938	0.1776
279.1513	0.177
279.3647	0.179
279.5781	0.1606
279.7914	0.1803
280.0047	0.1877
280.2181	0.168
280.4314	0.18
280.6447	0.1767
280.8579	0.1802
281.0712	0.1745
281.2845	0.1909
281.4977	0.1807
281.711	0.1683
281.9242	0.1764
282.1374	0.1846
282.3506	0.177
282.5638	0.1749
282.7769	0.1749
282.9901	0.1737
283.2033	0.1845
283.4164	0.1798
283.6295	0.1694
283.8426	0.1775
284.0557	0.1825
284.2688	0.1824
284.4819	0.1818
284.695	0.1884
284.908	0.1867
285.1211	0.1778
285.3341	0.1819
285.5471	0.1859
285.7601	0.1847
285.9731	0.1638
286.1861	0.1674
286.3991	0.1897
286.612	0.1838
286.825	0.1797
287.0379	0.187
287.2508	0.1881
287.4637	0.1775
287.6766	0.1816
287.8895	0.1954
288.1024	0.1885
288.3152	0.1738
288.5281	0.1791
288.7409	0.1802
288.9538	0.1758
289.1666	0.1771
289.3794	0.1725
289.5922	0.1646
289.8049	0.175
290.0177	0.1788
290.2304	0.1664
290.4432	0.1817
290.6559	0.1716
290.8686	0.1765
291.0813	0.1704
291.294	0.1746
291.5067	0.1727
291.7194	0.1782
291.932	0.1744
292.1447	0.1785
292.3573	0.1709
292.5699	0.1699
292.7825	0.1749
292.9951	0.1708
293.2077	0.1675
293.4203	0.1808
293.6328	0.1532
293.8454	0.1753
294.0579	0.1538
294.2704	0.1708
294.4829	0.166
294.6954	0.1772
294.9079	0.1718
295.1204	0.1727
295.3328	0.1704
295.5453	0.164
295.7577	0.177
295.9701	0.1606
296.1825	0.1642
296.3949	0.1603
296.6073	0.1563
296.8197	0.16
297.0321	0.1701
297.2444	0.1621
297.4567	0.1721
297.6691	0.1652
297.8814	0.1628
298.0937	0.1606
298.306	0.169
298.5182	0.1539
298.7305	0.1796
298.9428	0.1666
299.155	0.174
299.3672	0.1598
299.5794	0.1652
299.7916	0.1605
300.0038	0.176
300.216	0.1679
300.4282	0.1707
300.6403	0.17
300.8525	0.1635
301.0646	0.1539
301.2767	0.167
301.4888	0.159
301.7009	0.1593
301.913	0.1688
302.125	0.18
302.3371	0.1587
302.5491	0.1619
302.7612	0.1666
302.9732	0.1627
303.1852	0.1677
303.3972	0.1607
303.6092	0.1647
303.8211	0.1583
304.0331	0.1583
304.245	0.1609
304.457	0.1478
304.6689	0.154
304.8808	0.1659
305.0927	0.1443
305.3046	0.1479
305.5164	0.1587
305.7283	0.1494
305.9401	0.146
306.152	0.1508
306.3638	0.1542
306.5756	0.1412
306.7874	0.1448
306.9992	0.1541
307.2109	0.1425
307.4227	0.1316
307.6344	0.1355
307.8462	0.1412
308.0579	0.1327
308.2696	0.1398
308.4813	0.1301
308.693	0.1394
308.9046	0.1402
309.1163	0.1322
309.328	0.1273
309.5396	0.1241
309.7512	0.1241
309.9628	0.1217
310.1744	0.1232
310.386	0.1237
310.5976	0.126
310.8091	0.1163
311.0207	0.1118
311.2322	0.1347
311.4437	0.113
311.6552	0.1154
311.8667	0.1204
312.0782	0.1006
312.2897	0.1068
312.5012	0.1221
312.7126	0.0992
312.924	0.1008
313.1355	0.1173
313.3469	0.1132
313.5583	0.1197
313.7696	0.0994
313.981	0.1095
314.1924	0.1062
314.4037	0.1128
314.6151	0.1206
314.8264	0.1
315.0377	0.1032
315.249	0.1065
315.4603	0.11
315.6716	0.0997
315.8828	0.0985
316.0941	0.1048
316.3053	0.0996
316.5165	0.1045
316.7277	0.0994
316.9389	0.1017
317.1501	0.1031
317.3613	0.112
317.5724	0.0983
317.7836	0.1128
317.9947	0.1134
318.2058	0.1084
318.417	0.0949
318.6281	0.0973
318.8391	0.0944
319.0502	0.1029
319.2613	0.1067
319.4723	0.1136
319.6834	0.1075
319.8944	0.1053
320.1054	0.1001
320.3164	0.1049
320.5274	0.1033
320.7383	0.0916
320.9493	0.0968
321.1602	0.1185
321.3712	0.0942
321.5821	0.1117
321.793	0.1115
322.0039	0.1025
322.2148	0.0973
322.4257	0.109
322.6365	0.1238
322.8474	0.1095
323.0582	0.1038
323.269	0.1194
323.4798	0.1137
323.6906	0.1116
323.9014	0.1035
324.1122	0.1132
324.3229	0.0977
324.5337	0.1131
324.7444	0.1082
324.9551	0.1201
325.1658	0.1039
325.3765	0.1142
325.5872	0.1026
325.7979	0.097
326.0085	0.1067
326.2192	0.1119
326.4298	0.1153
326.6404	0.0967
326.851	0.1116
327.0616	0.102
327.2722	0.1071
327.4828	0.1255
327.6933	0.1099
327.9039	0.1123
328.1144	0.1267
328.3249	0.1153
328.5354	0.1019
328.7459	0.112
328.9564	0.103
329.1669	0.1119
329.3773	0.1089
329.5878	0.1163
329.7982	0.1071
330.0086	0.1098
330.219	0.1163
330.4294	0.1084
330.6398	0.1128
330.8502	0.0973
331.0605	0.1111
331.2708	0.1128
331.4812	0.1143
331.6915	0.1112
331.9018	0.1193
332.1121	0.1166
332.3224	0.107
332.5326	0.1196
332.7429	0.1068
332.9531	0.1323
333.1633	0.116
333.3735	0.1068
333.5837	0.1099
333.7939	0.0999
334.0041	0.1176
334.2143	0.1091
334.4244	0.11
334.6346	0.0982
334.8447	0.1271
335.0548	0.1092
335.2649	0.1164
335.475	0.1124
335.685	0.1046
335.8951	0.1174
336.1051	0.1138
336.3152	0.1189
336.5252	0.1094
336.7352	0.1257
336.9452	0.1249
337.1552	0.1164
337.3652	0.1132
337.5751	0.1129
337.7851	0.1174
337.995	0.0976
338.2049	0.1206
338.4148	0.1184
338.6247	0.1249
338.8346	0.1137
339.0445	0.1093
339.2543	0.1115
339.4642	0.1189
339.674	0.1168
339.8838	0.1154
340.0936	0.1191
340.3034	0.1317
340.5132	0.1255
340.7229	0.1255
340.9327	0.1252
341.1424	0.1103
341.3522	0.1444
341.5619	0.1255
341.7716	0.1293
341.9813	0.1265
342.1909	0.1167
342.4006	0.135
342.6102	0.1413
342.8199	0.1222
343.0295	0.1257
343.2391	0.127
343.4487	0.137
343.6583	0.1256
343.8679	0.1248
344.0774	0.1271
344.287	0.1346
344.4965	0.1139
344.706	0.1308
344.9155	0.1305
345.125	0.121
345.3345	0.1319
345.544	0.1275
345.7534	0.1296
345.9629	0.1299
346.1723	0.133
346.3817	0.1271
346.5911	0.1153
346.8005	0.1393
347.0099	0.1326
347.2193	0.1372
347.4286	0.1322
347.638	0.1389
347.8473	0.1363
348.0566	0.1314
348.2659	0.1435
348.4752	0.1373
348.6845	0.1339
348.8937	0.1406
349.103	0.1433
349.3122	0.1263
349.5214	0.1315
349.7306	0.1576
349.9398	0.1298
350.149	0.148
350.3582	0.1351
350.5674	0.1483
350.7765	0.1386
350.9856	0.144
351.1948	0.1437
351.4039	0.1337
351.613	0.1422
351.822	0.1488
352.0311	0.1487
352.2402	0.1429
352.4492	0.1393
352.6582	0.1554
352.8672	0.1393
353.0762	0.1456
353.2852	0.148
353.4942	0.128
353.7032	0.1577
353.9121	0.1509
354.1211	0.1553
354.33	0.141
354.5389	0.1466
354.7478	0.1521
354.9567	0.1555
355.1655	0.1354
355.3744	0.1557
355.5833	0.1601
355.7921	0.1753
356.0009	0.1622
356.2097	0.1704
356.4185	0.1724
356.6273	0.1559
356.8361	0.17
357.0448	0.1518
357.2536	0.1493
357.4623	0.1443
357.671	0.1613
357.8797	0.1774
358.0884	0.1651
358.2971	0.1589
358.5057	0.167
358.7144	0.167
358.923	0.1627
359.1316	0.1751
359.3402	0.1661
359.5488	0.1649
359.7574	0.1594
359.966	0.1585
360.1746	0.1655
360.3831	0.1833
360.5916	0.1726
360.8002	0.1692
361.0087	0.2008
361.2172	0.1679
361.4256	0.1764
361.6341	0.1824
361.8426	0.1855
362.051	0.1628
362.2594	0.174
362.4678	0.1525
362.6762	0.1887
362.8846	0.174
363.093	0.1881
363.3014	0.1656
363.5097	0.1601
363.718	0.1735
363.9264	0.1756
364.1347	0.1799
364.343	0.1956
364.5513	0.1877
364.7595	0.1838
364.9678	0.1772
365.176	0.1925
365.3842	0.187
365.5925	0.1996
365.8007	0.1825
366.0089	0.1919
366.217	0.1705
366.4252	0.2009
366.6333	0.2178
366.8415	0.1993
367.0496	0.1854
367.2577	0.2177
367.4658	0.213
367.6739	0.2024
367.882	0.2015
368.09	0.1975
368.2981	0.1951
368.5061	0.1753
368.7141	0.1874
368.9221	0.2136
369.1301	0.2054
369.3381	0.1886
369.5461	0.2016
369.754	0.2031
369.962	0.208
370.1699	0.2042
370.3778	0.2124
370.5857	0.1922
370.7936	0.2069
371.0015	0.1913
371.2093	0.211
371.4172	0.2173
371.625	0.2048
371.8328	0.2031
372.0406	0.1965
372.2484	0.2193
372.4562	0.2181
372.664	0.2001
372.8717	0.2073
373.0795	0.1963
373.2872	0.2099
373.4949	0.2065
373.7026	0.2155
373.9103	0.2216
374.118	0.2205
374.3256	0.2174
374.5333	0.2151
374.7409	0.2093
374.9485	0.2329
375.1561	0.2161
375.3637	0.2158
375.5713	0.2316
375.7789	0.2184
375.9864	0.213
376.194	0.2269
376.4015	0.2285
376.609	0.2239
376.8165	0.2273
377.024	0.2199
377.2315	0.2265
377.4389	0.2176
377.6464	0.2217
377.8538	0.2322
378.0612	0.2218
378.2686	0.2251
378.476	0.2369
378.6834	0.2259
378.8908	0.2318
379.0981	0.2247
379.3055	0.232
379.5128	0.2214
379.7201	0.2386
379.9274	0.2139
380.1347	0.2312
380.342	0.2338
380.5492	0.2157
380.7565	0.2389
380.9637	0.2354
381.1709	0.2357
381.3781	0.2417
381.5853	0.2238
381.7925	0.2345
381.9997	0.2352
382.2068	0.2475
382.4139	0.2351
382.6211	0.2305
382.8282	0.2456
383.0353	0.2495
383.2424	0.2262
383.4494	0.2442
383.6565	0.2194
383.8635	0.252
384.0706	0.2196
384.2776	0.2429
384.4846	0.209
384.6916	0.227
384.8986	0.2206
385.1055	0.2402
385.3125	0.2277
385.5194	0.2086
385.7263	0.2462
385.9333	0.2441
386.1402	0.2419
386.347	0.2352
386.5539	0.2291
386.7608	0.2346
386.9676	0.2254
387.1744	0.2394
387.3813	0.2152
387.5881	0.2408
387.7948	0.2301
388.0016	0.2173
388.2084	0.2304
388.4151	0.2185
388.6219	0.2263
388.8286	0.2368
389.0353	0.2426
389.242	0.2359
389.4487	0.2331
389.6553	0.2275
389.862	0.1891
390.0686	0.2344
390.2753	0.2269
390.4819	0.2306
390.6885	0.2125
390.8951	0.2193
391.1016	0.2117
391.3082	0.2153
391.5147	0.2284
391.7213	0.2295
391.9278	0.2022
392.1343	0.2159
392.3408	0.2185
392.5473	0.215
392.7537	0.2089
392.9602	0.2058
393.1666	0.1982
393.373	0.205
393.5794	0.2187
393.7858	0.2123
393.9922	0.1903
394.1986	0.2051
394.4049	0.2188
394.6113	0.2097
394.8176	0.1994
395.0239	0.2028
395.2302	0.189
395.4365	0.2079
395.6428	0.2
395.8491	0.2018
396.0553	0.2043
396.2615	0.1957
396.4678	0.1836
396.674	0.1853
396.8802	0.1915
397.0863	0.2219
397.2925	0.1921
397.4987	0.196
397.7048	0.1885
397.9109	0.2055
398.117	0.1777
398.3231	0.1974
398.5292	0.1979
398.7353	0.1992
398.9413	0.1904
399.1474	0.1919
399.3534	0.1734
399.5594	0.1847
399.7654	0.2083
399.9714	0.2013
400.1774	0.1838
400.3833	0.1961
400.5893	0.1949
400.7952	0.1933
401.0011	0.1929
401.207	0.2039
401.4129	0.2018
401.6188	0.1959
401.8247	0.1994
402.0305	0.1974
402.2364	0.1764
402.4422	0.2066
402.648	0.1953
402.8538	0.2045
403.0596	0.1933
403.2654	0.1918
403.4711	0.1876
403.6768	0.2126
403.8826	0.2016
404.0883	0.2058
404.294	0.2009
404.4997	0.1841
404.7054	0.1931
404.911	0.1907
405.1167	0.1959
405.3223	0.2072
405.5279	0.2088
405.7335	0.1995
405.9391	0.2013
406.1447	0.1986
406.3502	0.1966
406.5558	0.1964
406.7613	0.1988
406.9668	0.2017
407.1724	0.1956
407.3778	0.1829
407.5833	0.186
407.7888	0.1792
407.9942	0.2031
408.1997	0.1905
408.4051	0.1899
408.6105	0.1985
408.8159	0.1855
409.0213	0.1817
409.2267	0.2034
409.432	0.1946
409.6374	0.1961
409.8427	0.2007
410.048	0.1876
410.2533	0.1868
410.4586	0.1927
410.6639	0.1707
410.8691	0.1838
411.0744	0.1795
411.2796	0.1882
411.4848	0.1748
411.69	0.1815
411.8952	0.1928
412.1004	0.176
412.3056	0.2044
412.5107	0.1707
412.7158	0.2078
412.921	0.175
413.1261	0.1983
413.3312	0.1741
413.5362	0.1754
413.7413	0.1746
413.9464	0.1825
414.1514	0.1788
414.3564	0.1942
414.5614	0.1649
414.7664	0.1767
414.9714	0.19
415.1764	0.1996
415.3813	0.1855
415.5863	0.1903
415.7912	0.1824
415.9961	0.1689
416.201	0.1882
416.4059	0.1995
416.6108	0.1727
416.8156	0.1981
417.0205	0.181
417.2253	0.1885
417.4301	0.1939
417.6349	0.1718
417.8397	0.1835
418.0445	0.1994
418.2492	0.1836
418.454	0.1882
418.6587	0.1702
418.8634	0.1913
419.0681	0.1671
419.2728	0.1755
419.4775	0.1546
419.6822	0.1746
419.8868	0.1596
420.0915	0.1749
420.2961	0.1636
420.5007	0.1639
420.7053	0.1667
420.9099	0.1799
421.1144	0.1776
421.319	0.1687
421.5235	0.1742
421.728	0.1687
421.9325	0.1707
422.137	0.1747
422.3415	0.1804
422.546	0.1682
422.7504	0.1792
422.9549	0.1713
423.1593	0.1801
423.3637	0.1558
423.5681	0.1665
423.7725	0.1505
423.9769	0.1584
424.1812	0.1567
424.3856	0.1565
424.5899	0.1624
424.7942	0.1598
424.9985	0.1609
425.2028	0.1631
425.4071	0.1731
425.6113	0.1459
425.8156	0.154
426.0198	0.1592
426.224	0.1381
426.4282	0.1579
426.6324	0.1496
426.8366	0.1393
