Data from MonoPyChalIsomerACN10uM380nmA_Absorbance_13-38-30-349.txt Node
Date: Fri Jul 05 13:38:30 BST 2024
User: LASERRRRR
Spectrometer: FLMT03099
Trigger mode: 0
Integration Time (sec): 1.000000E-1
Scans to average: 1
Electric dark correction enabled: true
Nonlinearity correction enabled: false
Boxcar width: 0
XAxis mode: Wavelengths
Number of Pixels in Spectrum: 3648
>>>>>Begin Spectral Data<<<<<
179.3399	-0.1019
179.5586	-0.1019
179.7771	-0.1019
179.9957	-0.1753
180.2143	-0.1388
180.4329	0.0519
180.6514	-0
180.8699	0.2617
181.0885	-0
181.307	0.0917
181.5255	0.9777
181.744	0.6128
181.9625	-0
182.181	-0
182.3994	0.2225
182.6179	1.3757
182.8363	0.4267
183.0547	0.0787
183.2732	0.0831
183.4916	0.1702
183.71	0.1465
183.9284	0.1991
184.1467	-0.0519
184.3651	0.0549
184.5835	0.0519
184.8018	0.7568
185.0201	0.1625
185.2385	0.0363
185.4568	0.1769
185.6751	0.1572
185.8934	0.113
186.1117	0.1824
186.3299	0.0334
186.5482	0.2216
186.7664	0.1005
186.9847	-0.0563
187.2029	0.106
187.4211	-0.0369
187.6393	0.2395
187.8575	0.0172
188.0757	0.2882
188.2939	0.1752
188.512	-0.0013
188.7302	0.1771
188.9483	-0.0975
189.1665	-0.0005
189.3846	0.0107
189.6027	0.0134
189.8208	0.1613
190.0389	0.1155
190.257	0.1678
190.475	0.4944
190.6931	0.5795
190.9111	0.2506
191.1292	0.2109
191.3472	0.4116
191.5652	0.2363
191.7832	0.201
192.0012	0.902
192.2192	0.3286
192.4371	0.5803
192.6551	0.4573
192.873	0.4908
193.091	0.4827
193.3089	0.5809
193.5268	0.7082
193.7447	0.5957
193.9626	0.5117
194.1805	0.652
194.3984	0.8555
194.6162	0.8308
194.8341	0.6191
195.0519	0.6973
195.2697	0.6433
195.4875	0.7153
195.7054	0.7081
195.9231	0.6814
196.1409	0.7095
196.3587	0.7672
196.5765	0.8404
196.7942	0.6945
197.012	0.6187
197.2297	0.6262
197.4474	0.8522
197.6651	0.8193
197.8828	0.8141
198.1005	0.8272
198.3182	0.835
198.5358	0.8782
198.7535	0.7317
198.9711	0.6866
199.1888	0.7824
199.4064	1.1821
199.624	0.6554
199.8416	0.7297
200.0592	0.6469
200.2767	0.8539
200.4943	0.8495
200.7119	0.7367
200.9294	0.8015
201.1469	0.7547
201.3645	0.7948
201.582	0.7272
201.7995	0.8988
202.017	0.801
202.2344	0.832
202.4519	0.8224
202.6694	0.8486
202.8868	0.6731
203.1042	1.0952
203.3217	0.9965
203.5391	0.8336
203.7565	0.7023
203.9739	0.924
204.1913	0.7248
204.4086	0.8819
204.626	0.8317
204.8433	0.7312
205.0607	0.774
205.278	0.7388
205.4953	1.0533
205.7126	0.7697
205.9299	0.8562
206.1472	0.8233
206.3644	0.7427
206.5817	0.8667
206.7989	0.799
207.0162	0.7106
207.2334	0.883
207.4506	0.7894
207.6678	0.891
207.885	0.7478
208.1022	0.8958
208.3194	0.8359
208.5365	0.7364
208.7537	0.8009
208.9708	0.7372
209.1879	0.7711
209.405	0.9424
209.6222	0.9637
209.8392	0.8357
210.0563	0.7876
210.2734	0.7865
210.4905	0.7795
210.7075	0.8409
210.9245	0.8075
211.1416	1.0124
211.3586	0.7156
211.5756	0.8287
211.7926	0.795
212.0096	0.7412
212.2265	0.7782
212.4435	0.7258
212.6604	0.8756
212.8774	0.8013
213.0943	0.8125
213.3112	0.7624
213.5281	0.7115
213.745	0.6814
213.9619	0.7808
214.1788	0.6648
214.3956	0.6746
214.6125	0.6456
214.8293	0.686
215.0461	0.7084
215.2629	0.6572
215.4798	0.6658
215.6965	0.6337
215.9133	0.6785
216.1301	0.6728
216.3469	0.656
216.5636	0.6647
216.7803	0.6484
216.9971	0.6659
217.2138	0.6238
217.4305	0.6406
217.6472	0.5883
217.8639	0.6503
218.0805	0.6536
218.2972	0.6097
218.5138	0.5924
218.7305	0.5908
218.9471	0.5729
219.1637	0.5788
219.3803	0.5535
219.5969	0.5305
219.8135	0.5484
220.0301	0.6018
220.2466	0.5674
220.4632	0.5562
220.6797	0.503
220.8962	0.5131
221.1127	0.5206
221.3292	0.5615
221.5457	0.5107
221.7622	0.517
221.9787	0.5182
222.1951	0.5213
222.4116	0.538
222.628	0.5164
222.8444	0.5782
223.0608	0.5446
223.2772	0.5237
223.4936	0.5603
223.71	0.5241
223.9264	0.5587
224.1427	0.5004
224.3591	0.4972
224.5754	0.5112
224.7917	0.526
225.008	0.5654
225.2243	0.5213
225.4406	0.5704
225.6569	0.5395
225.8732	0.5185
226.0894	0.507
226.3057	0.5246
226.5219	0.5337
226.7381	0.5159
226.9543	0.5608
227.1705	0.5528
227.3867	0.5495
227.6029	0.5691
227.8191	0.5576
228.0352	0.5704
228.2513	0.5741
228.4675	0.587
228.6836	0.5819
228.8997	0.5404
229.1158	0.5643
229.3319	0.5603
229.548	0.5561
229.764	0.5533
229.9801	0.5776
230.1961	0.5846
230.4121	0.5584
230.6282	0.5648
230.8442	0.5653
231.0602	0.5693
231.2761	0.577
231.4921	0.5725
231.7081	0.5919
231.924	0.5646
232.14	0.5735
232.3559	0.5407
232.5718	0.5971
232.7877	0.5542
233.0036	0.5668
233.2195	0.5505
233.4353	0.5406
233.6512	0.5598
233.867	0.5729
234.0829	0.5528
234.2987	0.5851
234.5145	0.574
234.7303	0.5605
234.9461	0.5659
235.1619	0.5603
235.3776	0.5572
235.5934	0.5215
235.8091	0.5529
236.0249	0.5408
236.2406	0.542
236.4563	0.5441
236.672	0.5581
236.8877	0.5503
237.1034	0.5374
237.319	0.5328
237.5347	0.5557
237.7503	0.5608
237.966	0.5694
238.1816	0.5566
238.3972	0.5381
238.6128	0.5272
238.8284	0.5488
239.0439	0.5653
239.2595	0.5509
239.475	0.5484
239.6906	0.5302
239.9061	0.5432
240.1216	0.4935
240.3371	0.5488
240.5526	0.4967
240.7681	0.5261
240.9836	0.4964
241.199	0.4849
241.4145	0.4599
241.6299	0.4787
241.8453	0.4722
242.0607	0.4837
242.2761	0.4468
242.4915	0.4471
242.7069	0.4583
242.9223	0.4457
243.1376	0.4462
243.353	0.4364
243.5683	0.4087
243.7836	0.4302
243.9989	0.405
244.2142	0.385
244.4295	0.3954
244.6448	0.3769
244.86	0.3731
245.0753	0.3653
245.2905	0.3654
245.5057	0.3514
245.721	0.3508
245.9362	0.3466
246.1514	0.3512
246.3665	0.3283
246.5817	0.3408
246.7969	0.3187
247.012	0.3193
247.2271	0.3018
247.4423	0.2992
247.6574	0.2943
247.8725	0.2763
248.0876	0.2828
248.3026	0.2747
248.5177	0.2866
248.7328	0.2672
248.9478	0.2659
249.1628	0.2629
249.3779	0.2614
249.5929	0.2498
249.8079	0.2725
250.0228	0.26
250.2378	0.2551
250.4528	0.2537
250.6677	0.2315
250.8827	0.2432
251.0976	0.2297
251.3125	0.2421
251.5274	0.2194
251.7423	0.2279
251.9572	0.2279
252.172	0.2233
252.3869	0.2079
252.6017	0.2099
252.8166	0.1972
253.0314	0.1939
253.2462	0.2067
253.461	0.2185
253.6758	0.2051
253.8906	0.2102
254.1053	0.1938
254.3201	0.2048
254.5348	0.1984
254.7496	0.2064
254.9643	0.1976
255.179	0.2006
255.3937	0.1893
255.6083	0.2003
255.823	0.2026
256.0377	0.1854
256.2523	0.1998
256.467	0.1878
256.6816	0.1999
256.8962	0.1992
257.1108	0.189
257.3254	0.208
257.54	0.1962
257.7545	0.1947
257.9691	0.1959
258.1836	0.1885
258.3981	0.2034
258.6127	0.1989
258.8272	0.1878
259.0417	0.1845
259.2561	0.1822
259.4706	0.1899
259.6851	0.1809
259.8995	0.1778
260.114	0.1844
260.3284	0.1892
260.5428	0.1757
260.7572	0.1826
260.9716	0.1881
261.186	0.1854
261.4003	0.1856
261.6147	0.1885
261.829	0.1835
262.0433	0.1929
262.2577	0.1775
262.472	0.1845
262.6863	0.1807
262.9005	0.1892
263.1148	0.1911
263.3291	0.1849
263.5433	0.1787
263.7576	0.1829
263.9718	0.1842
264.186	0.1798
264.4002	0.1793
264.6144	0.1738
264.8286	0.1854
265.0427	0.1851
265.2569	0.1784
265.471	0.1917
265.6851	0.1655
265.8993	0.1667
266.1134	0.178
266.3275	0.1671
266.5415	0.1748
266.7556	0.1784
266.9697	0.1837
267.1837	0.1911
267.3978	0.1848
267.6118	0.1864
267.8258	0.1907
268.0398	0.1748
268.2538	0.1894
268.4677	0.183
268.6817	0.1644
268.8957	0.1859
269.1096	0.1821
269.3235	0.1922
269.5374	0.1762
269.7514	0.1626
269.9652	0.173
270.1791	0.1759
270.393	0.1705
270.6068	0.188
270.8207	0.1668
271.0345	0.1684
271.2483	0.1838
271.4622	0.1616
271.676	0.1792
271.8897	0.1643
272.1035	0.1604
272.3173	0.158
272.531	0.1691
272.7448	0.173
272.9585	0.1536
273.1722	0.1688
273.3859	0.1745
273.5996	0.1587
273.8133	0.1687
274.0269	0.1644
274.2406	0.1594
274.4542	0.1634
274.6679	0.1608
274.8815	0.1697
275.0951	0.1604
275.3087	0.1723
275.5223	0.1709
275.7358	0.173
275.9494	0.167
276.1629	0.1629
276.3765	0.1609
276.59	0.1711
276.8035	0.162
277.017	0.1689
277.2305	0.1563
277.444	0.1757
277.6574	0.1519
277.8709	0.1618
278.0843	0.1534
278.2978	0.1714
278.5112	0.1576
278.7246	0.1669
278.938	0.1588
279.1513	0.1814
279.3647	0.1795
279.5781	0.1744
279.7914	0.1785
280.0047	0.1817
280.2181	0.1709
280.4314	0.1806
280.6447	0.1735
280.8579	0.1821
281.0712	0.1818
281.2845	0.193
281.4977	0.1762
281.711	0.1714
281.9242	0.1648
282.1374	0.1747
282.3506	0.1741
282.5638	0.1822
282.7769	0.1775
282.9901	0.1738
283.2033	0.1682
283.4164	0.186
283.6295	0.1705
283.8426	0.1596
284.0557	0.1762
284.2688	0.1878
284.4819	0.1768
284.695	0.1732
284.908	0.1802
285.1211	0.1878
285.3341	0.179
285.5471	0.1846
285.7601	0.1774
285.9731	0.1724
286.1861	0.1723
286.3991	0.1954
286.612	0.1866
286.825	0.1871
287.0379	0.1937
287.2508	0.1868
287.4637	0.1788
287.6766	0.1689
287.8895	0.1954
288.1024	0.1984
288.3152	0.1706
288.5281	0.173
288.7409	0.1792
288.9538	0.1824
289.1666	0.1863
289.3794	0.1719
289.5922	0.1759
289.8049	0.1817
290.0177	0.1799
290.2304	0.1837
290.4432	0.1869
290.6559	0.181
290.8686	0.1896
291.0813	0.1834
291.294	0.1808
291.5067	0.1881
291.7194	0.1731
291.932	0.1942
292.1447	0.1758
292.3573	0.1724
292.5699	0.1781
292.7825	0.1774
292.9951	0.1779
293.2077	0.1736
293.4203	0.1865
293.6328	0.1698
293.8454	0.1808
294.0579	0.1763
294.2704	0.1803
294.4829	0.1694
294.6954	0.177
294.9079	0.17
295.1204	0.1787
295.3328	0.1828
295.5453	0.1822
295.7577	0.1753
295.9701	0.1565
296.1825	0.1834
296.3949	0.1713
296.6073	0.1823
296.8197	0.1623
297.0321	0.1821
297.2444	0.1566
297.4567	0.1913
297.6691	0.1709
297.8814	0.1724
298.0937	0.1719
298.306	0.1852
298.5182	0.169
298.7305	0.1843
298.9428	0.1629
299.155	0.1819
299.3672	0.1685
299.5794	0.1677
299.7916	0.1706
300.0038	0.1753
300.216	0.1737
300.4282	0.1756
300.6403	0.1736
300.8525	0.1724
301.0646	0.1683
301.2767	0.1763
301.4888	0.1771
301.7009	0.1736
301.913	0.1714
302.125	0.1781
302.3371	0.1601
302.5491	0.1737
302.7612	0.1844
302.9732	0.1791
303.1852	0.1604
303.3972	0.166
303.6092	0.1686
303.8211	0.1656
304.0331	0.1677
304.245	0.1584
304.457	0.1604
304.6689	0.1643
304.8808	0.1737
305.0927	0.1483
305.3046	0.1565
305.5164	0.162
305.7283	0.1532
305.9401	0.1543
306.152	0.1494
306.3638	0.1624
306.5756	0.1557
306.7874	0.1525
306.9992	0.1495
307.2109	0.1474
307.4227	0.1355
307.6344	0.1436
307.8462	0.1468
308.0579	0.148
308.2696	0.1393
308.4813	0.1445
308.693	0.1439
308.9046	0.145
309.1163	0.1308
309.328	0.1324
309.5396	0.1294
309.7512	0.1313
309.9628	0.1246
310.1744	0.134
310.386	0.1232
310.5976	0.1234
310.8091	0.1233
311.0207	0.1239
311.2322	0.135
311.4437	0.1202
311.6552	0.123
311.8667	0.1167
312.0782	0.1027
312.2897	0.1048
312.5012	0.119
312.7126	0.1086
312.924	0.0933
313.1355	0.116
313.3469	0.1127
313.5583	0.1191
313.7696	0.1116
313.981	0.112
314.1924	0.1085
314.4037	0.1083
314.6151	0.1173
314.8264	0.101
315.0377	0.0958
315.249	0.1037
315.4603	0.1105
315.6716	0.1055
315.8828	0.0907
316.0941	0.1049
316.3053	0.0991
316.5165	0.0903
316.7277	0.099
316.9389	0.1143
317.1501	0.0902
317.3613	0.1141
317.5724	0.0877
317.7836	0.1081
317.9947	0.1016
318.2058	0.0883
318.417	0.088
318.6281	0.0926
318.8391	0.087
319.0502	0.0891
319.2613	0.0856
319.4723	0.1036
319.6834	0.1076
319.8944	0.093
320.1054	0.1063
320.3164	0.1103
320.5274	0.1001
320.7383	0.103
320.9493	0.1013
321.1602	0.1057
321.3712	0.0874
321.5821	0.1125
321.793	0.1054
322.0039	0.1042
322.2148	0.0951
322.4257	0.1019
322.6365	0.1209
322.8474	0.1065
323.0582	0.0936
323.269	0.1089
323.4798	0.1122
323.6906	0.0996
323.9014	0.1057
324.1122	0.1116
324.3229	0.0994
324.5337	0.1007
324.7444	0.0989
324.9551	0.0991
325.1658	0.0998
325.3765	0.1028
325.5872	0.1097
325.7979	0.1075
326.0085	0.1146
326.2192	0.0969
326.4298	0.1026
326.6404	0.0906
326.851	0.1008
327.0616	0.0942
327.2722	0.1054
327.4828	0.1138
327.6933	0.0979
327.9039	0.1182
328.1144	0.1174
328.3249	0.1157
328.5354	0.1008
328.7459	0.1014
328.9564	0.0928
329.1669	0.1027
329.3773	0.1124
329.5878	0.1009
329.7982	0.1011
330.0086	0.0998
330.219	0.1073
330.4294	0.102
330.6398	0.1089
330.8502	0.0976
331.0605	0.1066
331.2708	0.0955
331.4812	0.1103
331.6915	0.1132
331.9018	0.1154
332.1121	0.1093
332.3224	0.1084
332.5326	0.1096
332.7429	0.1034
332.9531	0.1102
333.1633	0.1113
333.3735	0.1096
333.5837	0.0987
333.7939	0.1103
334.0041	0.123
334.2143	0.1184
334.4244	0.1021
334.6346	0.1023
334.8447	0.1135
335.0548	0.1012
335.2649	0.0886
335.475	0.106
335.685	0.1096
335.8951	0.1155
336.1051	0.1232
336.3152	0.1114
336.5252	0.1086
336.7352	0.1013
336.9452	0.1128
337.1552	0.1132
337.3652	0.108
337.5751	0.1036
337.7851	0.1188
337.995	0.0946
338.2049	0.1234
338.4148	0.1149
338.6247	0.1124
338.8346	0.1152
339.0445	0.0947
339.2543	0.1182
339.4642	0.1126
339.674	0.0968
339.8838	0.1073
340.0936	0.1145
340.3034	0.1204
340.5132	0.124
340.7229	0.1238
340.9327	0.1077
341.1424	0.1136
341.3522	0.1334
341.5619	0.118
341.7716	0.1203
341.9813	0.1198
342.1909	0.1195
342.4006	0.1304
342.6102	0.1292
342.8199	0.1138
343.0295	0.1162
343.2391	0.1163
343.4487	0.1306
343.6583	0.1134
343.8679	0.124
344.0774	0.1286
344.287	0.1205
344.4965	0.1279
344.706	0.1258
344.9155	0.1269
345.125	0.1313
345.3345	0.1245
345.544	0.1256
345.7534	0.128
345.9629	0.1275
346.1723	0.1273
346.3817	0.1166
346.5911	0.1315
346.8005	0.1391
347.0099	0.125
347.2193	0.1406
347.4286	0.1252
347.638	0.1308
347.8473	0.1383
348.0566	0.1418
348.2659	0.1298
348.4752	0.1234
348.6845	0.1277
348.8937	0.1348
349.103	0.1474
349.3122	0.1299
349.5214	0.1332
349.7306	0.1337
349.9398	0.1357
350.149	0.149
350.3582	0.1387
350.5674	0.1431
350.7765	0.1371
350.9856	0.1332
351.1948	0.1406
351.4039	0.1169
351.613	0.13
351.822	0.1441
352.0311	0.1446
352.2402	0.1461
352.4492	0.1506
352.6582	0.1462
352.8672	0.1452
353.0762	0.1512
353.2852	0.1414
353.4942	0.1377
353.7032	0.1457
353.9121	0.1496
354.1211	0.1473
354.33	0.1439
354.5389	0.1677
354.7478	0.1425
354.9567	0.1586
355.1655	0.1422
355.3744	0.1579
355.5833	0.1647
355.7921	0.1783
356.0009	0.153
356.2097	0.1797
356.4185	0.1636
356.6273	0.166
356.8361	0.152
357.0448	0.1561
357.2536	0.1571
357.4623	0.163
357.671	0.1705
357.8797	0.1557
358.0884	0.1684
358.2971	0.1686
358.5057	0.16
358.7144	0.1663
358.923	0.1718
359.1316	0.1612
359.3402	0.1606
359.5488	0.1805
359.7574	0.167
359.966	0.1824
360.1746	0.172
360.3831	0.1764
360.5916	0.1569
360.8002	0.1634
361.0087	0.191
361.2172	0.1781
361.4256	0.1753
361.6341	0.1695
361.8426	0.1755
362.051	0.185
362.2594	0.1932
362.4678	0.1813
362.6762	0.1847
362.8846	0.1869
363.093	0.1842
363.3014	0.1827
363.5097	0.1788
363.718	0.1787
363.9264	0.1885
364.1347	0.1897
364.343	0.188
364.5513	0.193
364.7595	0.2099
364.9678	0.2025
365.176	0.1894
365.3842	0.1834
365.5925	0.1917
365.8007	0.1963
366.0089	0.2111
366.217	0.1944
366.4252	0.2067
366.6333	0.2163
366.8415	0.1986
367.0496	0.196
367.2577	0.2156
367.4658	0.2005
367.6739	0.2166
367.882	0.2106
368.09	0.2092
368.2981	0.2152
368.5061	0.2055
368.7141	0.2135
368.9221	0.2055
369.1301	0.2176
369.3381	0.2139
369.5461	0.2179
369.754	0.2031
369.962	0.2304
370.1699	0.2161
370.3778	0.2264
370.5857	0.1973
370.7936	0.2141
371.0015	0.2249
371.2093	0.2198
371.4172	0.2259
371.625	0.208
371.8328	0.2186
372.0406	0.2211
372.2484	0.2169
372.4562	0.2277
372.664	0.2206
372.8717	0.2377
373.0795	0.2157
373.2872	0.2248
373.4949	0.2248
373.7026	0.2265
373.9103	0.2378
374.118	0.2542
374.3256	0.2379
374.5333	0.2304
374.7409	0.2106
374.9485	0.2417
375.1561	0.233
375.3637	0.2324
375.5713	0.2292
375.7789	0.2352
375.9864	0.2247
376.194	0.2228
376.4015	0.2401
376.609	0.2468
376.8165	0.2233
377.024	0.2363
377.2315	0.2263
377.4389	0.2471
377.6464	0.2539
377.8538	0.2397
378.0612	0.2464
378.2686	0.2462
378.476	0.2442
378.6834	0.2432
378.8908	0.2614
379.0981	0.2568
379.3055	0.2544
379.5128	0.2124
379.7201	0.2534
379.9274	0.243
380.1347	0.2426
380.342	0.2443
380.5492	0.238
380.7565	0.2337
380.9637	0.2523
381.1709	0.2417
381.3781	0.2564
381.5853	0.2647
381.7925	0.253
381.9997	0.2783
382.2068	0.2576
382.4139	0.2563
382.6211	0.2557
382.8282	0.2474
383.0353	0.2576
383.2424	0.2594
383.4494	0.2656
383.6565	0.251
383.8635	0.2543
384.0706	0.2631
384.2776	0.2565
384.4846	0.2482
384.6916	0.276
384.8986	0.258
385.1055	0.2611
385.3125	0.2522
385.5194	0.2375
385.7263	0.2716
385.9333	0.2579
386.1402	0.2532
386.347	0.2445
386.5539	0.2534
386.7608	0.2705
386.9676	0.2477
387.1744	0.2654
387.3813	0.2564
387.5881	0.2664
387.7948	0.2579
388.0016	0.2466
388.2084	0.2604
388.4151	0.2359
388.6219	0.2561
388.8286	0.2438
389.0353	0.2586
389.242	0.2601
389.4487	0.2438
389.6553	0.2366
389.862	0.2228
390.0686	0.238
390.2753	0.2572
390.4819	0.2495
390.6885	0.23
390.8951	0.2458
391.1016	0.2446
391.3082	0.2378
391.5147	0.2523
391.7213	0.2329
391.9278	0.2344
392.1343	0.2178
392.3408	0.2287
392.5473	0.2535
392.7537	0.2407
392.9602	0.2291
393.1666	0.2226
393.373	0.2311
393.5794	0.2429
393.7858	0.2302
393.9922	0.2196
394.1986	0.2326
394.4049	0.2339
394.6113	0.2144
394.8176	0.2095
395.0239	0.2294
395.2302	0.2277
395.4365	0.2281
395.6428	0.2097
395.8491	0.2173
396.0553	0.2224
396.2615	0.2146
396.4678	0.2049
396.674	0.2138
396.8802	0.2178
397.0863	0.2367
397.2925	0.2099
397.4987	0.2026
397.7048	0.2126
397.9109	0.2184
398.117	0.2084
398.3231	0.2181
398.5292	0.2204
398.7353	0.2127
398.9413	0.204
399.1474	0.2148
399.3534	0.208
399.5594	0.2099
399.7654	0.224
399.9714	0.2181
400.1774	0.2115
400.3833	0.2031
400.5893	0.2139
400.7952	0.2359
401.0011	0.2167
401.207	0.2203
401.4129	0.2214
401.6188	0.2188
401.8247	0.2076
402.0305	0.2085
402.2364	0.1992
402.4422	0.2165
402.648	0.2291
402.8538	0.2135
403.0596	0.2133
403.2654	0.2194
403.4711	0.228
403.6768	0.2243
403.8826	0.2254
404.0883	0.2156
404.294	0.224
404.4997	0.2344
404.7054	0.2233
404.911	0.2098
405.1167	0.223
405.3223	0.2327
405.5279	0.2242
405.7335	0.2189
405.9391	0.2211
406.1447	0.2163
406.3502	0.237
406.5558	0.214
406.7613	0.2209
406.9668	0.2231
407.1724	0.1918
407.3778	0.2089
407.5833	0.2134
407.7888	0.2127
407.9942	0.2202
408.1997	0.227
408.4051	0.2095
408.6105	0.2258
408.8159	0.2105
409.0213	0.2113
409.2267	0.237
409.432	0.2267
409.6374	0.2225
409.8427	0.2087
410.048	0.2133
410.2533	0.2224
410.4586	0.2021
410.6639	0.1895
410.8691	0.2096
411.0744	0.2125
411.2796	0.2068
411.4848	0.204
411.69	0.2117
411.8952	0.232
412.1004	0.2061
412.3056	0.2143
412.5107	0.2175
412.7158	0.2046
412.921	0.2079
413.1261	0.2154
413.3312	0.1995
413.5362	0.2061
413.7413	0.1904
413.9464	0.1965
414.1514	0.2172
414.3564	0.2164
414.5614	0.1878
414.7664	0.2012
414.9714	0.2079
415.1764	0.2134
415.3813	0.2165
415.5863	0.2063
415.7912	0.2111
415.9961	0.2141
416.201	0.2143
416.4059	0.2045
416.6108	0.2038
416.8156	0.1906
417.0205	0.1906
417.2253	0.1916
417.4301	0.2174
417.6349	0.2042
417.8397	0.1886
418.0445	0.2101
418.2492	0.2222
418.454	0.2106
418.6587	0.1967
418.8634	0.192
419.0681	0.1906
419.2728	0.1935
419.4775	0.2096
419.6822	0.18
419.8868	0.1882
420.0915	0.2029
420.2961	0.1858
420.5007	0.1797
420.7053	0.2067
420.9099	0.1988
421.1144	0.2087
421.319	0.1908
421.5235	0.1993
421.728	0.1921
421.9325	0.2001
422.137	0.2016
422.3415	0.1914
422.546	0.2014
422.7504	0.192
422.9549	0.201
423.1593	0.1761
423.3637	0.1916
423.5681	0.1917
423.7725	0.184
423.9769	0.1702
424.1812	0.1634
424.3856	0.173
424.5899	0.1803
424.7942	0.1842
424.9985	0.1833
425.2028	0.1675
425.4071	0.197
425.6113	0.1576
425.8156	0.1821
426.0198	0.1801
426.224	0.1577
426.4282	0.1559
