Data from MonoPyChalIsomerACN10uM380nmA_Absorbance_13-38-31-448.txt Node
Date: Fri Jul 05 13:38:31 BST 2024
User: LASERRRRR
Spectrometer: FLMT03099
Trigger mode: 0
Integration Time (sec): 1.000000E-1
Scans to average: 1
Electric dark correction enabled: true
Nonlinearity correction enabled: false
Boxcar width: 0
XAxis mode: Wavelengths
Number of Pixels in Spectrum: 3648
>>>>>Begin Spectral Data<<<<<
179.3399	0.0201
179.5586	0.0201
179.7771	0.0201
179.9957	-0.012
180.2143	-0
180.4329	-0.1828
180.6514	-0
180.8699	-0
181.0885	-0.2035
181.307	-0.0282
181.5255	-0.4694
181.744	-0.268
181.9625	-0
182.181	-0
182.3994	0.9089
182.6179	0.315
182.8363	0.9651
183.0547	-0.3435
183.2732	0.0929
183.4916	0.226
183.71	0.1633
183.9284	0.3165
184.1467	0.1381
184.3651	-0.0373
184.5835	0.0947
184.8018	0.0471
185.0201	0.1156
185.2385	-0.049
185.4568	0.0876
185.6751	0.1101
185.8934	0.0941
186.1117	0.0813
186.3299	0.1061
186.5482	0.2142
186.7664	-0.0945
186.9847	-0.1126
187.2029	0.0161
187.4211	0.0462
187.6393	0.2128
187.8575	-0.0565
188.0757	0.2996
188.2939	0.0215
188.512	0.015
188.7302	0.0686
188.9483	-0.0924
189.1665	0.2425
189.3846	0.1299
189.6027	0.2298
189.8208	0.083
190.0389	0.2797
190.257	0.1948
190.475	0.2272
190.6931	0.2744
190.9111	0.4336
191.1292	0.0192
191.3472	0.3635
191.5652	0.2837
191.7832	0.2692
192.0012	0.6305
192.2192	0.3286
192.4371	0.6321
192.6551	0.4231
192.873	0.4774
193.091	0.4329
193.3089	0.8405
193.5268	0.4348
193.7447	0.6478
193.9626	0.4516
194.1805	0.5056
194.3984	0.8555
194.6162	0.6412
194.8341	0.6141
195.0519	0.6306
195.2697	0.8753
195.4875	0.6972
195.7054	0.687
195.9231	0.4307
196.1409	0.8628
196.3587	0.9423
196.5765	0.7114
196.7942	0.7201
197.012	0.5585
197.2297	0.6563
197.4474	0.9067
197.6651	0.6772
197.8828	0.6369
198.1005	0.9617
198.3182	0.8408
198.5358	0.9194
198.7535	0.8098
198.9711	0.6516
199.1888	0.9374
199.4064	1.0184
199.624	0.8875
199.8416	0.7698
200.0592	0.764
200.2767	0.8396
200.4943	0.6664
200.7119	1.1654
200.9294	1.0404
201.1469	0.6987
201.3645	0.7219
201.582	0.7884
201.7995	0.9544
202.017	0.7853
202.2344	0.6083
202.4519	0.7863
202.6694	0.9621
202.8868	0.8124
203.1042	0.996
203.3217	1.0439
203.5391	0.7071
203.7565	0.7533
203.9739	0.8734
204.1913	0.8146
204.4086	0.7838
204.626	0.9151
204.8433	0.9019
205.0607	0.7712
205.278	0.8734
205.4953	0.7782
205.7126	0.889
205.9299	0.952
206.1472	0.9962
206.3644	0.8871
206.5817	0.8991
206.7989	0.9503
207.0162	0.7682
207.2334	0.9053
207.4506	0.8416
207.6678	0.7328
207.885	0.8406
208.1022	0.8376
208.3194	0.7667
208.5365	0.7931
208.7537	0.863
208.9708	0.7765
209.1879	0.8958
209.405	0.9105
209.6222	0.7914
209.8392	0.8946
210.0563	0.7009
210.2734	0.9429
210.4905	0.7621
210.7075	0.7827
210.9245	0.7867
211.1416	0.9461
211.3586	0.8612
211.5756	0.7724
211.7926	0.7439
212.0096	0.7125
212.2265	0.7075
212.4435	0.8585
212.6604	0.878
212.8774	0.8413
213.0943	0.8179
213.3112	0.7319
213.5281	0.6553
213.745	0.7221
213.9619	0.7112
214.1788	0.6393
214.3956	0.7276
214.6125	0.6275
214.8293	0.6748
215.0461	0.7004
215.2629	0.6517
215.4798	0.7023
215.6965	0.6105
215.9133	0.6589
216.1301	0.6274
216.3469	0.6614
216.5636	0.6148
216.7803	0.6334
216.9971	0.6415
217.2138	0.6208
217.4305	0.602
217.6472	0.5978
217.8639	0.6279
218.0805	0.6273
218.2972	0.594
218.5138	0.5401
218.7305	0.5785
218.9471	0.5587
219.1637	0.5287
219.3803	0.5753
219.5969	0.5033
219.8135	0.512
220.0301	0.5241
220.2466	0.5819
220.4632	0.5311
220.6797	0.5024
220.8962	0.5338
221.1127	0.5276
221.3292	0.5608
221.5457	0.5304
221.7622	0.509
221.9787	0.5164
222.1951	0.5291
222.4116	0.5608
222.628	0.5047
222.8444	0.5542
223.0608	0.5234
223.2772	0.5113
223.4936	0.5352
223.71	0.5067
223.9264	0.5191
224.1427	0.4878
224.3591	0.5353
224.5754	0.5517
224.7917	0.5516
225.008	0.5286
225.2243	0.5281
225.4406	0.5497
225.6569	0.5226
225.8732	0.5339
226.0894	0.5126
226.3057	0.5289
226.5219	0.5312
226.7381	0.5204
226.9543	0.5016
227.1705	0.5429
227.3867	0.5543
227.6029	0.5528
227.8191	0.5389
228.0352	0.554
228.2513	0.5661
228.4675	0.5746
228.6836	0.5799
228.8997	0.5418
229.1158	0.5348
229.3319	0.5432
229.548	0.5605
229.764	0.5281
229.9801	0.5135
230.1961	0.5866
230.4121	0.5707
230.6282	0.5619
230.8442	0.5265
231.0602	0.5546
231.2761	0.5828
231.4921	0.5729
231.7081	0.5738
231.924	0.5436
232.14	0.5521
232.3559	0.5316
232.5718	0.5763
232.7877	0.5392
233.0036	0.5703
233.2195	0.5535
233.4353	0.5486
233.6512	0.5729
233.867	0.5478
234.0829	0.5536
234.2987	0.5547
234.5145	0.5641
234.7303	0.551
234.9461	0.57
235.1619	0.5437
235.3776	0.5516
235.5934	0.5567
235.8091	0.5283
236.0249	0.5396
236.2406	0.5204
236.4563	0.5296
236.672	0.5629
236.8877	0.5477
237.1034	0.5544
237.319	0.5212
237.5347	0.5452
237.7503	0.543
237.966	0.549
238.1816	0.5612
238.3972	0.5384
238.6128	0.5206
238.8284	0.5408
239.0439	0.5469
239.2595	0.5129
239.475	0.5281
239.6906	0.5349
239.9061	0.5139
240.1216	0.5195
240.3371	0.513
240.5526	0.5187
240.7681	0.5116
240.9836	0.4819
241.199	0.5134
241.4145	0.4948
241.6299	0.4871
241.8453	0.4884
242.0607	0.4828
242.2761	0.4529
242.4915	0.4524
242.7069	0.4586
242.9223	0.4499
243.1376	0.4396
243.353	0.4485
243.5683	0.4525
243.7836	0.4218
243.9989	0.4153
244.2142	0.3971
244.4295	0.4105
244.6448	0.3809
244.86	0.3619
245.0753	0.3616
245.2905	0.3707
245.5057	0.3573
245.721	0.3475
245.9362	0.3242
246.1514	0.3493
246.3665	0.3239
246.5817	0.3165
246.7969	0.316
247.012	0.2987
247.2271	0.3
247.4423	0.3043
247.6574	0.3006
247.8725	0.296
248.0876	0.2832
248.3026	0.2891
248.5177	0.2857
248.7328	0.2693
248.9478	0.2456
249.1628	0.2691
249.3779	0.2736
249.5929	0.2503
249.8079	0.2732
250.0228	0.2392
250.2378	0.2501
250.4528	0.2332
250.6677	0.2166
250.8827	0.2379
251.0976	0.2286
251.3125	0.2329
251.5274	0.2132
251.7423	0.2237
251.9572	0.2213
252.172	0.2158
252.3869	0.2181
252.6017	0.2133
252.8166	0.2068
253.0314	0.1999
253.2462	0.2015
253.461	0.2165
253.6758	0.2017
253.8906	0.2148
254.1053	0.1909
254.3201	0.2067
254.5348	0.1983
254.7496	0.2087
254.9643	0.1775
255.179	0.1892
255.3937	0.1983
255.6083	0.2016
255.823	0.2054
256.0377	0.1879
256.2523	0.2053
256.467	0.1779
256.6816	0.1967
256.8962	0.1955
257.1108	0.1799
257.3254	0.1867
257.54	0.1827
257.7545	0.1907
257.9691	0.2005
258.1836	0.1894
258.3981	0.1957
258.6127	0.1953
258.8272	0.1892
259.0417	0.1907
259.2561	0.1834
259.4706	0.1765
259.6851	0.1947
259.8995	0.1794
260.114	0.1916
260.3284	0.1868
260.5428	0.1863
260.7572	0.1925
260.9716	0.1898
261.186	0.1829
261.4003	0.1787
261.6147	0.199
261.829	0.1894
262.0433	0.1819
262.2577	0.1768
262.472	0.1801
262.6863	0.179
262.9005	0.1838
263.1148	0.1856
263.3291	0.1635
263.5433	0.1847
263.7576	0.1871
263.9718	0.18
264.186	0.1892
264.4002	0.1786
264.6144	0.1711
264.8286	0.1906
265.0427	0.1815
265.2569	0.1811
265.471	0.1786
265.6851	0.1754
265.8993	0.1795
266.1134	0.1742
266.3275	0.1801
266.5415	0.1782
266.7556	0.2042
266.9697	0.1902
267.1837	0.1943
267.3978	0.1879
267.6118	0.1945
267.8258	0.2044
268.0398	0.1706
268.2538	0.2018
268.4677	0.191
268.6817	0.1821
268.8957	0.1834
269.1096	0.1995
269.3235	0.1812
269.5374	0.1745
269.7514	0.1744
269.9652	0.1776
270.1791	0.1777
270.393	0.1754
270.6068	0.1758
270.8207	0.168
271.0345	0.1681
271.2483	0.1778
271.4622	0.1646
271.676	0.1707
271.8897	0.1627
272.1035	0.1701
272.3173	0.1664
272.531	0.1632
272.7448	0.1621
272.9585	0.1652
273.1722	0.1682
273.3859	0.1689
273.5996	0.1621
273.8133	0.1726
274.0269	0.1688
274.2406	0.1606
274.4542	0.1605
274.6679	0.1678
274.8815	0.1671
275.0951	0.182
275.3087	0.1767
275.5223	0.1841
275.7358	0.1673
275.9494	0.1635
276.1629	0.1641
276.3765	0.1662
276.59	0.1827
276.8035	0.1659
277.017	0.1678
277.2305	0.1656
277.444	0.1731
277.6574	0.1675
277.8709	0.1657
278.0843	0.1611
278.2978	0.1653
278.5112	0.1598
278.7246	0.1642
278.938	0.1677
279.1513	0.1751
279.3647	0.1787
279.5781	0.1799
279.7914	0.1697
280.0047	0.1873
280.2181	0.1748
280.4314	0.1772
280.6447	0.1838
280.8579	0.1796
281.0712	0.1811
281.2845	0.1817
281.4977	0.1704
281.711	0.1576
281.9242	0.1754
282.1374	0.1875
282.3506	0.1778
282.5638	0.1794
282.7769	0.1707
282.9901	0.1724
283.2033	0.1693
283.4164	0.1943
283.6295	0.1671
283.8426	0.1715
284.0557	0.1826
284.2688	0.1952
284.4819	0.1866
284.695	0.1747
284.908	0.1824
285.1211	0.1675
285.3341	0.172
285.5471	0.1906
285.7601	0.1801
285.9731	0.1649
286.1861	0.1718
286.3991	0.1816
286.612	0.1911
286.825	0.1752
287.0379	0.1805
287.2508	0.1836
287.4637	0.1913
287.6766	0.1777
287.8895	0.1849
288.1024	0.1906
288.3152	0.1834
288.5281	0.1674
288.7409	0.1827
288.9538	0.1802
289.1666	0.1686
289.3794	0.1785
289.5922	0.1849
289.8049	0.1922
290.0177	0.1768
290.2304	0.1813
290.4432	0.1888
290.6559	0.1787
290.8686	0.1897
291.0813	0.1789
291.294	0.1762
291.5067	0.1883
291.7194	0.1852
291.932	0.1832
292.1447	0.178
292.3573	0.1665
292.5699	0.165
292.7825	0.1825
292.9951	0.1699
293.2077	0.1796
293.4203	0.1631
293.6328	0.1619
293.8454	0.1921
294.0579	0.1775
294.2704	0.1768
294.4829	0.1636
294.6954	0.1835
294.9079	0.1802
295.1204	0.1827
295.3328	0.1663
295.5453	0.1702
295.7577	0.1766
295.9701	0.1706
296.1825	0.1815
296.3949	0.1713
296.6073	0.1723
296.8197	0.1628
297.0321	0.177
297.2444	0.1665
297.4567	0.18
297.6691	0.1706
297.8814	0.1797
298.0937	0.1698
298.306	0.1622
298.5182	0.1631
298.7305	0.1717
298.9428	0.158
299.155	0.1731
299.3672	0.1668
299.5794	0.1599
299.7916	0.1568
300.0038	0.1767
300.216	0.18
300.4282	0.1746
300.6403	0.154
300.8525	0.1649
301.0646	0.1645
301.2767	0.1705
301.4888	0.1629
301.7009	0.1792
301.913	0.166
302.125	0.1677
302.3371	0.17
302.5491	0.1658
302.7612	0.173
302.9732	0.1704
303.1852	0.1728
303.3972	0.1572
303.6092	0.1607
303.8211	0.1614
304.0331	0.1531
304.245	0.1524
304.457	0.1582
304.6689	0.1648
304.8808	0.1704
305.0927	0.1554
305.3046	0.1555
305.5164	0.1619
305.7283	0.1524
305.9401	0.1523
306.152	0.1613
306.3638	0.1493
306.5756	0.1439
306.7874	0.1483
306.9992	0.1529
307.2109	0.1432
307.4227	0.1272
307.6344	0.1391
307.8462	0.1341
308.0579	0.1309
308.2696	0.1341
308.4813	0.1329
308.693	0.1486
308.9046	0.1382
309.1163	0.1204
309.328	0.1254
309.5396	0.1233
309.7512	0.1278
309.9628	0.1336
310.1744	0.1275
310.386	0.1214
310.5976	0.123
310.8091	0.1241
311.0207	0.1326
311.2322	0.1238
311.4437	0.1211
311.6552	0.1056
311.8667	0.1148
312.0782	0.1095
312.2897	0.1089
312.5012	0.1133
312.7126	0.1084
312.924	0.1077
313.1355	0.117
313.3469	0.1155
313.5583	0.1097
313.7696	0.1046
313.981	0.1176
314.1924	0.1006
314.4037	0.1049
314.6151	0.1168
314.8264	0.1067
315.0377	0.1023
315.249	0.1077
315.4603	0.1098
315.6716	0.0973
315.8828	0.0955
316.0941	0.1071
316.3053	0.0951
316.5165	0.0963
316.7277	0.094
316.9389	0.1085
317.1501	0.0932
317.3613	0.1008
317.5724	0.088
317.7836	0.1074
317.9947	0.0936
318.2058	0.1052
318.417	0.0923
318.6281	0.0933
318.8391	0.097
319.0502	0.1064
319.2613	0.1095
319.4723	0.1047
319.6834	0.0981
319.8944	0.0984
320.1054	0.1078
320.3164	0.0984
320.5274	0.0907
320.7383	0.1024
320.9493	0.1086
321.1602	0.1057
321.3712	0.0866
321.5821	0.1046
321.793	0.1093
322.0039	0.0979
322.2148	0.1032
322.4257	0.0986
322.6365	0.1117
322.8474	0.1002
323.0582	0.1014
323.269	0.1025
323.4798	0.1122
323.6906	0.1133
323.9014	0.1098
324.1122	0.1076
324.3229	0.1104
324.5337	0.1098
324.7444	0.0878
324.9551	0.122
325.1658	0.1135
325.3765	0.1047
325.5872	0.1065
325.7979	0.1008
326.0085	0.0987
326.2192	0.1187
326.4298	0.1137
326.6404	0.0962
326.851	0.1014
327.0616	0.1081
327.2722	0.1087
327.4828	0.1215
327.6933	0.1063
327.9039	0.1069
328.1144	0.1244
328.3249	0.1058
328.5354	0.1089
328.7459	0.1119
328.9564	0.1067
329.1669	0.1003
329.3773	0.1182
329.5878	0.1111
329.7982	0.1076
330.0086	0.1059
330.219	0.1081
330.4294	0.1086
330.6398	0.1018
330.8502	0.0986
331.0605	0.1037
331.2708	0.115
331.4812	0.1095
331.6915	0.111
331.9018	0.1095
332.1121	0.1097
332.3224	0.1054
332.5326	0.1136
332.7429	0.1124
332.9531	0.1153
333.1633	0.1133
333.3735	0.1128
333.5837	0.1066
333.7939	0.1158
334.0041	0.1176
334.2143	0.1175
334.4244	0.1059
334.6346	0.0903
334.8447	0.1168
335.0548	0.1061
335.2649	0.1036
335.475	0.1223
335.685	0.1128
335.8951	0.1149
336.1051	0.1005
336.3152	0.1233
336.5252	0.0971
336.7352	0.1145
336.9452	0.1181
337.1552	0.1237
337.3652	0.1035
337.5751	0.1118
337.7851	0.1135
337.995	0.1014
338.2049	0.1189
338.4148	0.1165
338.6247	0.1284
338.8346	0.1151
339.0445	0.1091
339.2543	0.1003
339.4642	0.1164
339.674	0.1129
339.8838	0.1168
340.0936	0.1101
340.3034	0.1203
340.5132	0.1214
340.7229	0.1135
340.9327	0.1156
341.1424	0.1201
341.3522	0.1298
341.5619	0.1278
341.7716	0.127
341.9813	0.119
342.1909	0.1183
342.4006	0.1317
342.6102	0.1269
342.8199	0.1375
343.0295	0.1226
343.2391	0.1194
343.4487	0.1295
343.6583	0.1222
343.8679	0.1194
344.0774	0.1299
344.287	0.1411
344.4965	0.1225
344.706	0.1307
344.9155	0.1412
345.125	0.1324
345.3345	0.1312
345.544	0.122
345.7534	0.1262
345.9629	0.1342
346.1723	0.1335
346.3817	0.1284
346.5911	0.1239
346.8005	0.1326
347.0099	0.1271
347.2193	0.1295
347.4286	0.1407
347.638	0.1348
347.8473	0.141
348.0566	0.1332
348.2659	0.1444
348.4752	0.1368
348.6845	0.1219
348.8937	0.1422
349.103	0.1468
349.3122	0.1287
349.5214	0.1341
349.7306	0.1392
349.9398	0.1379
350.149	0.1403
350.3582	0.1329
350.5674	0.1324
350.7765	0.1447
350.9856	0.1369
351.1948	0.1394
351.4039	0.1298
351.613	0.126
351.822	0.1546
352.0311	0.1485
352.2402	0.1538
352.4492	0.1543
352.6582	0.1532
352.8672	0.1419
353.0762	0.1542
353.2852	0.1472
353.4942	0.1422
353.7032	0.1476
353.9121	0.1464
354.1211	0.1446
354.33	0.1525
354.5389	0.1498
354.7478	0.1569
354.9567	0.1522
355.1655	0.1419
355.3744	0.1504
355.5833	0.1675
355.7921	0.1575
356.0009	0.1504
356.2097	0.166
356.4185	0.1571
356.6273	0.1539
356.8361	0.1574
357.0448	0.1475
357.2536	0.1411
357.4623	0.1552
357.671	0.1748
357.8797	0.1555
358.0884	0.1612
358.2971	0.1619
358.5057	0.1696
358.7144	0.1761
358.923	0.1687
359.1316	0.1559
359.3402	0.1521
359.5488	0.1701
359.7574	0.1624
359.966	0.1714
360.1746	0.1809
360.3831	0.1757
360.5916	0.1762
360.8002	0.1701
361.0087	0.1847
361.2172	0.1745
361.4256	0.1743
361.6341	0.1915
361.8426	0.1778
362.051	0.1857
362.2594	0.1825
362.4678	0.1872
362.6762	0.1984
362.8846	0.1785
363.093	0.1729
363.3014	0.1731
363.5097	0.1726
363.718	0.1959
363.9264	0.1841
364.1347	0.1695
364.343	0.1993
364.5513	0.2067
364.7595	0.2106
364.9678	0.1922
365.176	0.1932
365.3842	0.1843
365.5925	0.2065
365.8007	0.1912
366.0089	0.1914
366.217	0.1915
366.4252	0.2129
366.6333	0.2119
366.8415	0.1967
367.0496	0.204
367.2577	0.198
367.4658	0.1942
367.6739	0.1981
367.882	0.2055
368.09	0.202
368.2981	0.2099
368.5061	0.2003
368.7141	0.2026
368.9221	0.2171
369.1301	0.2052
369.3381	0.2064
369.5461	0.2074
369.754	0.2073
369.962	0.2161
370.1699	0.2157
370.3778	0.2146
370.5857	0.1968
370.7936	0.2058
371.0015	0.217
371.2093	0.2192
371.4172	0.2071
371.625	0.2064
371.8328	0.2102
372.0406	0.2103
372.2484	0.21
372.4562	0.2244
372.664	0.2268
372.8717	0.2255
373.0795	0.215
373.2872	0.2025
373.4949	0.216
373.7026	0.2265
373.9103	0.213
374.118	0.2146
374.3256	0.2247
374.5333	0.2201
374.7409	0.2247
374.9485	0.2284
375.1561	0.2391
375.3637	0.2418
375.5713	0.2213
375.7789	0.2198
375.9864	0.2225
376.194	0.2239
376.4015	0.2473
376.609	0.2518
376.8165	0.226
377.024	0.2304
377.2315	0.222
377.4389	0.2213
377.6464	0.2385
377.8538	0.2393
378.0612	0.235
378.2686	0.2537
378.476	0.2402
378.6834	0.2382
378.8908	0.2344
379.0981	0.2249
379.3055	0.242
379.5128	0.2261
379.7201	0.2491
379.9274	0.2312
380.1347	0.2344
380.342	0.2496
380.5492	0.2311
380.7565	0.2491
380.9637	0.2372
381.1709	0.2432
381.3781	0.2382
381.5853	0.2452
381.7925	0.242
381.9997	0.2542
382.2068	0.2369
382.4139	0.2538
382.6211	0.2543
382.8282	0.2405
383.0353	0.239
383.2424	0.2298
383.4494	0.2601
383.6565	0.2387
383.8635	0.2501
384.0706	0.2543
384.2776	0.2319
384.4846	0.2477
384.6916	0.2489
384.8986	0.2184
385.1055	0.2379
385.3125	0.2561
385.5194	0.2342
385.7263	0.245
385.9333	0.2443
386.1402	0.2464
386.347	0.248
386.5539	0.2461
386.7608	0.2519
386.9676	0.2273
387.1744	0.2519
387.3813	0.2297
387.5881	0.254
387.7948	0.2522
388.0016	0.2512
388.2084	0.236
388.4151	0.2389
388.6219	0.2394
388.8286	0.2498
389.0353	0.256
389.242	0.2333
389.4487	0.2285
389.6553	0.24
389.862	0.2031
390.0686	0.2242
390.2753	0.2496
390.4819	0.2234
390.6885	0.232
390.8951	0.2462
391.1016	0.2416
391.3082	0.2337
391.5147	0.2459
391.7213	0.236
391.9278	0.2287
392.1343	0.2117
392.3408	0.2297
392.5473	0.2206
392.7537	0.2149
392.9602	0.2219
393.1666	0.206
393.373	0.2242
393.5794	0.2391
393.7858	0.2198
393.9922	0.2247
394.1986	0.2313
394.4049	0.237
394.6113	0.2116
394.8176	0.1947
395.0239	0.196
395.2302	0.2078
395.4365	0.2048
395.6428	0.219
395.8491	0.2138
396.0553	0.2143
396.2615	0.21
396.4678	0.2027
396.674	0.2046
396.8802	0.2076
397.0863	0.2128
397.2925	0.2225
397.4987	0.2015
397.7048	0.2049
397.9109	0.2124
398.117	0.192
398.3231	0.2019
398.5292	0.2021
398.7353	0.2173
398.9413	0.2213
399.1474	0.2047
399.3534	0.214
399.5594	0.1907
399.7654	0.2146
399.9714	0.2331
400.1774	0.1884
400.3833	0.1887
400.5893	0.204
400.7952	0.2122
401.0011	0.2149
401.207	0.2069
401.4129	0.2062
401.6188	0.211
401.8247	0.2053
402.0305	0.2
402.2364	0.1922
402.4422	0.2174
402.648	0.2156
402.8538	0.2105
403.0596	0.1979
403.2654	0.1937
403.4711	0.2221
403.6768	0.2204
403.8826	0.216
404.0883	0.2085
404.294	0.193
404.4997	0.2182
404.7054	0.2002
404.911	0.1998
405.1167	0.1955
405.3223	0.2153
405.5279	0.2075
405.7335	0.2052
405.9391	0.2048
406.1447	0.1965
406.3502	0.2196
406.5558	0.1925
406.7613	0.2123
406.9668	0.2081
407.1724	0.197
407.3778	0.1985
407.5833	0.1954
407.7888	0.2082
407.9942	0.2131
408.1997	0.2075
408.4051	0.1932
408.6105	0.19
408.8159	0.1926
409.0213	0.1949
409.2267	0.2251
409.432	0.204
409.6374	0.2135
409.8427	0.2144
410.048	0.2052
410.2533	0.1985
410.4586	0.1887
410.6639	0.1922
410.8691	0.1757
411.0744	0.2108
411.2796	0.1877
411.4848	0.1979
411.69	0.1822
411.8952	0.2161
412.1004	0.2123
412.3056	0.1934
412.5107	0.1876
412.7158	0.2211
412.921	0.1978
413.1261	0.1865
413.3312	0.1871
413.5362	0.1925
413.7413	0.1954
413.9464	0.2028
414.1514	0.197
414.3564	0.1825
414.5614	0.1871
414.7664	0.1828
414.9714	0.1801
415.1764	0.2052
415.3813	0.1966
415.5863	0.1841
415.7912	0.2202
415.9961	0.2045
416.201	0.2
416.4059	0.2005
416.6108	0.1808
416.8156	0.2001
417.0205	0.1985
417.2253	0.1974
417.4301	0.1939
417.6349	0.1848
417.8397	0.1729
418.0445	0.2053
418.2492	0.2052
418.454	0.1862
418.6587	0.185
418.8634	0.2078
419.0681	0.1656
419.2728	0.2026
419.4775	0.1811
419.6822	0.1783
419.8868	0.1739
420.0915	0.1769
420.2961	0.1754
420.5007	0.1806
420.7053	0.1927
420.9099	0.1971
421.1144	0.1962
421.319	0.1803
421.5235	0.194
421.728	0.1763
421.9325	0.2063
422.137	0.2091
422.3415	0.1724
422.546	0.1905
422.7504	0.1807
422.9549	0.198
423.1593	0.1722
423.3637	0.1783
423.5681	0.1821
423.7725	0.1602
423.9769	0.1567
424.1812	0.1562
424.3856	0.1464
424.5899	0.1752
424.7942	0.1746
424.9985	0.1638
425.2028	0.1461
425.4071	0.1859
425.6113	0.1472
425.8156	0.1736
426.0198	0.1577
426.224	0.1554
426.4282	0.1426
