Data from MonoPyChalIsomerACN10uM380nmA_Absorbance_13-38-33-648.txt Node
Date: Fri Jul 05 13:38:33 BST 2024
User: LASERRRRR
Spectrometer: FLMT03099
Trigger mode: 0
Integration Time (sec): 1.000000E-1
Scans to average: 1
Electric dark correction enabled: true
Nonlinearity correction enabled: false
Boxcar width: 0
XAxis mode: Wavelengths
Number of Pixels in Spectrum: 3648
>>>>>Begin Spectral Data<<<<<
179.3399	0.147
179.5586	0.147
179.7771	0.147
179.9957	-0
180.2143	-0
180.4329	-0.2674
180.6514	0.2132
180.8699	-0
181.0885	-0.0866
181.307	0.0645
181.5255	-0
181.744	-0
181.9625	-0
182.181	-0
182.3994	0.3899
182.6179	0.8164
182.8363	-0.1466
183.0547	-0.3776
183.2732	-0.0135
183.4916	0.479
183.71	0.0522
183.9284	0.2404
184.1467	-0.1071
184.3651	-0.0638
184.5835	-0.1329
184.8018	0.1447
185.0201	0.2294
185.2385	0.003
185.4568	0.4791
185.6751	0.2896
185.8934	0.1314
186.1117	0.0893
186.3299	-0.0158
186.5482	0.1267
186.7664	0.0482
186.9847	-0.0064
187.2029	0.2946
187.4211	0.0819
187.6393	0.1323
187.8575	-0.0927
188.0757	0.1062
188.2939	0.0468
188.512	0.2776
188.7302	0.1099
188.9483	0.1943
189.1665	0.0788
189.3846	-0.3026
189.6027	0.1585
189.8208	0.0401
190.0389	0.1843
190.257	0.0872
190.475	0.2314
190.6931	0.1754
190.9111	0.4163
191.1292	0.4313
191.3472	0.5129
191.5652	0.4011
191.7832	0.2679
192.0012	0.5234
192.2192	0.3388
192.4371	0.6301
192.6551	0.2634
192.873	0.3509
193.091	0.289
193.3089	0.407
193.5268	0.5887
193.7447	0.4865
193.9626	0.5481
194.1805	0.5137
194.3984	0.6429
194.6162	0.6018
194.8341	0.6827
195.0519	0.5284
195.2697	0.659
195.4875	0.7591
195.7054	0.7705
195.9231	0.6426
196.1409	0.4989
196.3587	0.7203
196.5765	0.701
196.7942	0.7869
197.012	0.6743
197.2297	0.7605
197.4474	0.8087
197.6651	0.498
197.8828	0.7703
198.1005	0.8981
198.3182	0.8335
198.5358	0.8496
198.7535	0.6984
198.9711	0.633
199.1888	0.8445
199.4064	1.0017
199.624	0.7861
199.8416	0.7523
200.0592	1.0574
200.2767	0.7772
200.4943	0.8394
200.7119	1.1539
200.9294	1.0113
201.1469	0.7233
201.3645	0.7462
201.582	0.8452
201.7995	0.8674
202.017	0.7767
202.2344	0.7185
202.4519	0.9674
202.6694	0.8117
202.8868	0.7292
203.1042	0.798
203.3217	0.9137
203.5391	0.893
203.7565	0.8071
203.9739	0.6851
204.1913	0.7449
204.4086	0.8111
204.626	0.9459
204.8433	0.8397
205.0607	0.7677
205.278	0.7834
205.4953	0.769
205.7126	0.769
205.9299	0.9897
206.1472	0.7982
206.3644	0.7877
206.5817	0.8273
206.7989	0.8869
207.0162	0.8558
207.2334	0.7561
207.4506	0.7507
207.6678	0.7695
207.885	0.8902
208.1022	0.8267
208.3194	0.8921
208.5365	0.8418
208.7537	0.8255
208.9708	0.713
209.1879	0.7813
209.405	0.8444
209.6222	0.8316
209.8392	0.8497
210.0563	0.7224
210.2734	0.8414
210.4905	0.8249
210.7075	0.8476
210.9245	0.731
211.1416	0.9089
211.3586	0.7867
211.5756	0.7541
211.7926	0.8175
212.0096	0.697
212.2265	0.6722
212.4435	0.7011
212.6604	0.8631
212.8774	0.7242
213.0943	0.8986
213.3112	0.72
213.5281	0.6756
213.745	0.6824
213.9619	0.7212
214.1788	0.7348
214.3956	0.6617
214.6125	0.6464
214.8293	0.6696
215.0461	0.6796
215.2629	0.6751
215.4798	0.6971
215.6965	0.6212
215.9133	0.6334
216.1301	0.616
216.3469	0.6579
216.5636	0.6175
216.7803	0.6028
216.9971	0.6592
217.2138	0.5888
217.4305	0.5918
217.6472	0.5889
217.8639	0.6118
218.0805	0.605
218.2972	0.5887
218.5138	0.5574
218.7305	0.564
218.9471	0.5554
219.1637	0.5536
219.3803	0.5046
219.5969	0.5549
219.8135	0.5283
220.0301	0.5399
220.2466	0.5497
220.4632	0.5323
220.6797	0.5054
220.8962	0.5206
221.1127	0.5561
221.3292	0.5299
221.5457	0.5187
221.7622	0.4926
221.9787	0.5413
222.1951	0.5112
222.4116	0.5266
222.628	0.4985
222.8444	0.5325
223.0608	0.5426
223.2772	0.4712
223.4936	0.5124
223.71	0.5116
223.9264	0.5097
224.1427	0.5318
224.3591	0.5208
224.5754	0.5084
224.7917	0.5115
225.008	0.5507
225.2243	0.4843
225.4406	0.5221
225.6569	0.5308
225.8732	0.4743
226.0894	0.4979
226.3057	0.5229
226.5219	0.5346
226.7381	0.5118
226.9543	0.5328
227.1705	0.5553
227.3867	0.5399
227.6029	0.561
227.8191	0.5407
228.0352	0.5605
228.2513	0.5553
228.4675	0.5791
228.6836	0.551
228.8997	0.5273
229.1158	0.5497
229.3319	0.5884
229.548	0.5696
229.764	0.5658
229.9801	0.5403
230.1961	0.5587
230.4121	0.5308
230.6282	0.5715
230.8442	0.5685
231.0602	0.5554
231.2761	0.5934
231.4921	0.5384
231.7081	0.5542
231.924	0.5365
232.14	0.5797
232.3559	0.5508
232.5718	0.5897
232.7877	0.5494
233.0036	0.5405
233.2195	0.5611
233.4353	0.5654
233.6512	0.5506
233.867	0.5375
234.0829	0.5289
234.2987	0.548
234.5145	0.5597
234.7303	0.5408
234.9461	0.5809
235.1619	0.5647
235.3776	0.5369
235.5934	0.5638
235.8091	0.5154
236.0249	0.5631
236.2406	0.5232
236.4563	0.5251
236.672	0.5466
236.8877	0.5396
237.1034	0.5457
237.319	0.5371
237.5347	0.5301
237.7503	0.5377
237.966	0.5424
238.1816	0.5427
238.3972	0.5394
238.6128	0.5324
238.8284	0.5202
239.0439	0.5216
239.2595	0.534
239.475	0.5431
239.6906	0.5206
239.9061	0.5321
240.1216	0.5293
240.3371	0.511
240.5526	0.5088
240.7681	0.5542
240.9836	0.4868
241.199	0.5084
241.4145	0.4763
241.6299	0.4889
241.8453	0.4686
242.0607	0.4982
242.2761	0.4701
242.4915	0.4521
242.7069	0.4616
242.9223	0.4291
243.1376	0.4417
243.353	0.4275
243.5683	0.4486
243.7836	0.402
243.9989	0.4109
244.2142	0.3786
244.4295	0.3984
244.6448	0.4049
244.86	0.386
245.0753	0.3772
245.2905	0.3808
245.5057	0.3725
245.721	0.3617
245.9362	0.3511
246.1514	0.3462
246.3665	0.3165
246.5817	0.3215
246.7969	0.325
247.012	0.3237
247.2271	0.3029
247.4423	0.3196
247.6574	0.3053
247.8725	0.3071
248.0876	0.2862
248.3026	0.2831
248.5177	0.2764
248.7328	0.2758
248.9478	0.2643
249.1628	0.2647
249.3779	0.2632
249.5929	0.2475
249.8079	0.2646
250.0228	0.2641
250.2378	0.2462
250.4528	0.2574
250.6677	0.2325
250.8827	0.2471
251.0976	0.2318
251.3125	0.234
251.5274	0.2225
251.7423	0.2215
251.9572	0.2361
252.172	0.2225
252.3869	0.2184
252.6017	0.2123
252.8166	0.207
253.0314	0.1939
253.2462	0.2006
253.461	0.2142
253.6758	0.1977
253.8906	0.2013
254.1053	0.1973
254.3201	0.191
254.5348	0.22
254.7496	0.2173
254.9643	0.2014
255.179	0.1983
255.3937	0.1924
255.6083	0.2059
255.823	0.1985
256.0377	0.1802
256.2523	0.1923
256.467	0.1724
256.6816	0.19
256.8962	0.1855
257.1108	0.1826
257.3254	0.2038
257.54	0.1816
257.7545	0.1844
257.9691	0.2
258.1836	0.1814
258.3981	0.1902
258.6127	0.1981
258.8272	0.1821
259.0417	0.1905
259.2561	0.1787
259.4706	0.176
259.6851	0.1709
259.8995	0.1758
260.114	0.1815
260.3284	0.1876
260.5428	0.1812
260.7572	0.1869
260.9716	0.1913
261.186	0.179
261.4003	0.1852
261.6147	0.1858
261.829	0.2008
262.0433	0.1867
262.2577	0.1716
262.472	0.1808
262.6863	0.1778
262.9005	0.1814
263.1148	0.1808
263.3291	0.1824
263.5433	0.1812
263.7576	0.1948
263.9718	0.1884
264.186	0.1918
264.4002	0.1758
264.6144	0.1804
264.8286	0.1988
265.0427	0.1906
265.2569	0.1816
265.471	0.1829
265.6851	0.183
265.8993	0.1807
266.1134	0.1767
266.3275	0.1802
266.5415	0.1669
266.7556	0.1955
266.9697	0.1869
267.1837	0.1851
267.3978	0.188
267.6118	0.1991
267.8258	0.1973
268.0398	0.1721
268.2538	0.1813
268.4677	0.1791
268.6817	0.186
268.8957	0.188
269.1096	0.1945
269.3235	0.1954
269.5374	0.1797
269.7514	0.1744
269.9652	0.1724
270.1791	0.1836
270.393	0.1783
270.6068	0.1744
270.8207	0.1823
271.0345	0.1695
271.2483	0.1805
271.4622	0.1711
271.676	0.1809
271.8897	0.1682
272.1035	0.1703
272.3173	0.177
272.531	0.1782
272.7448	0.1673
272.9585	0.1685
273.1722	0.1752
273.3859	0.1802
273.5996	0.1676
273.8133	0.1844
274.0269	0.1697
274.2406	0.1684
274.4542	0.1752
274.6679	0.1703
274.8815	0.1724
275.0951	0.1769
275.3087	0.1762
275.5223	0.171
275.7358	0.1801
275.9494	0.1816
276.1629	0.1763
276.3765	0.1752
276.59	0.1862
276.8035	0.1797
277.017	0.1775
277.2305	0.1668
277.444	0.19
277.6574	0.1644
277.8709	0.1816
278.0843	0.165
278.2978	0.1784
278.5112	0.1779
278.7246	0.1733
278.938	0.1852
279.1513	0.184
279.3647	0.1857
279.5781	0.1792
279.7914	0.1778
280.0047	0.1831
280.2181	0.1799
280.4314	0.1799
280.6447	0.1809
280.8579	0.1937
281.0712	0.1807
281.2845	0.1817
281.4977	0.1668
281.711	0.1583
281.9242	0.1784
282.1374	0.1847
282.3506	0.1773
282.5638	0.19
282.7769	0.1842
282.9901	0.174
283.2033	0.1887
283.4164	0.1812
283.6295	0.1654
283.8426	0.1784
284.0557	0.1881
284.2688	0.1827
284.4819	0.1804
284.695	0.1664
284.908	0.189
285.1211	0.1798
285.3341	0.1808
285.5471	0.1949
285.7601	0.1704
285.9731	0.1706
286.1861	0.1785
286.3991	0.1798
286.612	0.1803
286.825	0.1733
287.0379	0.1742
287.2508	0.1821
287.4637	0.1795
287.6766	0.1724
287.8895	0.1795
288.1024	0.1938
288.3152	0.1784
288.5281	0.1775
288.7409	0.1751
288.9538	0.18
289.1666	0.1837
289.3794	0.1734
289.5922	0.1709
289.8049	0.1895
290.0177	0.1734
290.2304	0.1737
290.4432	0.176
290.6559	0.1769
290.8686	0.1793
291.0813	0.1727
291.294	0.1724
291.5067	0.1811
291.7194	0.1703
291.932	0.1837
292.1447	0.1661
292.3573	0.1736
292.5699	0.1724
292.7825	0.1782
292.9951	0.1635
293.2077	0.1664
293.4203	0.1703
293.6328	0.1537
293.8454	0.1659
294.0579	0.1649
294.2704	0.1756
294.4829	0.155
294.6954	0.1761
294.9079	0.1719
295.1204	0.1625
295.3328	0.1618
295.5453	0.169
295.7577	0.1724
295.9701	0.1589
296.1825	0.1708
296.3949	0.1643
296.6073	0.1602
296.8197	0.1572
297.0321	0.1799
297.2444	0.1495
297.4567	0.16
297.6691	0.1652
297.8814	0.1542
298.0937	0.1626
298.306	0.1582
298.5182	0.155
298.7305	0.1726
298.9428	0.1524
299.155	0.1673
299.3672	0.1646
299.5794	0.1575
299.7916	0.1552
300.0038	0.169
300.216	0.158
300.4282	0.1743
300.6403	0.1512
300.8525	0.1698
301.0646	0.1495
301.2767	0.164
301.4888	0.1595
301.7009	0.1637
301.913	0.1627
302.125	0.1685
302.3371	0.1505
302.5491	0.1652
302.7612	0.1735
302.9732	0.16
303.1852	0.1587
303.3972	0.157
303.6092	0.1571
303.8211	0.1495
304.0331	0.1565
304.245	0.1545
304.457	0.1501
304.6689	0.1536
304.8808	0.1654
305.0927	0.1455
305.3046	0.1448
305.5164	0.1615
305.7283	0.1457
305.9401	0.1449
306.152	0.153
306.3638	0.1585
306.5756	0.137
306.7874	0.1482
306.9992	0.1494
307.2109	0.1407
307.4227	0.1332
307.6344	0.1445
307.8462	0.1441
308.0579	0.1416
308.2696	0.1381
308.4813	0.1325
308.693	0.1362
308.9046	0.1473
309.1163	0.1318
309.328	0.1328
309.5396	0.1167
309.7512	0.1257
309.9628	0.1149
310.1744	0.1262
310.386	0.1206
310.5976	0.1201
310.8091	0.1221
311.0207	0.1208
311.2322	0.124
311.4437	0.1114
311.6552	0.1214
311.8667	0.1275
312.0782	0.1009
312.2897	0.1083
312.5012	0.1205
312.7126	0.1087
312.924	0.1006
313.1355	0.114
313.3469	0.104
313.5583	0.112
313.7696	0.1178
313.981	0.1102
314.1924	0.1111
314.4037	0.114
314.6151	0.1117
314.8264	0.1046
315.0377	0.1003
315.249	0.1159
315.4603	0.1109
315.6716	0.1053
315.8828	0.1002
316.0941	0.1019
316.3053	0.1002
316.5165	0.0953
316.7277	0.0989
316.9389	0.1188
317.1501	0.103
317.3613	0.0985
317.5724	0.0856
317.7836	0.1045
317.9947	0.1038
318.2058	0.1045
318.417	0.0973
318.6281	0.093
318.8391	0.1026
319.0502	0.0939
319.2613	0.1031
319.4723	0.1058
319.6834	0.1084
319.8944	0.1067
320.1054	0.1194
320.3164	0.1093
320.5274	0.1047
320.7383	0.114
320.9493	0.1023
321.1602	0.1112
321.3712	0.0945
321.5821	0.1111
321.793	0.1035
322.0039	0.1115
322.2148	0.1091
322.4257	0.1085
322.6365	0.1186
322.8474	0.113
323.0582	0.1014
323.269	0.1196
323.4798	0.1159
323.6906	0.1025
323.9014	0.1101
324.1122	0.1141
324.3229	0.1152
324.5337	0.1086
324.7444	0.0976
324.9551	0.1148
325.1658	0.1118
325.3765	0.1117
325.5872	0.1172
325.7979	0.1069
326.0085	0.1015
326.2192	0.112
326.4298	0.1083
326.6404	0.1038
326.851	0.1085
327.0616	0.1041
327.2722	0.1072
327.4828	0.1115
327.6933	0.1084
327.9039	0.1075
328.1144	0.1212
328.3249	0.1138
328.5354	0.1169
328.7459	0.1119
328.9564	0.1054
329.1669	0.1178
329.3773	0.1087
329.5878	0.1071
329.7982	0.1138
330.0086	0.1053
330.219	0.1118
330.4294	0.1016
330.6398	0.1113
330.8502	0.1067
331.0605	0.1152
331.2708	0.1126
331.4812	0.1117
331.6915	0.1176
331.9018	0.1188
332.1121	0.11
332.3224	0.1103
332.5326	0.1185
332.7429	0.1106
332.9531	0.1299
333.1633	0.1072
333.3735	0.1083
333.5837	0.1041
333.7939	0.1167
334.0041	0.1242
334.2143	0.1155
334.4244	0.1095
334.6346	0.096
334.8447	0.1331
335.0548	0.1037
335.2649	0.1078
335.475	0.11
335.685	0.1119
335.8951	0.1195
336.1051	0.1164
336.3152	0.125
336.5252	0.1092
336.7352	0.1126
336.9452	0.1085
337.1552	0.1186
337.3652	0.1181
337.5751	0.1141
337.7851	0.1237
337.995	0.1083
338.2049	0.1188
338.4148	0.1165
338.6247	0.1214
338.8346	0.1129
339.0445	0.1034
339.2543	0.1244
339.4642	0.1183
339.674	0.1198
339.8838	0.1194
340.0936	0.1169
340.3034	0.1295
340.5132	0.1198
340.7229	0.123
340.9327	0.1243
341.1424	0.1238
341.3522	0.1331
341.5619	0.1274
341.7716	0.1202
341.9813	0.1253
342.1909	0.1234
342.4006	0.1199
342.6102	0.1396
342.8199	0.14
343.0295	0.1325
343.2391	0.142
343.4487	0.1317
343.6583	0.1253
343.8679	0.129
344.0774	0.1328
344.287	0.1264
344.4965	0.1298
344.706	0.1298
344.9155	0.1324
345.125	0.117
345.3345	0.1432
345.544	0.1249
345.7534	0.1328
345.9629	0.1281
346.1723	0.1268
346.3817	0.1293
346.5911	0.1237
346.8005	0.1392
347.0099	0.1382
347.2193	0.1461
347.4286	0.1223
347.638	0.1353
347.8473	0.1373
348.0566	0.1369
348.2659	0.1413
348.4752	0.1476
348.6845	0.1422
348.8937	0.1382
349.103	0.1455
349.3122	0.1357
349.5214	0.1355
349.7306	0.1318
349.9398	0.1371
350.149	0.1473
350.3582	0.1462
350.5674	0.1396
350.7765	0.1448
350.9856	0.1482
351.1948	0.138
351.4039	0.1283
351.613	0.1362
351.822	0.1413
352.0311	0.1486
352.2402	0.147
352.4492	0.1564
352.6582	0.1555
352.8672	0.136
353.0762	0.1552
353.2852	0.143
353.4942	0.1472
353.7032	0.1464
353.9121	0.1474
354.1211	0.1498
354.33	0.1436
354.5389	0.1634
354.7478	0.1528
354.9567	0.1477
355.1655	0.1517
355.3744	0.1655
355.5833	0.1455
355.7921	0.1691
356.0009	0.1593
356.2097	0.1778
356.4185	0.1545
356.6273	0.1545
356.8361	0.1602
357.0448	0.1509
357.2536	0.1435
357.4623	0.1702
357.671	0.1639
357.8797	0.1599
358.0884	0.1624
358.2971	0.1562
358.5057	0.1536
358.7144	0.1769
358.923	0.1667
359.1316	0.1658
359.3402	0.156
359.5488	0.1666
359.7574	0.1622
359.966	0.1734
360.1746	0.177
360.3831	0.1786
360.5916	0.1637
360.8002	0.1588
361.0087	0.1892
361.2172	0.1733
361.4256	0.171
361.6341	0.1745
361.8426	0.1792
362.051	0.1726
362.2594	0.1808
362.4678	0.1837
362.6762	0.1911
362.8846	0.1824
363.093	0.1759
363.3014	0.1975
363.5097	0.1683
363.718	0.1763
363.9264	0.1693
364.1347	0.1849
364.343	0.1829
364.5513	0.1949
364.7595	0.2023
364.9678	0.2011
365.176	0.1987
365.3842	0.2023
365.5925	0.1986
365.8007	0.191
366.0089	0.1869
366.217	0.1845
366.4252	0.1932
366.6333	0.1957
366.8415	0.1941
367.0496	0.1845
367.2577	0.187
367.4658	0.2066
367.6739	0.1924
367.882	0.1993
368.09	0.1857
368.2981	0.1822
368.5061	0.186
368.7141	0.2077
368.9221	0.2034
369.1301	0.1994
369.3381	0.1909
369.5461	0.1973
369.754	0.2046
369.962	0.2167
370.1699	0.1888
370.3778	0.2041
370.5857	0.1815
370.7936	0.2017
371.0015	0.2029
371.2093	0.2134
371.4172	0.2023
371.625	0.1891
371.8328	0.201
372.0406	0.2223
372.2484	0.1973
372.4562	0.2015
372.664	0.2113
372.8717	0.2162
373.0795	0.1872
373.2872	0.213
373.4949	0.2004
373.7026	0.2114
373.9103	0.2213
374.118	0.2054
374.3256	0.2099
374.5333	0.2082
374.7409	0.2184
374.9485	0.2235
375.1561	0.2164
375.3637	0.2135
375.5713	0.2052
375.7789	0.2263
375.9864	0.2137
376.194	0.2112
376.4015	0.2128
376.609	0.2333
376.8165	0.2014
377.024	0.2048
377.2315	0.2336
377.4389	0.2324
377.6464	0.2275
377.8538	0.227
378.0612	0.2225
378.2686	0.2186
378.476	0.242
378.6834	0.2235
378.8908	0.219
379.0981	0.2218
379.3055	0.221
379.5128	0.2186
379.7201	0.2157
379.9274	0.2154
380.1347	0.2127
380.342	0.2399
380.5492	0.2219
380.7565	0.221
380.9637	0.2266
381.1709	0.228
381.3781	0.2265
381.5853	0.2237
381.7925	0.2366
381.9997	0.2296
382.2068	0.2297
382.4139	0.2441
382.6211	0.2127
382.8282	0.2247
383.0353	0.2178
383.2424	0.2397
383.4494	0.2457
383.6565	0.2326
383.8635	0.2102
384.0706	0.2241
384.2776	0.2446
384.4846	0.2263
384.6916	0.2373
384.8986	0.2293
385.1055	0.2449
385.3125	0.2193
385.5194	0.2094
385.7263	0.2401
385.9333	0.2246
386.1402	0.2215
386.347	0.232
386.5539	0.2154
386.7608	0.234
386.9676	0.2143
387.1744	0.2331
387.3813	0.2282
387.5881	0.2306
387.7948	0.2402
388.0016	0.2294
388.2084	0.2203
388.4151	0.1994
388.6219	0.2252
388.8286	0.2237
389.0353	0.2478
389.242	0.2432
389.4487	0.2225
389.6553	0.208
389.862	0.1987
390.0686	0.2096
390.2753	0.2076
390.4819	0.2213
390.6885	0.226
390.8951	0.216
391.1016	0.2186
391.3082	0.2212
391.5147	0.2145
391.7213	0.2285
391.9278	0.2081
392.1343	0.2041
392.3408	0.211
392.5473	0.1957
392.7537	0.2116
392.9602	0.2107
393.1666	0.2012
393.373	0.2086
393.5794	0.2041
393.7858	0.1918
393.9922	0.1947
394.1986	0.2067
394.4049	0.2202
394.6113	0.1993
394.8176	0.1942
395.0239	0.1964
395.2302	0.199
395.4365	0.1947
395.6428	0.2148
395.8491	0.193
396.0553	0.19
396.2615	0.2003
396.4678	0.184
396.674	0.1726
396.8802	0.1866
397.0863	0.1979
397.2925	0.1776
397.4987	0.1835
397.7048	0.1896
397.9109	0.2072
398.117	0.1871
398.3231	0.1763
398.5292	0.1895
398.7353	0.1945
398.9413	0.1949
399.1474	0.2003
399.3534	0.1796
399.5594	0.1791
399.7654	0.203
399.9714	0.2096
400.1774	0.1808
400.3833	0.1902
400.5893	0.2169
400.7952	0.1808
401.0011	0.1989
401.207	0.1958
401.4129	0.1801
401.6188	0.1932
401.8247	0.1969
402.0305	0.1751
402.2364	0.1738
402.4422	0.1984
402.648	0.2148
402.8538	0.1841
403.0596	0.1824
403.2654	0.1934
403.4711	0.1756
403.6768	0.1954
403.8826	0.1932
404.0883	0.1966
404.294	0.1909
404.4997	0.183
404.7054	0.2069
404.911	0.1833
405.1167	0.1862
405.3223	0.2009
405.5279	0.2026
405.7335	0.1861
405.9391	0.1917
406.1447	0.1964
406.3502	0.1992
406.5558	0.1841
406.7613	0.1758
406.9668	0.1897
407.1724	0.1725
407.3778	0.1918
407.5833	0.1817
407.7888	0.1857
407.9942	0.2086
408.1997	0.1902
408.4051	0.1745
408.6105	0.1895
408.8159	0.1832
409.0213	0.1715
409.2267	0.2127
409.432	0.1649
409.6374	0.1864
409.8427	0.1761
410.048	0.1698
410.2533	0.1718
410.4586	0.1677
410.6639	0.1725
410.8691	0.1734
411.0744	0.1754
411.2796	0.174
411.4848	0.1771
411.69	0.1737
411.8952	0.1895
412.1004	0.1788
412.3056	0.1966
412.5107	0.1804
412.7158	0.1933
412.921	0.1693
413.1261	0.1784
413.3312	0.1749
413.5362	0.1862
413.7413	0.1743
413.9464	0.1696
414.1514	0.1857
414.3564	0.1682
414.5614	0.1693
414.7664	0.1914
414.9714	0.1587
415.1764	0.191
415.3813	0.1862
415.5863	0.1879
415.7912	0.1766
415.9961	0.1919
416.201	0.1656
416.4059	0.169
416.6108	0.1661
416.8156	0.2052
417.0205	0.179
417.2253	0.1783
417.4301	0.1844
417.6349	0.1641
417.8397	0.1599
418.0445	0.1736
418.2492	0.1932
418.454	0.1774
418.6587	0.174
418.8634	0.1784
419.0681	0.1725
419.2728	0.1759
419.4775	0.1775
419.6822	0.1556
419.8868	0.138
420.0915	0.1771
420.2961	0.1595
420.5007	0.1668
420.7053	0.1514
420.9099	0.1738
421.1144	0.1618
421.319	0.1704
421.5235	0.1605
421.728	0.1697
421.9325	0.1558
422.137	0.1624
422.3415	0.1748
422.546	0.1757
422.7504	0.1549
422.9549	0.1731
423.1593	0.17
423.3637	0.1692
423.5681	0.156
423.7725	0.1321
423.9769	0.1577
424.1812	0.139
424.3856	0.1518
424.5899	0.172
424.7942	0.1427
424.9985	0.1627
425.2028	0.1431
425.4071	0.1793
425.6113	0.1361
425.8156	0.1523
426.0198	0.1498
426.224	0.1302
426.4282	0.1391
426.6324	0.143
426.8366	0.143
