Data from MonoPyChalIsomerACN10uM380nmA_Absorbance_13-38-29-249.txt Node
Date: Fri Jul 05 13:38:29 BST 2024
User: LASERRRRR
Spectrometer: FLMT03099
Trigger mode: 0
Integration Time (sec): 1.000000E-1
Scans to average: 1
Electric dark correction enabled: true
Nonlinearity correction enabled: false
Boxcar width: 0
XAxis mode: Wavelengths
Number of Pixels in Spectrum: 3648
>>>>>Begin Spectral Data<<<<<
179.3399	-0.1235
179.5586	-0.1235
179.7771	-0.1235
179.9957	-0
180.2143	-0
180.4329	0.5769
180.6514	-0
180.8699	-0
181.0885	-0.0213
181.307	0.0639
181.5255	-0
181.744	-0.5691
181.9625	-0
182.181	-0.7312
182.3994	-0
182.6179	0.1853
182.8363	-0
183.0547	-0.414
183.2732	-0.006
183.4916	0.1188
183.71	0.1183
183.9284	0.0887
184.1467	-0.1516
184.3651	-0.1253
184.5835	-0.0913
184.8018	0.0264
185.0201	0.0225
185.2385	-0.1477
185.4568	0.1342
185.6751	-0.168
185.8934	0.2321
186.1117	0.0094
186.3299	0.0321
186.5482	0.1262
186.7664	-0.0763
186.9847	-0.0536
187.2029	-0.0761
187.4211	-0.0231
187.6393	0.1691
187.8575	-0.2418
188.0757	0.1405
188.2939	-0.0657
188.512	0.2331
188.7302	-0.0144
188.9483	-0.138
189.1665	0.0676
189.3846	-0.2968
189.6027	0.1732
189.8208	0.2452
190.0389	-0.0241
190.257	0.227
190.475	0.0693
190.6931	0.382
190.9111	0.2808
191.1292	0.0211
191.3472	0.3147
191.5652	0.2616
191.7832	0.3364
192.0012	0.378
192.2192	0.2855
192.4371	0.3156
192.6551	0.5468
192.873	0.3957
193.091	0.2531
193.3089	0.5863
193.5268	0.6809
193.7447	0.344
193.9626	0.3635
194.1805	0.6499
194.3984	0.5988
194.6162	0.6066
194.8341	0.4133
195.0519	0.5243
195.2697	0.9119
195.4875	0.6348
195.7054	0.5103
195.9231	0.5606
196.1409	0.7549
196.3587	0.6549
196.5765	0.6034
196.7942	0.5687
197.012	0.5195
197.2297	0.7893
197.4474	0.7352
197.6651	0.7408
197.8828	0.692
198.1005	0.5882
198.3182	0.6376
198.5358	0.8388
198.7535	0.6365
198.9711	0.6598
199.1888	0.7373
199.4064	1.0721
199.624	0.7046
199.8416	0.7439
200.0592	0.8354
200.2767	0.8197
200.4943	0.809
200.7119	0.7391
200.9294	0.796
201.1469	0.7536
201.3645	0.6665
201.582	0.815
201.7995	0.7309
202.017	0.5647
202.2344	0.7398
202.4519	0.8287
202.6694	0.7575
202.8868	0.7526
203.1042	0.7356
203.3217	0.8142
203.5391	0.8103
203.7565	0.575
203.9739	0.7628
204.1913	0.7316
204.4086	0.7507
204.626	0.8244
204.8433	0.7611
205.0607	0.7873
205.278	0.8337
205.4953	0.81
205.7126	0.7992
205.9299	0.976
206.1472	0.9188
206.3644	0.692
206.5817	0.8131
206.7989	0.8513
207.0162	0.7813
207.2334	0.8348
207.4506	0.6548
207.6678	0.7648
207.885	0.8453
208.1022	0.8019
208.3194	0.8549
208.5365	0.7419
208.7537	0.674
208.9708	0.6739
209.1879	0.8892
209.405	0.8799
209.6222	0.8935
209.8392	0.7293
210.0563	0.7434
210.2734	0.8913
210.4905	0.7929
210.7075	0.8473
210.9245	0.701
211.1416	0.8486
211.3586	0.8003
211.5756	0.7557
211.7926	0.7725
212.0096	0.7104
212.2265	0.6907
212.4435	0.768
212.6604	0.7999
212.8774	0.7811
213.0943	0.7793
213.3112	0.6935
213.5281	0.697
213.745	0.6546
213.9619	0.7785
214.1788	0.7104
214.3956	0.6653
214.6125	0.6629
214.8293	0.6731
215.0461	0.6845
215.2629	0.6658
215.4798	0.6898
215.6965	0.6034
215.9133	0.6596
216.1301	0.6736
216.3469	0.6337
216.5636	0.6262
216.7803	0.6341
216.9971	0.6516
217.2138	0.6029
217.4305	0.6284
217.6472	0.5778
217.8639	0.599
218.0805	0.6231
218.2972	0.5468
218.5138	0.5347
218.7305	0.5702
218.9471	0.5477
219.1637	0.5367
219.3803	0.5211
219.5969	0.5195
219.8135	0.5282
220.0301	0.5162
220.2466	0.5583
220.4632	0.5129
220.6797	0.4787
220.8962	0.5161
221.1127	0.5042
221.3292	0.5169
221.5457	0.5225
221.7622	0.4956
221.9787	0.4977
222.1951	0.4935
222.4116	0.5213
222.628	0.5117
222.8444	0.5331
223.0608	0.5272
223.2772	0.5022
223.4936	0.535
223.71	0.5011
223.9264	0.5357
224.1427	0.5244
224.3591	0.5404
224.5754	0.5142
224.7917	0.528
225.008	0.5306
225.2243	0.5088
225.4406	0.5628
225.6569	0.5547
225.8732	0.5093
226.0894	0.5201
226.3057	0.5054
226.5219	0.5427
226.7381	0.533
226.9543	0.5094
227.1705	0.5321
227.3867	0.5206
227.6029	0.5449
227.8191	0.5615
228.0352	0.5564
228.2513	0.5247
228.4675	0.5415
228.6836	0.5534
228.8997	0.5349
229.1158	0.5457
229.3319	0.5601
229.548	0.5285
229.764	0.5394
229.9801	0.5496
230.1961	0.5606
230.4121	0.5601
230.6282	0.5661
230.8442	0.551
231.0602	0.5664
231.2761	0.5623
231.4921	0.5652
231.7081	0.5821
231.924	0.5576
232.14	0.5537
232.3559	0.5526
232.5718	0.5793
232.7877	0.5253
233.0036	0.5265
233.2195	0.547
233.4353	0.5413
233.6512	0.5418
233.867	0.5452
234.0829	0.5625
234.2987	0.5496
234.5145	0.5691
234.7303	0.5529
234.9461	0.5792
235.1619	0.5752
235.3776	0.5462
235.5934	0.5554
235.8091	0.5515
236.0249	0.545
236.2406	0.5486
236.4563	0.521
236.672	0.5321
236.8877	0.5702
237.1034	0.5559
237.319	0.5442
237.5347	0.5556
237.7503	0.5448
237.966	0.5616
238.1816	0.5288
238.3972	0.557
238.6128	0.5243
238.8284	0.5236
239.0439	0.5461
239.2595	0.5432
239.475	0.5316
239.6906	0.5242
239.9061	0.5174
240.1216	0.5201
240.3371	0.5241
240.5526	0.5024
240.7681	0.5099
240.9836	0.5079
241.199	0.5126
241.4145	0.48
241.6299	0.4811
241.8453	0.4785
242.0607	0.4701
242.2761	0.4517
242.4915	0.4589
242.7069	0.4468
242.9223	0.4313
243.1376	0.4209
243.353	0.4217
243.5683	0.4254
243.7836	0.4158
243.9989	0.398
244.2142	0.3832
244.4295	0.3951
244.6448	0.3863
244.86	0.3587
245.0753	0.3636
245.2905	0.3483
245.5057	0.3354
245.721	0.3352
245.9362	0.308
246.1514	0.3349
246.3665	0.3075
246.5817	0.3167
246.7969	0.3071
247.012	0.3011
247.2271	0.2844
247.4423	0.2899
247.6574	0.2918
247.8725	0.286
248.0876	0.2781
248.3026	0.2728
248.5177	0.2764
248.7328	0.2595
248.9478	0.2457
249.1628	0.2593
249.3779	0.2475
249.5929	0.2428
249.8079	0.2656
250.0228	0.2408
250.2378	0.2396
250.4528	0.2294
250.6677	0.2289
250.8827	0.2276
251.0976	0.2204
251.3125	0.2203
251.5274	0.2139
251.7423	0.2274
251.9572	0.2345
252.172	0.2074
252.3869	0.2171
252.6017	0.2134
252.8166	0.1905
253.0314	0.1902
253.2462	0.1967
253.461	0.1999
253.6758	0.2068
253.8906	0.2034
254.1053	0.2092
254.3201	0.1981
254.5348	0.2061
254.7496	0.2026
254.9643	0.1876
255.179	0.189
255.3937	0.19
255.6083	0.2006
255.823	0.1929
256.0377	0.187
256.2523	0.1992
256.467	0.1767
256.6816	0.1978
256.8962	0.1904
257.1108	0.185
257.3254	0.2035
257.54	0.1741
257.7545	0.1922
257.9691	0.1898
258.1836	0.181
258.3981	0.2062
258.6127	0.203
258.8272	0.1863
259.0417	0.1826
259.2561	0.1799
259.4706	0.1895
259.6851	0.1818
259.8995	0.1754
260.114	0.1799
260.3284	0.169
260.5428	0.1781
260.7572	0.1806
260.9716	0.1878
261.186	0.1774
261.4003	0.188
261.6147	0.1847
261.829	0.1902
262.0433	0.178
262.2577	0.1863
262.472	0.1883
262.6863	0.176
262.9005	0.1818
263.1148	0.1809
263.3291	0.1624
263.5433	0.1754
263.7576	0.182
263.9718	0.1822
264.186	0.1803
264.4002	0.1794
264.6144	0.1693
264.8286	0.1901
265.0427	0.1743
265.2569	0.176
265.471	0.1696
265.6851	0.1716
265.8993	0.1749
266.1134	0.1658
266.3275	0.1746
266.5415	0.1691
266.7556	0.1799
266.9697	0.1819
267.1837	0.1832
267.3978	0.1648
267.6118	0.1753
267.8258	0.1979
268.0398	0.1604
268.2538	0.1941
268.4677	0.1786
268.6817	0.175
268.8957	0.1653
269.1096	0.1829
269.3235	0.1863
269.5374	0.1778
269.7514	0.1583
269.9652	0.1757
270.1791	0.1614
270.393	0.1618
270.6068	0.1729
270.8207	0.1591
271.0345	0.1573
271.2483	0.1675
271.4622	0.1681
271.676	0.1654
271.8897	0.1652
272.1035	0.1544
272.3173	0.1511
272.531	0.1605
272.7448	0.148
272.9585	0.1518
273.1722	0.164
273.3859	0.1668
273.5996	0.1398
273.8133	0.1534
274.0269	0.1468
274.2406	0.1614
274.4542	0.1598
274.6679	0.1521
274.8815	0.1632
275.0951	0.1574
275.3087	0.1681
275.5223	0.1628
275.7358	0.1655
275.9494	0.1614
276.1629	0.1561
276.3765	0.1572
276.59	0.1552
276.8035	0.1682
277.017	0.1489
277.2305	0.1573
277.444	0.1676
277.6574	0.1553
277.8709	0.1574
278.0843	0.1492
278.2978	0.1543
278.5112	0.1519
278.7246	0.159
278.938	0.171
279.1513	0.1675
279.3647	0.1633
279.5781	0.1584
279.7914	0.1599
280.0047	0.1752
280.2181	0.1592
280.4314	0.1727
280.6447	0.167
280.8579	0.1666
281.0712	0.1722
281.2845	0.1701
281.4977	0.1844
281.711	0.1662
281.9242	0.1769
282.1374	0.1626
282.3506	0.1463
282.5638	0.1712
282.7769	0.16
282.9901	0.1738
283.2033	0.1705
283.4164	0.1765
283.6295	0.1669
283.8426	0.1612
284.0557	0.1758
284.2688	0.1787
284.4819	0.1665
284.695	0.1603
284.908	0.1795
285.1211	0.1684
285.3341	0.1694
285.5471	0.1608
285.7601	0.1797
285.9731	0.1636
286.1861	0.166
286.3991	0.1792
286.612	0.1751
286.825	0.1734
287.0379	0.1873
287.2508	0.1762
287.4637	0.1875
287.6766	0.1681
287.8895	0.1823
288.1024	0.1897
288.3152	0.1781
288.5281	0.1793
288.7409	0.1792
288.9538	0.1645
289.1666	0.1788
289.3794	0.1761
289.5922	0.1776
289.8049	0.1788
290.0177	0.1746
290.2304	0.1868
290.4432	0.1914
290.6559	0.1826
290.8686	0.1957
291.0813	0.1772
291.294	0.183
291.5067	0.1807
291.7194	0.1807
291.932	0.1833
292.1447	0.1716
292.3573	0.1703
292.5699	0.1849
292.7825	0.1753
292.9951	0.1822
293.2077	0.1887
293.4203	0.1768
293.6328	0.1668
293.8454	0.1857
294.0579	0.1743
294.2704	0.1769
294.4829	0.1687
294.6954	0.1789
294.9079	0.1868
295.1204	0.1821
295.3328	0.1768
295.5453	0.1727
295.7577	0.1888
295.9701	0.1733
296.1825	0.178
296.3949	0.1757
296.6073	0.1793
296.8197	0.1652
297.0321	0.1944
297.2444	0.1569
297.4567	0.177
297.6691	0.1775
297.8814	0.1772
298.0937	0.1755
298.306	0.1816
298.5182	0.1763
298.7305	0.178
298.9428	0.1732
299.155	0.1764
299.3672	0.165
299.5794	0.1676
299.7916	0.1709
300.0038	0.1792
300.216	0.1788
300.4282	0.1818
300.6403	0.173
300.8525	0.1752
301.0646	0.1704
301.2767	0.1753
301.4888	0.1756
301.7009	0.1728
301.913	0.1755
302.125	0.177
302.3371	0.1694
302.5491	0.1649
302.7612	0.1789
302.9732	0.1818
303.1852	0.1687
303.3972	0.1744
303.6092	0.17
303.8211	0.1554
304.0331	0.1635
304.245	0.1666
304.457	0.1639
304.6689	0.1562
304.8808	0.1852
305.0927	0.1615
305.3046	0.1588
305.5164	0.1705
305.7283	0.1581
305.9401	0.1545
306.152	0.1611
306.3638	0.1608
306.5756	0.1488
306.7874	0.1592
306.9992	0.1666
307.2109	0.1455
307.4227	0.135
307.6344	0.1516
307.8462	0.1428
308.0579	0.1436
308.2696	0.1416
308.4813	0.1478
308.693	0.1412
308.9046	0.1439
309.1163	0.1369
309.328	0.1372
309.5396	0.1228
309.7512	0.1218
309.9628	0.1189
310.1744	0.1223
310.386	0.1213
310.5976	0.1294
310.8091	0.123
311.0207	0.1157
311.2322	0.1246
311.4437	0.1159
311.6552	0.1104
311.8667	0.1221
312.0782	0.0918
312.2897	0.1067
312.5012	0.1139
312.7126	0.1024
312.924	0.0974
313.1355	0.1173
313.3469	0.1122
313.5583	0.1097
313.7696	0.0949
313.981	0.106
314.1924	0.0917
314.4037	0.1009
314.6151	0.112
314.8264	0.1037
315.0377	0.1023
315.249	0.1039
315.4603	0.1084
315.6716	0.1032
315.8828	0.0958
316.0941	0.1009
316.3053	0.1001
316.5165	0.0819
316.7277	0.0927
316.9389	0.0961
317.1501	0.0926
317.3613	0.1018
317.5724	0.0827
317.7836	0.0955
317.9947	0.0903
318.2058	0.0851
318.417	0.0918
318.6281	0.0865
318.8391	0.0959
319.0502	0.0882
319.2613	0.0982
319.4723	0.1016
319.6834	0.0988
319.8944	0.0908
320.1054	0.097
320.3164	0.0955
320.5274	0.0946
320.7383	0.0905
320.9493	0.1056
321.1602	0.1027
321.3712	0.0815
321.5821	0.0971
321.793	0.0937
322.0039	0.0873
322.2148	0.0907
322.4257	0.0951
322.6365	0.0977
322.8474	0.0955
323.0582	0.0892
323.269	0.0842
323.4798	0.1093
323.6906	0.0927
323.9014	0.109
324.1122	0.1024
324.3229	0.0876
324.5337	0.0899
324.7444	0.0836
324.9551	0.1006
325.1658	0.1116
325.3765	0.0995
325.5872	0.1074
325.7979	0.0925
326.0085	0.1017
326.2192	0.0973
326.4298	0.0916
326.6404	0.0922
326.851	0.0895
327.0616	0.0864
327.2722	0.1011
327.4828	0.1116
327.6933	0.0948
327.9039	0.105
328.1144	0.096
328.3249	0.1028
328.5354	0.0905
328.7459	0.1006
328.9564	0.0937
329.1669	0.1084
329.3773	0.1018
329.5878	0.1031
329.7982	0.1052
330.0086	0.0985
330.219	0.1117
330.4294	0.0898
330.6398	0.0919
330.8502	0.0947
331.0605	0.1046
331.2708	0.0867
331.4812	0.1073
331.6915	0.105
331.9018	0.1019
332.1121	0.0978
332.3224	0.0956
332.5326	0.1057
332.7429	0.1047
332.9531	0.1067
333.1633	0.1018
333.3735	0.1029
333.5837	0.1031
333.7939	0.0862
334.0041	0.1085
334.2143	0.0986
334.4244	0.0909
334.6346	0.0871
334.8447	0.1122
335.0548	0.0965
335.2649	0.1008
335.475	0.1083
335.685	0.1014
335.8951	0.1103
336.1051	0.1126
336.3152	0.1125
336.5252	0.0982
336.7352	0.1127
336.9452	0.1164
337.1552	0.1097
337.3652	0.1018
337.5751	0.1055
337.7851	0.1192
337.995	0.0931
338.2049	0.1128
338.4148	0.1107
338.6247	0.1084
338.8346	0.1099
339.0445	0.1023
339.2543	0.1026
339.4642	0.1061
339.674	0.0915
339.8838	0.1151
340.0936	0.1133
340.3034	0.1174
340.5132	0.1097
340.7229	0.1159
340.9327	0.1083
341.1424	0.1165
341.3522	0.1239
341.5619	0.1108
341.7716	0.1219
341.9813	0.1108
342.1909	0.1081
342.4006	0.109
342.6102	0.1243
342.8199	0.1184
343.0295	0.1128
343.2391	0.107
343.4487	0.1143
343.6583	0.1164
343.8679	0.1133
344.0774	0.1141
344.287	0.1207
344.4965	0.1144
344.706	0.115
344.9155	0.1289
345.125	0.1118
345.3345	0.1181
345.544	0.1229
345.7534	0.1143
345.9629	0.1205
346.1723	0.1209
346.3817	0.118
346.5911	0.1248
346.8005	0.1293
347.0099	0.1233
347.2193	0.1167
347.4286	0.1226
347.638	0.1357
347.8473	0.1325
348.0566	0.1308
348.2659	0.1264
348.4752	0.1336
348.6845	0.1277
348.8937	0.122
349.103	0.1281
349.3122	0.1191
349.5214	0.1182
349.7306	0.1249
349.9398	0.128
350.149	0.1285
350.3582	0.1296
350.5674	0.1354
350.7765	0.1241
350.9856	0.1419
351.1948	0.1313
351.4039	0.1215
351.613	0.1255
351.822	0.1336
352.0311	0.1437
352.2402	0.1373
352.4492	0.138
352.6582	0.1487
352.8672	0.1396
353.0762	0.1511
353.2852	0.1449
353.4942	0.1312
353.7032	0.1557
353.9121	0.1474
354.1211	0.1444
354.33	0.1479
354.5389	0.1343
354.7478	0.1403
354.9567	0.1379
355.1655	0.1399
355.3744	0.1418
355.5833	0.1477
355.7921	0.1693
356.0009	0.1466
356.2097	0.1764
356.4185	0.1572
356.6273	0.1555
356.8361	0.1629
357.0448	0.154
357.2536	0.1491
357.4623	0.1549
357.671	0.1438
357.8797	0.1768
358.0884	0.1707
358.2971	0.1733
358.5057	0.1603
358.7144	0.1666
358.923	0.1734
359.1316	0.1621
359.3402	0.1754
359.5488	0.1699
359.7574	0.1688
359.966	0.1684
360.1746	0.1709
360.3831	0.1716
360.5916	0.1739
360.8002	0.1557
361.0087	0.1878
361.2172	0.1607
361.4256	0.1659
361.6341	0.1836
361.8426	0.1662
362.051	0.17
362.2594	0.183
362.4678	0.1703
362.6762	0.1982
362.8846	0.1833
363.093	0.1768
363.3014	0.172
363.5097	0.1749
363.718	0.1921
363.9264	0.1934
364.1347	0.1862
364.343	0.1952
364.5513	0.199
364.7595	0.2088
364.9678	0.202
365.176	0.198
365.3842	0.1967
365.5925	0.2027
365.8007	0.1921
366.0089	0.2001
366.217	0.1936
366.4252	0.2128
366.6333	0.2094
366.8415	0.2009
367.0496	0.2009
367.2577	0.2117
367.4658	0.22
367.6739	0.207
367.882	0.2018
368.09	0.2017
368.2981	0.206
368.5061	0.1959
368.7141	0.2101
368.9221	0.2132
369.1301	0.2007
369.3381	0.2042
369.5461	0.22
369.754	0.2053
369.962	0.2248
370.1699	0.2256
370.3778	0.2214
370.5857	0.2126
370.7936	0.2136
371.0015	0.2155
371.2093	0.2313
371.4172	0.2343
371.625	0.2108
371.8328	0.2154
372.0406	0.2198
372.2484	0.2275
372.4562	0.2306
372.664	0.207
372.8717	0.2395
373.0795	0.2136
373.2872	0.2412
373.4949	0.2224
373.7026	0.2194
373.9103	0.2354
374.118	0.2217
374.3256	0.2424
374.5333	0.231
374.7409	0.2431
374.9485	0.2541
375.1561	0.2252
375.3637	0.2537
375.5713	0.2271
375.7789	0.2622
375.9864	0.2393
376.194	0.2392
376.4015	0.2337
376.609	0.2465
376.8165	0.2407
377.024	0.2223
377.2315	0.2327
377.4389	0.2335
377.6464	0.2503
377.8538	0.2552
378.0612	0.2554
378.2686	0.2479
378.476	0.2502
378.6834	0.2553
378.8908	0.2546
379.0981	0.2437
379.3055	0.2545
379.5128	0.2286
379.7201	0.2551
379.9274	0.248
380.1347	0.2479
380.342	0.2609
380.5492	0.251
380.7565	0.2628
380.9637	0.2559
381.1709	0.2481
381.3781	0.255
381.5853	0.2741
381.7925	0.2584
381.9997	0.2708
382.2068	0.2682
382.4139	0.2664
382.6211	0.2355
382.8282	0.2489
383.0353	0.2526
383.2424	0.2623
383.4494	0.2699
383.6565	0.2655
383.8635	0.2614
384.0706	0.2713
384.2776	0.2629
384.4846	0.2545
384.6916	0.2644
384.8986	0.2538
385.1055	0.2668
385.3125	0.2668
385.5194	0.2543
385.7263	0.2722
385.9333	0.2638
386.1402	0.2613
386.347	0.2594
386.5539	0.2535
386.7608	0.2679
386.9676	0.2514
387.1744	0.2582
387.3813	0.2776
387.5881	0.27
387.7948	0.2572
388.0016	0.2674
388.2084	0.2636
388.4151	0.2564
388.6219	0.2537
388.8286	0.2547
389.0353	0.2731
389.242	0.2461
389.4487	0.2468
389.6553	0.249
389.862	0.2383
390.0686	0.2484
390.2753	0.2496
390.4819	0.2468
390.6885	0.2493
390.8951	0.2448
391.1016	0.2459
391.3082	0.248
391.5147	0.2421
391.7213	0.2568
391.9278	0.2361
392.1343	0.2377
392.3408	0.2525
392.5473	0.2423
392.7537	0.2251
392.9602	0.2342
393.1666	0.2464
393.373	0.2276
393.5794	0.2448
393.7858	0.2436
393.9922	0.2474
394.1986	0.2368
394.4049	0.2185
394.6113	0.2202
394.8176	0.2292
395.0239	0.2425
395.2302	0.2242
395.4365	0.2377
395.6428	0.2257
395.8491	0.2156
396.0553	0.2251
396.2615	0.2228
396.4678	0.2122
396.674	0.208
396.8802	0.2372
397.0863	0.2398
397.2925	0.2209
397.4987	0.2149
397.7048	0.2159
397.9109	0.2181
398.117	0.2045
398.3231	0.2186
398.5292	0.2435
398.7353	0.22
398.9413	0.2219
399.1474	0.2236
399.3534	0.2101
399.5594	0.2028
399.7654	0.23
399.9714	0.218
400.1774	0.211
400.3833	0.2226
400.5893	0.227
400.7952	0.2132
401.0011	0.2168
401.207	0.2329
401.4129	0.2287
401.6188	0.2141
401.8247	0.2424
402.0305	0.2037
402.2364	0.2092
402.4422	0.254
402.648	0.2317
402.8538	0.225
403.0596	0.2051
403.2654	0.221
403.4711	0.2299
403.6768	0.2208
403.8826	0.2272
404.0883	0.2305
404.294	0.2271
404.4997	0.2274
404.7054	0.2142
404.911	0.2161
405.1167	0.2173
405.3223	0.2298
405.5279	0.216
405.7335	0.2188
405.9391	0.2256
406.1447	0.2032
406.3502	0.2374
406.5558	0.2012
406.7613	0.2262
406.9668	0.2405
407.1724	0.2062
407.3778	0.2169
407.5833	0.2059
407.7888	0.2282
407.9942	0.2363
408.1997	0.2291
408.4051	0.2203
408.6105	0.222
408.8159	0.2116
409.0213	0.2184
409.2267	0.2367
409.432	0.2066
409.6374	0.2257
409.8427	0.205
410.048	0.236
410.2533	0.212
410.4586	0.2201
410.6639	0.2146
410.8691	0.2127
411.0744	0.2057
411.2796	0.2039
411.4848	0.2219
411.69	0.2091
411.8952	0.2419
412.1004	0.2262
412.3056	0.2332
412.5107	0.2081
412.7158	0.2284
412.921	0.2164
413.1261	0.2219
413.3312	0.2074
413.5362	0.223
413.7413	0.2328
413.9464	0.2181
414.1514	0.2265
414.3564	0.2242
414.5614	0.2082
414.7664	0.2147
414.9714	0.2173
415.1764	0.2083
415.3813	0.219
415.5863	0.2186
415.7912	0.2191
415.9961	0.2208
416.201	0.2153
416.4059	0.2134
416.6108	0.2066
416.8156	0.228
417.0205	0.224
417.2253	0.1968
417.4301	0.211
417.6349	0.2133
417.8397	0.2041
418.0445	0.2177
418.2492	0.2409
418.454	0.217
418.6587	0.1992
418.8634	0.2227
419.0681	0.196
419.2728	0.2056
419.4775	0.2042
419.6822	0.1833
419.8868	0.1854
420.0915	0.2127
420.2961	0.189
420.5007	0.1931
420.7053	0.1917
420.9099	0.2149
421.1144	0.2013
421.319	0.1852
421.5235	0.2057
421.728	0.2104
421.9325	0.2037
422.137	0.2088
422.3415	0.1975
422.546	0.1882
422.7504	0.1951
422.9549	0.2029
423.1593	0.2032
423.3637	0.2043
423.5681	0.1801
423.7725	0.1992
423.9769	0.186
424.1812	0.2002
424.3856	0.1848
424.5899	0.1994
424.7942	0.1812
424.9985	0.1753
425.2028	0.1938
425.4071	0.2117
425.6113	0.1859
425.8156	0.1848
426.0198	0.1777
426.224	0.1689
426.4282	0.1704
426.6324	0.1844
