Data from MonoPyChalIsomerACN10uM380nmA_Absorbance_13-38-34-349.txt Node
Date: Fri Jul 05 13:38:34 BST 2024
User: LASERRRRR
Spectrometer: FLMT03099
Trigger mode: 0
Integration Time (sec): 1.000000E-1
Scans to average: 1
Electric dark correction enabled: true
Nonlinearity correction enabled: false
Boxcar width: 0
XAxis mode: Wavelengths
Number of Pixels in Spectrum: 3648
>>>>>Begin Spectral Data<<<<<
179.3399	0.4345
179.5586	0.4345
179.7771	0.4345
179.9957	-0
180.2143	-0
180.4329	-0
180.6514	-0
180.8699	-0
181.0885	-0.1638
181.307	0.1169
181.5255	-0.4288
181.744	-0.3829
181.9625	-0
182.181	-1.1035
182.3994	-0
182.6179	0.4592
182.8363	0.09
183.0547	-0.1206
183.2732	0.1176
183.4916	0.1563
183.71	0.0893
183.9284	0.0949
184.1467	-0.0714
184.3651	0.008
184.5835	-0.0943
184.8018	0.2637
185.0201	-0.0971
185.2385	-0.1684
185.4568	0.2879
185.6751	0.2686
185.8934	0.3921
186.1117	0.1486
186.3299	0.1147
186.5482	0.3591
186.7664	-0.0952
186.9847	-0.1502
187.2029	0.1399
187.4211	0.1018
187.6393	0.0425
187.8575	-0.025
188.0757	0.2346
188.2939	0.0531
188.512	0.2354
188.7302	0.1419
188.9483	0.0173
189.1665	0.247
189.3846	-0.3267
189.6027	0.3808
189.8208	0.2266
190.0389	0.1758
190.257	-0.0039
190.475	0.2047
190.6931	0.3531
190.9111	0.2817
191.1292	0.2621
191.3472	0.4057
191.5652	0.2656
191.7832	0.5669
192.0012	0.3637
192.2192	0.6199
192.4371	0.757
192.6551	0.513
192.873	0.3749
193.091	0.3245
193.3089	0.5333
193.5268	0.5182
193.7447	0.373
193.9626	0.5603
194.1805	0.5854
194.3984	0.8539
194.6162	0.577
194.8341	0.5799
195.0519	0.5175
195.2697	0.9939
195.4875	1.0374
195.7054	0.6861
195.9231	0.5725
196.1409	0.6921
196.3587	0.7048
196.5765	0.5827
196.7942	0.7753
197.012	0.6968
197.2297	0.6601
197.4474	0.7773
197.6651	0.6987
197.8828	0.5894
198.1005	0.7143
198.3182	0.6846
198.5358	0.9308
198.7535	0.6948
198.9711	0.6698
199.1888	0.7776
199.4064	0.9348
199.624	0.8281
199.8416	0.804
200.0592	0.8566
200.2767	0.7616
200.4943	0.8398
200.7119	1.0949
200.9294	0.8812
201.1469	0.7236
201.3645	0.7005
201.582	0.7544
201.7995	0.7964
202.017	0.7202
202.2344	0.8722
202.4519	0.9524
202.6694	0.878
202.8868	0.7947
203.1042	0.8792
203.3217	1.0069
203.5391	0.8181
203.7565	0.7615
203.9739	0.7438
204.1913	0.7119
204.4086	0.8889
204.626	0.9504
204.8433	0.8182
205.0607	0.7966
205.278	0.9151
205.4953	0.7983
205.7126	0.726
205.9299	0.9639
206.1472	0.8669
206.3644	0.8899
206.5817	0.9371
206.7989	0.9028
207.0162	0.8731
207.2334	0.7778
207.4506	0.8009
207.6678	0.8501
207.885	0.872
208.1022	0.8584
208.3194	0.8979
208.5365	0.6681
208.7537	0.8626
208.9708	0.679
209.1879	0.8396
209.405	0.9131
209.6222	0.8911
209.8392	0.8549
210.0563	0.7321
210.2734	0.7988
210.4905	0.8185
210.7075	0.815
210.9245	0.7376
211.1416	0.9065
211.3586	0.8585
211.5756	0.6849
211.7926	0.8061
212.0096	0.756
212.2265	0.7274
212.4435	0.8477
212.6604	0.8296
212.8774	0.7244
213.0943	0.7281
213.3112	0.7005
213.5281	0.7362
213.745	0.5978
213.9619	0.767
214.1788	0.6559
214.3956	0.6283
214.6125	0.6454
214.8293	0.6636
215.0461	0.6222
215.2629	0.6385
215.4798	0.7183
215.6965	0.6558
215.9133	0.7051
216.1301	0.6303
216.3469	0.659
216.5636	0.6678
216.7803	0.5884
216.9971	0.6507
217.2138	0.6002
217.4305	0.6394
217.6472	0.5763
217.8639	0.6644
218.0805	0.5771
218.2972	0.5982
218.5138	0.5848
218.7305	0.5744
218.9471	0.5892
219.1637	0.5812
219.3803	0.5519
219.5969	0.5521
219.8135	0.4928
220.0301	0.5359
220.2466	0.5764
220.4632	0.5406
220.6797	0.4935
220.8962	0.4963
221.1127	0.5426
221.3292	0.5267
221.5457	0.4899
221.7622	0.4793
221.9787	0.5308
222.1951	0.4677
222.4116	0.5272
222.628	0.5029
222.8444	0.563
223.0608	0.4865
223.2772	0.5478
223.4936	0.5493
223.71	0.5122
223.9264	0.5398
224.1427	0.5245
224.3591	0.5208
224.5754	0.5196
224.7917	0.5084
225.008	0.5339
225.2243	0.5104
225.4406	0.5772
225.6569	0.5057
225.8732	0.5317
226.0894	0.5212
226.3057	0.5188
226.5219	0.562
226.7381	0.5239
226.9543	0.5379
227.1705	0.5511
227.3867	0.5212
227.6029	0.5475
227.8191	0.5441
228.0352	0.5347
228.2513	0.5482
228.4675	0.543
228.6836	0.5599
228.8997	0.4942
229.1158	0.5562
229.3319	0.5194
229.548	0.5782
229.764	0.5678
229.9801	0.5497
230.1961	0.568
230.4121	0.5374
230.6282	0.5691
230.8442	0.526
231.0602	0.5585
231.2761	0.5755
231.4921	0.581
231.7081	0.578
231.924	0.551
232.14	0.5478
232.3559	0.5341
232.5718	0.578
232.7877	0.5601
233.0036	0.5393
233.2195	0.5433
233.4353	0.5414
233.6512	0.5662
233.867	0.5599
234.0829	0.5382
234.2987	0.5529
234.5145	0.5518
234.7303	0.5501
234.9461	0.565
235.1619	0.5416
235.3776	0.5381
235.5934	0.5242
235.8091	0.5337
236.0249	0.5415
236.2406	0.5294
236.4563	0.5569
236.672	0.5314
236.8877	0.5311
237.1034	0.5427
237.319	0.5386
237.5347	0.5352
237.7503	0.5233
237.966	0.5435
238.1816	0.5453
238.3972	0.5099
238.6128	0.5247
238.8284	0.5275
239.0439	0.5319
239.2595	0.5393
239.475	0.5388
239.6906	0.5285
239.9061	0.5335
240.1216	0.5171
240.3371	0.513
240.5526	0.5018
240.7681	0.5168
240.9836	0.4834
241.199	0.5213
241.4145	0.4989
241.6299	0.4716
241.8453	0.4777
242.0607	0.4938
242.2761	0.478
242.4915	0.4604
242.7069	0.4531
242.9223	0.4437
243.1376	0.4528
243.353	0.4257
243.5683	0.4357
243.7836	0.4118
243.9989	0.4112
244.2142	0.3996
244.4295	0.39
244.6448	0.3811
244.86	0.3874
245.0753	0.381
245.2905	0.3658
245.5057	0.3572
245.721	0.3504
245.9362	0.3654
246.1514	0.3431
246.3665	0.3385
246.5817	0.3155
246.7969	0.3219
247.012	0.3092
247.2271	0.3092
247.4423	0.3113
247.6574	0.3187
247.8725	0.3032
248.0876	0.2819
248.3026	0.2921
248.5177	0.2773
248.7328	0.2827
248.9478	0.2669
249.1628	0.2722
249.3779	0.2871
249.5929	0.258
249.8079	0.2656
250.0228	0.2596
250.2378	0.2454
250.4528	0.2569
250.6677	0.2406
250.8827	0.2442
251.0976	0.2232
251.3125	0.2231
251.5274	0.2281
251.7423	0.2411
251.9572	0.2279
252.172	0.2255
252.3869	0.2185
252.6017	0.2137
252.8166	0.2023
253.0314	0.1917
253.2462	0.1961
253.461	0.2081
253.6758	0.1998
253.8906	0.2187
254.1053	0.1967
254.3201	0.1956
254.5348	0.1977
254.7496	0.2091
254.9643	0.1943
255.179	0.1873
255.3937	0.1908
255.6083	0.1956
255.823	0.1996
256.0377	0.202
256.2523	0.1942
256.467	0.1796
256.6816	0.1994
256.8962	0.19
257.1108	0.1813
257.3254	0.1894
257.54	0.1928
257.7545	0.1959
257.9691	0.1837
258.1836	0.1861
258.3981	0.1865
258.6127	0.1996
258.8272	0.1846
259.0417	0.1894
259.2561	0.1882
259.4706	0.1947
259.6851	0.1971
259.8995	0.1883
260.114	0.19
260.3284	0.1802
260.5428	0.1812
260.7572	0.1869
260.9716	0.1959
261.186	0.18
261.4003	0.197
261.6147	0.1755
261.829	0.1872
262.0433	0.1795
262.2577	0.1788
262.472	0.1867
262.6863	0.1767
262.9005	0.1801
263.1148	0.1848
263.3291	0.1787
263.5433	0.1926
263.7576	0.1716
263.9718	0.1765
264.186	0.1945
264.4002	0.1827
264.6144	0.1817
264.8286	0.1909
265.0427	0.1791
265.2569	0.1727
265.471	0.1737
265.6851	0.1761
265.8993	0.1745
266.1134	0.1918
266.3275	0.1937
266.5415	0.1836
266.7556	0.1935
266.9697	0.193
267.1837	0.1969
267.3978	0.1905
267.6118	0.1942
267.8258	0.195
268.0398	0.1821
268.2538	0.1867
268.4677	0.1952
268.6817	0.171
268.8957	0.195
269.1096	0.1935
269.3235	0.1946
269.5374	0.1892
269.7514	0.1852
269.9652	0.1717
270.1791	0.1978
270.393	0.1794
270.6068	0.1872
270.8207	0.1755
271.0345	0.164
271.2483	0.1777
271.4622	0.1814
271.676	0.1748
271.8897	0.1714
272.1035	0.173
272.3173	0.1776
272.531	0.1728
272.7448	0.1838
272.9585	0.1727
273.1722	0.1917
273.3859	0.1757
273.5996	0.1642
273.8133	0.176
274.0269	0.1639
274.2406	0.1741
274.4542	0.1793
274.6679	0.1598
274.8815	0.1715
275.0951	0.1835
275.3087	0.1908
275.5223	0.1816
275.7358	0.1771
275.9494	0.1728
276.1629	0.1661
276.3765	0.1752
276.59	0.1759
276.8035	0.1767
277.017	0.1829
277.2305	0.1744
277.444	0.1727
277.6574	0.1572
277.8709	0.178
278.0843	0.1709
278.2978	0.179
278.5112	0.1703
278.7246	0.1808
278.938	0.1624
279.1513	0.1904
279.3647	0.1888
279.5781	0.1895
279.7914	0.1821
280.0047	0.2008
280.2181	0.1757
280.4314	0.1947
280.6447	0.1838
280.8579	0.1791
281.0712	0.1926
281.2845	0.1834
281.4977	0.1836
281.711	0.1696
281.9242	0.1837
282.1374	0.1789
282.3506	0.1812
282.5638	0.1781
282.7769	0.1912
282.9901	0.1809
283.2033	0.1894
283.4164	0.1921
283.6295	0.1792
283.8426	0.1776
284.0557	0.1822
284.2688	0.1927
284.4819	0.1822
284.695	0.1851
284.908	0.1859
285.1211	0.1631
285.3341	0.1777
285.5471	0.186
285.7601	0.1823
285.9731	0.1737
286.1861	0.1734
286.3991	0.1858
286.612	0.1895
286.825	0.1792
287.0379	0.1894
287.2508	0.1702
287.4637	0.1668
287.6766	0.176
287.8895	0.1797
288.1024	0.1877
288.3152	0.1855
288.5281	0.1717
288.7409	0.1929
288.9538	0.1797
289.1666	0.1752
289.3794	0.1763
289.5922	0.1629
289.8049	0.1666
290.0177	0.1723
290.2304	0.1747
290.4432	0.1783
290.6559	0.176
290.8686	0.1812
291.0813	0.1679
291.294	0.1837
291.5067	0.1794
291.7194	0.1774
291.932	0.182
292.1447	0.1755
292.3573	0.1661
292.5699	0.1733
292.7825	0.1772
292.9951	0.1718
293.2077	0.1739
293.4203	0.1612
293.6328	0.1618
293.8454	0.1649
294.0579	0.1681
294.2704	0.1758
294.4829	0.1678
294.6954	0.1665
294.9079	0.1688
295.1204	0.1647
295.3328	0.1705
295.5453	0.1634
295.7577	0.1679
295.9701	0.1654
296.1825	0.1664
296.3949	0.169
296.6073	0.1594
296.8197	0.161
297.0321	0.1737
297.2444	0.154
297.4567	0.1696
297.6691	0.1607
297.8814	0.1557
298.0937	0.1581
298.306	0.1755
298.5182	0.1627
298.7305	0.177
298.9428	0.1539
299.155	0.1589
299.3672	0.1603
299.5794	0.1563
299.7916	0.1652
300.0038	0.1627
300.216	0.1694
300.4282	0.1673
300.6403	0.157
300.8525	0.1636
301.0646	0.1499
301.2767	0.1657
301.4888	0.1651
301.7009	0.158
301.913	0.1539
302.125	0.162
302.3371	0.1536
302.5491	0.1546
302.7612	0.1611
302.9732	0.1675
303.1852	0.1651
303.3972	0.1578
303.6092	0.1608
303.8211	0.1563
304.0331	0.1448
304.245	0.1527
304.457	0.1532
304.6689	0.1503
304.8808	0.164
305.0927	0.1502
305.3046	0.1586
305.5164	0.1569
305.7283	0.1465
305.9401	0.1485
306.152	0.1452
306.3638	0.1562
306.5756	0.1498
306.7874	0.1446
306.9992	0.1454
307.2109	0.1407
307.4227	0.1271
307.6344	0.139
307.8462	0.1513
308.0579	0.1342
308.2696	0.1284
308.4813	0.1351
308.693	0.1365
308.9046	0.1452
309.1163	0.1302
309.328	0.132
309.5396	0.132
309.7512	0.1199
309.9628	0.1206
310.1744	0.1224
310.386	0.1198
310.5976	0.1286
310.8091	0.1314
311.0207	0.1225
311.2322	0.1198
311.4437	0.1138
311.6552	0.1117
311.8667	0.1233
312.0782	0.1013
312.2897	0.0978
312.5012	0.1184
312.7126	0.1042
312.924	0.1063
313.1355	0.1221
313.3469	0.1124
313.5583	0.1222
313.7696	0.1136
313.981	0.1197
314.1924	0.11
314.4037	0.1032
314.6151	0.119
314.8264	0.1086
315.0377	0.1056
315.249	0.1069
315.4603	0.1198
315.6716	0.1083
315.8828	0.0977
316.0941	0.1118
316.3053	0.0959
316.5165	0.0996
316.7277	0.1047
316.9389	0.1096
317.1501	0.1084
317.3613	0.1226
317.5724	0.0975
317.7836	0.1042
317.9947	0.11
318.2058	0.0986
318.417	0.1028
318.6281	0.0926
318.8391	0.1027
319.0502	0.1027
319.2613	0.1084
319.4723	0.1044
319.6834	0.1053
319.8944	0.105
320.1054	0.1046
320.3164	0.1184
320.5274	0.106
320.7383	0.0947
320.9493	0.098
321.1602	0.1192
321.3712	0.104
321.5821	0.1143
321.793	0.1088
322.0039	0.1103
322.2148	0.1139
322.4257	0.1086
322.6365	0.1258
322.8474	0.11
323.0582	0.1033
323.269	0.111
323.4798	0.1121
323.6906	0.1116
323.9014	0.1097
324.1122	0.1146
324.3229	0.1063
324.5337	0.1038
324.7444	0.1047
324.9551	0.1187
325.1658	0.131
325.3765	0.1215
325.5872	0.1142
325.7979	0.1147
326.0085	0.1299
326.2192	0.1126
326.4298	0.1165
326.6404	0.1087
326.851	0.1049
327.0616	0.0887
327.2722	0.1166
327.4828	0.1106
327.6933	0.1092
327.9039	0.1149
328.1144	0.113
328.3249	0.1067
328.5354	0.1206
328.7459	0.1016
328.9564	0.1135
329.1669	0.1157
329.3773	0.1141
329.5878	0.1097
329.7982	0.1046
330.0086	0.1156
330.219	0.1189
330.4294	0.1079
330.6398	0.121
330.8502	0.1035
331.0605	0.1134
331.2708	0.1122
331.4812	0.12
331.6915	0.1185
331.9018	0.1117
332.1121	0.1114
332.3224	0.1122
332.5326	0.1097
332.7429	0.1163
332.9531	0.1232
333.1633	0.1205
333.3735	0.1155
333.5837	0.1173
333.7939	0.1187
334.0041	0.1227
334.2143	0.1317
334.4244	0.112
334.6346	0.0918
334.8447	0.1293
335.0548	0.1026
335.2649	0.1077
335.475	0.1166
335.685	0.1121
335.8951	0.1211
336.1051	0.1129
336.3152	0.1138
336.5252	0.1168
336.7352	0.127
336.9452	0.1257
337.1552	0.1246
337.3652	0.1224
337.5751	0.1126
337.7851	0.1189
337.995	0.1221
338.2049	0.1192
338.4148	0.1075
338.6247	0.1223
338.8346	0.1225
339.0445	0.1183
339.2543	0.12
339.4642	0.1245
339.674	0.1245
339.8838	0.1277
340.0936	0.125
340.3034	0.1434
340.5132	0.1208
340.7229	0.1281
340.9327	0.117
341.1424	0.1201
341.3522	0.135
341.5619	0.1302
341.7716	0.1309
341.9813	0.1292
342.1909	0.1212
342.4006	0.1311
342.6102	0.1317
342.8199	0.1259
343.0295	0.1285
343.2391	0.126
343.4487	0.1357
343.6583	0.1194
343.8679	0.1284
344.0774	0.1393
344.287	0.1377
344.4965	0.1246
344.706	0.1364
344.9155	0.1422
345.125	0.1353
345.3345	0.1392
345.544	0.1296
345.7534	0.1417
345.9629	0.1289
346.1723	0.1337
346.3817	0.1415
346.5911	0.1368
346.8005	0.1455
347.0099	0.1289
347.2193	0.1423
347.4286	0.133
347.638	0.1415
347.8473	0.1461
348.0566	0.1329
348.2659	0.1374
348.4752	0.1307
348.6845	0.1366
348.8937	0.1339
349.103	0.1476
349.3122	0.138
349.5214	0.1352
349.7306	0.1401
349.9398	0.1481
350.149	0.1508
350.3582	0.1382
350.5674	0.1496
350.7765	0.147
350.9856	0.1461
351.1948	0.1411
351.4039	0.1369
351.613	0.1346
351.822	0.1568
352.0311	0.1561
352.2402	0.1564
352.4492	0.1519
352.6582	0.1522
352.8672	0.1464
353.0762	0.1569
353.2852	0.146
353.4942	0.1314
353.7032	0.156
353.9121	0.1535
354.1211	0.1427
354.33	0.1526
354.5389	0.1577
354.7478	0.1463
354.9567	0.1363
355.1655	0.1358
355.3744	0.1571
355.5833	0.1577
355.7921	0.1768
356.0009	0.1481
356.2097	0.1675
356.4185	0.1698
356.6273	0.1594
356.8361	0.1586
357.0448	0.1427
357.2536	0.1446
357.4623	0.1434
357.671	0.1759
357.8797	0.1642
358.0884	0.159
358.2971	0.167
358.5057	0.1638
358.7144	0.1682
358.923	0.1654
359.1316	0.1616
359.3402	0.1751
359.5488	0.1792
359.7574	0.1639
359.966	0.1829
360.1746	0.1769
360.3831	0.1786
360.5916	0.1552
360.8002	0.1609
361.0087	0.1831
361.2172	0.1731
361.4256	0.1767
361.6341	0.1754
361.8426	0.1815
362.051	0.1647
362.2594	0.1687
362.4678	0.1779
362.6762	0.1795
362.8846	0.1833
363.093	0.1799
363.3014	0.1785
363.5097	0.1656
363.718	0.1747
363.9264	0.1773
364.1347	0.1781
364.343	0.1736
364.5513	0.1985
364.7595	0.195
364.9678	0.1824
365.176	0.191
365.3842	0.1967
365.5925	0.1969
365.8007	0.191
366.0089	0.1813
366.217	0.1867
366.4252	0.2052
366.6333	0.2115
366.8415	0.194
367.0496	0.1827
367.2577	0.2097
367.4658	0.1992
367.6739	0.2003
367.882	0.1951
368.09	0.1956
368.2981	0.2032
368.5061	0.1933
368.7141	0.2014
368.9221	0.2061
369.1301	0.2065
369.3381	0.1893
369.5461	0.1847
369.754	0.1895
369.962	0.2067
370.1699	0.2003
370.3778	0.1962
370.5857	0.1889
370.7936	0.2031
371.0015	0.2033
371.2093	0.2192
371.4172	0.215
371.625	0.1993
371.8328	0.1999
372.0406	0.2062
372.2484	0.2094
372.4562	0.201
372.664	0.2037
372.8717	0.2085
373.0795	0.1791
373.2872	0.1977
373.4949	0.2043
373.7026	0.2116
373.9103	0.2095
374.118	0.2363
374.3256	0.2163
374.5333	0.1976
374.7409	0.2045
374.9485	0.2044
375.1561	0.2244
375.3637	0.2281
375.5713	0.2117
375.7789	0.218
375.9864	0.2013
376.194	0.208
376.4015	0.2153
376.609	0.2227
376.8165	0.2143
377.024	0.2106
377.2315	0.2179
377.4389	0.22
377.6464	0.2136
377.8538	0.2174
378.0612	0.2029
378.2686	0.2279
378.476	0.2269
378.6834	0.2141
378.8908	0.2296
379.0981	0.2141
379.3055	0.2332
379.5128	0.208
379.7201	0.2088
379.9274	0.2207
380.1347	0.2158
380.342	0.2434
380.5492	0.2186
380.7565	0.2328
380.9637	0.2101
381.1709	0.2218
381.3781	0.2199
381.5853	0.2214
381.7925	0.225
381.9997	0.2415
382.2068	0.2407
382.4139	0.2361
382.6211	0.2209
382.8282	0.2222
383.0353	0.2376
383.2424	0.2335
383.4494	0.2265
383.6565	0.2416
383.8635	0.2256
384.0706	0.2266
384.2776	0.231
384.4846	0.2201
384.6916	0.2327
384.8986	0.23
385.1055	0.2358
385.3125	0.2329
385.5194	0.2059
385.7263	0.2413
385.9333	0.2168
386.1402	0.2277
386.347	0.2178
386.5539	0.2265
386.7608	0.238
386.9676	0.2115
387.1744	0.216
387.3813	0.2287
387.5881	0.2293
387.7948	0.232
388.0016	0.2301
388.2084	0.2351
388.4151	0.2036
388.6219	0.2218
388.8286	0.2137
389.0353	0.2515
389.242	0.2338
389.4487	0.1995
389.6553	0.2096
389.862	0.1903
390.0686	0.2131
390.2753	0.22
390.4819	0.2247
390.6885	0.214
390.8951	0.2092
391.1016	0.2091
391.3082	0.2147
391.5147	0.2216
391.7213	0.2168
391.9278	0.2001
392.1343	0.2148
392.3408	0.2262
392.5473	0.1986
392.7537	0.2055
392.9602	0.2085
393.1666	0.2042
393.373	0.201
393.5794	0.2094
393.7858	0.2189
393.9922	0.1889
394.1986	0.1965
394.4049	0.202
394.6113	0.2103
394.8176	0.182
395.0239	0.1951
395.2302	0.1803
395.4365	0.2076
395.6428	0.1894
395.8491	0.1889
396.0553	0.1846
396.2615	0.1743
396.4678	0.1755
396.674	0.1742
396.8802	0.193
397.0863	0.2045
397.2925	0.191
397.4987	0.1792
397.7048	0.1714
397.9109	0.2056
398.117	0.1733
398.3231	0.166
398.5292	0.1978
398.7353	0.2044
398.9413	0.181
399.1474	0.1834
399.3534	0.1775
399.5594	0.1822
399.7654	0.2026
399.9714	0.1941
400.1774	0.1886
400.3833	0.1827
400.5893	0.1777
400.7952	0.1834
401.0011	0.1985
401.207	0.1855
401.4129	0.1994
401.6188	0.1952
401.8247	0.1865
402.0305	0.1689
402.2364	0.1844
402.4422	0.1877
402.648	0.1749
402.8538	0.1943
403.0596	0.1819
403.2654	0.1746
403.4711	0.1884
403.6768	0.1961
403.8826	0.1881
404.0883	0.1807
404.294	0.1945
404.4997	0.1787
404.7054	0.1834
404.911	0.188
405.1167	0.1904
405.3223	0.1901
405.5279	0.1981
405.7335	0.1912
405.9391	0.1902
406.1447	0.1726
406.3502	0.192
406.5558	0.1795
406.7613	0.1918
406.9668	0.19
407.1724	0.1846
407.3778	0.1769
407.5833	0.1859
407.7888	0.1739
407.9942	0.1898
408.1997	0.1751
408.4051	0.1768
408.6105	0.1835
408.8159	0.1771
409.0213	0.1719
409.2267	0.1865
409.432	0.1817
409.6374	0.2063
409.8427	0.1697
410.048	0.1857
410.2533	0.1741
410.4586	0.1984
410.6639	0.1787
410.8691	0.1712
411.0744	0.1627
411.2796	0.1736
411.4848	0.1718
411.69	0.1565
411.8952	0.2007
412.1004	0.1742
412.3056	0.1929
412.5107	0.1727
412.7158	0.2011
412.921	0.1886
413.1261	0.1715
413.3312	0.1689
413.5362	0.1758
413.7413	0.172
413.9464	0.1825
414.1514	0.1891
414.3564	0.1846
414.5614	0.1582
414.7664	0.1776
414.9714	0.1799
415.1764	0.1793
415.3813	0.1926
415.5863	0.1679
415.7912	0.1752
415.9961	0.1837
416.201	0.1916
416.4059	0.1804
416.6108	0.1739
416.8156	0.1769
417.0205	0.1847
417.2253	0.1682
417.4301	0.1706
417.6349	0.1681
417.8397	0.1553
418.0445	0.192
418.2492	0.1682
418.454	0.1713
418.6587	0.1677
418.8634	0.1735
419.0681	0.1668
419.2728	0.1628
419.4775	0.1526
419.6822	0.1708
419.8868	0.1464
420.0915	0.1774
420.2961	0.141
420.5007	0.1757
420.7053	0.1692
420.9099	0.1714
421.1144	0.1681
421.319	0.1621
421.5235	0.1744
421.728	0.1545
421.9325	0.1576
422.137	0.1655
422.3415	0.1584
422.546	0.1541
422.7504	0.1586
422.9549	0.1652
423.1593	0.1513
423.3637	0.1764
423.5681	0.1659
423.7725	0.1527
423.9769	0.1432
424.1812	0.1595
424.3856	0.1453
424.5899	0.1646
424.7942	0.1317
424.9985	0.1612
425.2028	0.1338
425.4071	0.1677
425.6113	0.1318
425.8156	0.1718
426.0198	0.1498
426.224	0.1432
426.4282	0.1449
426.6324	0.1292
