Data from MonoPyChalIsomerACN10uM380nmA_Absorbance_13-38-33-149.txt Node
Date: Fri Jul 05 13:38:33 BST 2024
User: LASERRRRR
Spectrometer: FLMT03099
Trigger mode: 0
Integration Time (sec): 1.000000E-1
Scans to average: 1
Electric dark correction enabled: true
Nonlinearity correction enabled: false
Boxcar width: 0
XAxis mode: Wavelengths
Number of Pixels in Spectrum: 3648
>>>>>Begin Spectral Data<<<<<
179.3399	-0.2622
179.5586	-0.2622
179.7771	-0.2622
179.9957	-0
180.2143	-0
180.4329	-0.3607
180.6514	-0
180.8699	-0
181.0885	-0
181.307	0.1146
181.5255	-0.8751
181.744	-0.9077
181.9625	-0
182.181	-0
182.3994	0.782
182.6179	0.2334
182.8363	0.4412
183.0547	-0.112
183.2732	-0.0619
183.4916	-0.0026
183.71	0.1178
183.9284	-0.0812
184.1467	-0.1481
184.3651	-0.0391
184.5835	-0.1776
184.8018	0.1202
185.0201	0.0944
185.2385	-0.013
185.4568	0.0067
185.6751	0.0202
185.8934	0.1894
186.1117	-0.0413
186.3299	0.1183
186.5482	0.3566
186.7664	-0.0644
186.9847	-0.1245
187.2029	0.0761
187.4211	0.1516
187.6393	0.065
187.8575	-0.0535
188.0757	0.0805
188.2939	0.1317
188.512	0.2602
188.7302	0.2393
188.9483	-0.0946
189.1665	0.2298
189.3846	-0.4047
189.6027	0.1108
189.8208	0.0395
190.0389	0.0673
190.257	0.1324
190.475	0.1093
190.6931	0.4222
190.9111	0.1865
191.1292	0.1356
191.3472	0.2364
191.5652	0.1952
191.7832	0.0988
192.0012	0.4748
192.2192	0.3091
192.4371	0.7441
192.6551	0.36
192.873	0.4103
193.091	0.3128
193.3089	0.2224
193.5268	0.4704
193.7447	0.4783
193.9626	0.4174
194.1805	0.4857
194.3984	0.7598
194.6162	0.508
194.8341	0.4698
195.0519	0.6631
195.2697	0.9216
195.4875	0.6192
195.7054	0.5532
195.9231	0.535
196.1409	0.6961
196.3587	0.6639
196.5765	0.5819
196.7942	0.6875
197.012	0.6059
197.2297	0.6868
197.4474	0.8279
197.6651	0.5932
197.8828	0.5684
198.1005	0.7842
198.3182	0.576
198.5358	1.0443
198.7535	0.8027
198.9711	0.5777
199.1888	0.8388
199.4064	0.9333
199.624	0.6881
199.8416	0.6643
200.0592	0.6719
200.2767	0.7766
200.4943	0.9437
200.7119	0.8881
200.9294	0.776
201.1469	0.5769
201.3645	0.6428
201.582	0.6465
201.7995	0.7306
202.017	0.8034
202.2344	0.6412
202.4519	0.8811
202.6694	0.7342
202.8868	0.7404
203.1042	1.0222
203.3217	0.6707
203.5391	0.7824
203.7565	0.714
203.9739	0.7404
204.1913	0.7525
204.4086	0.6854
204.626	0.9975
204.8433	0.8266
205.0607	0.7813
205.278	0.9141
205.4953	0.8909
205.7126	0.7042
205.9299	0.9036
206.1472	0.8166
206.3644	0.7953
206.5817	0.7966
206.7989	0.829
207.0162	0.7835
207.2334	0.843
207.4506	0.7461
207.6678	0.7623
207.885	0.8339
208.1022	0.8041
208.3194	0.7805
208.5365	0.7543
208.7537	0.6908
208.9708	0.7839
209.1879	0.7942
209.405	0.811
209.6222	0.8363
209.8392	0.7055
210.0563	0.7593
210.2734	0.8832
210.4905	0.7519
210.7075	0.7438
210.9245	0.7972
211.1416	0.8125
211.3586	0.8249
211.5756	0.6831
211.7926	0.7285
212.0096	0.7372
212.2265	0.7399
212.4435	0.7644
212.6604	0.7171
212.8774	0.7459
213.0943	0.8012
213.3112	0.7602
213.5281	0.701
213.745	0.7007
213.9619	0.727
214.1788	0.668
214.3956	0.6541
214.6125	0.6708
214.8293	0.5865
215.0461	0.7326
215.2629	0.6612
215.4798	0.6665
215.6965	0.6091
215.9133	0.6279
216.1301	0.6689
216.3469	0.6809
216.5636	0.6568
216.7803	0.6065
216.9971	0.6359
217.2138	0.6264
217.4305	0.5714
217.6472	0.5463
217.8639	0.6275
218.0805	0.5623
218.2972	0.5421
218.5138	0.5675
218.7305	0.5686
218.9471	0.5439
219.1637	0.5465
219.3803	0.5449
219.5969	0.5658
219.8135	0.5373
220.0301	0.5232
220.2466	0.5568
220.4632	0.5439
220.6797	0.5027
220.8962	0.4889
221.1127	0.5078
221.3292	0.5358
221.5457	0.5192
221.7622	0.532
221.9787	0.5294
222.1951	0.4885
222.4116	0.5318
222.628	0.4872
222.8444	0.5348
223.0608	0.5096
223.2772	0.4904
223.4936	0.5286
223.71	0.4983
223.9264	0.5222
224.1427	0.5182
224.3591	0.5112
224.5754	0.5338
224.7917	0.5236
225.008	0.5529
225.2243	0.4847
225.4406	0.5528
225.6569	0.5172
225.8732	0.4995
226.0894	0.5068
226.3057	0.534
226.5219	0.5232
226.7381	0.5514
226.9543	0.5122
227.1705	0.5158
227.3867	0.521
227.6029	0.5489
227.8191	0.5539
228.0352	0.5361
228.2513	0.5392
228.4675	0.5598
228.6836	0.5524
228.8997	0.5436
229.1158	0.5575
229.3319	0.5275
229.548	0.5521
229.764	0.5697
229.9801	0.5567
230.1961	0.5557
230.4121	0.5463
230.6282	0.5617
230.8442	0.519
231.0602	0.5365
231.2761	0.5518
231.4921	0.5713
231.7081	0.5704
231.924	0.5522
232.14	0.5649
232.3559	0.5589
232.5718	0.5719
232.7877	0.5549
233.0036	0.5346
233.2195	0.5567
233.4353	0.5252
233.6512	0.5493
233.867	0.5362
234.0829	0.553
234.2987	0.5346
234.5145	0.5643
234.7303	0.5452
234.9461	0.5563
235.1619	0.5507
235.3776	0.5186
235.5934	0.5414
235.8091	0.497
236.0249	0.5122
236.2406	0.5467
236.4563	0.5094
236.672	0.5676
236.8877	0.5373
237.1034	0.5461
237.319	0.5293
237.5347	0.5428
237.7503	0.5218
237.966	0.5515
238.1816	0.5313
238.3972	0.5401
238.6128	0.5021
238.8284	0.5528
239.0439	0.528
239.2595	0.5104
239.475	0.5333
239.6906	0.5308
239.9061	0.4962
240.1216	0.5204
240.3371	0.5136
240.5526	0.5091
240.7681	0.547
240.9836	0.4998
241.199	0.5077
241.4145	0.5005
241.6299	0.4905
241.8453	0.4889
242.0607	0.483
242.2761	0.4581
242.4915	0.4557
242.7069	0.4635
242.9223	0.4442
243.1376	0.4466
243.353	0.4426
243.5683	0.4494
243.7836	0.4181
243.9989	0.4165
244.2142	0.388
244.4295	0.3967
244.6448	0.4069
244.86	0.3851
245.0753	0.3772
245.2905	0.3686
245.5057	0.3376
245.721	0.3376
245.9362	0.3394
246.1514	0.3347
246.3665	0.3344
246.5817	0.3143
246.7969	0.3106
247.012	0.3141
247.2271	0.287
247.4423	0.2954
247.6574	0.3136
247.8725	0.2937
248.0876	0.2909
248.3026	0.2826
248.5177	0.2832
248.7328	0.2594
248.9478	0.2616
249.1628	0.2671
249.3779	0.2566
249.5929	0.2458
249.8079	0.2662
250.0228	0.2422
250.2378	0.2582
250.4528	0.2457
250.6677	0.2277
250.8827	0.2307
251.0976	0.229
251.3125	0.2368
251.5274	0.2298
251.7423	0.2239
251.9572	0.2236
252.172	0.2105
252.3869	0.2301
252.6017	0.2098
252.8166	0.1965
253.0314	0.1974
253.2462	0.1967
253.461	0.2087
253.6758	0.2031
253.8906	0.2131
254.1053	0.1942
254.3201	0.2056
254.5348	0.1994
254.7496	0.2089
254.9643	0.1915
255.179	0.2017
255.3937	0.1897
255.6083	0.1941
255.823	0.1921
256.0377	0.1845
256.2523	0.1863
256.467	0.1802
256.6816	0.1936
256.8962	0.1787
257.1108	0.178
257.3254	0.1933
257.54	0.1901
257.7545	0.1799
257.9691	0.1905
258.1836	0.1955
258.3981	0.1962
258.6127	0.1917
258.8272	0.1843
259.0417	0.1805
259.2561	0.1775
259.4706	0.1852
259.6851	0.1765
259.8995	0.1813
260.114	0.1891
260.3284	0.178
260.5428	0.1885
260.7572	0.2025
260.9716	0.1861
261.186	0.1651
261.4003	0.1794
261.6147	0.1869
261.829	0.1756
262.0433	0.1768
262.2577	0.1728
262.472	0.185
262.6863	0.1859
262.9005	0.1766
263.1148	0.1806
263.3291	0.1641
263.5433	0.1781
263.7576	0.1846
263.9718	0.1819
264.186	0.1748
264.4002	0.1754
264.6144	0.1869
264.8286	0.1928
265.0427	0.1806
265.2569	0.1827
265.471	0.1742
265.6851	0.1837
265.8993	0.1899
266.1134	0.1657
266.3275	0.1825
266.5415	0.1739
266.7556	0.1865
266.9697	0.1914
267.1837	0.1814
267.3978	0.1789
267.6118	0.1926
267.8258	0.194
268.0398	0.1694
268.2538	0.1823
268.4677	0.1921
268.6817	0.1827
268.8957	0.1907
269.1096	0.1788
269.3235	0.1911
269.5374	0.1762
269.7514	0.1714
269.9652	0.1796
270.1791	0.1736
270.393	0.1763
270.6068	0.1805
270.8207	0.1738
271.0345	0.1591
271.2483	0.1851
271.4622	0.1766
271.676	0.1738
271.8897	0.1641
272.1035	0.1706
272.3173	0.1836
272.531	0.1672
272.7448	0.167
272.9585	0.1786
273.1722	0.1878
273.3859	0.1684
273.5996	0.1737
273.8133	0.1771
274.0269	0.1608
274.2406	0.1573
274.4542	0.1693
274.6679	0.1519
274.8815	0.1726
275.0951	0.1867
275.3087	0.1681
275.5223	0.1808
275.7358	0.1807
275.9494	0.181
276.1629	0.1621
276.3765	0.173
276.59	0.1742
276.8035	0.1752
277.017	0.1857
277.2305	0.1645
277.444	0.1789
277.6574	0.1639
277.8709	0.1723
278.0843	0.1613
278.2978	0.169
278.5112	0.1652
278.7246	0.1764
278.938	0.1673
279.1513	0.175
279.3647	0.1733
279.5781	0.1678
279.7914	0.1856
280.0047	0.1836
280.2181	0.1793
280.4314	0.1795
280.6447	0.185
280.8579	0.1761
281.0712	0.1825
281.2845	0.1832
281.4977	0.1854
281.711	0.1571
281.9242	0.1729
282.1374	0.1883
282.3506	0.1734
282.5638	0.1816
282.7769	0.1774
282.9901	0.1734
283.2033	0.19
283.4164	0.187
283.6295	0.1642
283.8426	0.1695
284.0557	0.178
284.2688	0.189
284.4819	0.1798
284.695	0.1797
284.908	0.1878
285.1211	0.167
285.3341	0.1892
285.5471	0.1761
285.7601	0.1733
285.9731	0.1873
286.1861	0.1671
286.3991	0.1899
286.612	0.1813
286.825	0.1671
287.0379	0.1852
287.2508	0.1878
287.4637	0.1757
287.6766	0.1741
287.8895	0.1678
288.1024	0.1851
288.3152	0.1766
288.5281	0.1773
288.7409	0.1769
288.9538	0.1724
289.1666	0.1634
289.3794	0.1764
289.5922	0.1736
289.8049	0.1652
290.0177	0.1732
290.2304	0.1638
290.4432	0.1792
290.6559	0.1694
290.8686	0.1831
291.0813	0.1741
291.294	0.1708
291.5067	0.1809
291.7194	0.1673
291.932	0.1789
292.1447	0.1694
292.3573	0.1629
292.5699	0.174
292.7825	0.1703
292.9951	0.1698
293.2077	0.1629
293.4203	0.1642
293.6328	0.1619
293.8454	0.1793
294.0579	0.1625
294.2704	0.1692
294.4829	0.1633
294.6954	0.1681
294.9079	0.1702
295.1204	0.1639
295.3328	0.1555
295.5453	0.1587
295.7577	0.169
295.9701	0.1627
296.1825	0.1592
296.3949	0.1733
296.6073	0.163
296.8197	0.1641
297.0321	0.177
297.2444	0.155
297.4567	0.1757
297.6691	0.1718
297.8814	0.1521
298.0937	0.16
298.306	0.1664
298.5182	0.158
298.7305	0.1704
298.9428	0.1653
299.155	0.1645
299.3672	0.162
299.5794	0.1612
299.7916	0.1642
300.0038	0.1691
300.216	0.1709
300.4282	0.1688
300.6403	0.1517
300.8525	0.1701
301.0646	0.1466
301.2767	0.1561
301.4888	0.1574
301.7009	0.1666
301.913	0.1622
302.125	0.1633
302.3371	0.1552
302.5491	0.1573
302.7612	0.1697
302.9732	0.1629
303.1852	0.1535
303.3972	0.1515
303.6092	0.1502
303.8211	0.1553
304.0331	0.1535
304.245	0.1479
304.457	0.1461
304.6689	0.1477
304.8808	0.1581
305.0927	0.1427
305.3046	0.1542
305.5164	0.1584
305.7283	0.1445
305.9401	0.1469
306.152	0.1415
306.3638	0.1455
306.5756	0.1429
306.7874	0.1406
306.9992	0.1521
307.2109	0.1321
307.4227	0.1359
307.6344	0.143
307.8462	0.1404
308.0579	0.1387
308.2696	0.1367
308.4813	0.1402
308.693	0.1279
308.9046	0.1375
309.1163	0.1307
309.328	0.1298
309.5396	0.1192
309.7512	0.1199
309.9628	0.1114
310.1744	0.1252
310.386	0.1273
310.5976	0.1236
310.8091	0.1229
311.0207	0.1215
311.2322	0.1317
311.4437	0.1028
311.6552	0.1126
311.8667	0.1235
312.0782	0.0984
312.2897	0.103
312.5012	0.1133
312.7126	0.1115
312.924	0.1068
313.1355	0.1125
313.3469	0.1087
313.5583	0.1141
313.7696	0.1183
313.981	0.1112
314.1924	0.1103
314.4037	0.1046
314.6151	0.1186
314.8264	0.1008
315.0377	0.111
315.249	0.1041
315.4603	0.1168
315.6716	0.1059
315.8828	0.0941
316.0941	0.1025
316.3053	0.0963
316.5165	0.1062
316.7277	0.0986
316.9389	0.1013
317.1501	0.1015
317.3613	0.1138
317.5724	0.0972
317.7836	0.1076
317.9947	0.1017
318.2058	0.097
318.417	0.0949
318.6281	0.1003
318.8391	0.1034
319.0502	0.0945
319.2613	0.0996
319.4723	0.1125
319.6834	0.1078
319.8944	0.0993
320.1054	0.109
320.3164	0.1011
320.5274	0.1055
320.7383	0.107
320.9493	0.1102
321.1602	0.1107
321.3712	0.0964
321.5821	0.0989
321.793	0.0977
322.0039	0.1088
322.2148	0.1066
322.4257	0.0965
322.6365	0.109
322.8474	0.1023
323.0582	0.1016
323.269	0.1023
323.4798	0.1194
323.6906	0.1075
323.9014	0.105
324.1122	0.1114
324.3229	0.1037
324.5337	0.1189
324.7444	0.0961
324.9551	0.1173
325.1658	0.105
325.3765	0.1098
325.5872	0.1048
325.7979	0.1104
326.0085	0.1141
326.2192	0.1042
326.4298	0.1038
326.6404	0.1038
326.851	0.095
327.0616	0.0997
327.2722	0.1027
327.4828	0.1104
327.6933	0.0945
327.9039	0.1151
328.1144	0.1217
328.3249	0.112
328.5354	0.096
328.7459	0.1093
328.9564	0.1015
329.1669	0.1181
329.3773	0.109
329.5878	0.1042
329.7982	0.1128
330.0086	0.1141
330.219	0.1125
330.4294	0.104
330.6398	0.1059
330.8502	0.1012
331.0605	0.1212
331.2708	0.1081
331.4812	0.1161
331.6915	0.1115
331.9018	0.1076
332.1121	0.1044
332.3224	0.1174
332.5326	0.1128
332.7429	0.1155
332.9531	0.1301
333.1633	0.1178
333.3735	0.1184
333.5837	0.1169
333.7939	0.0998
334.0041	0.1183
334.2143	0.1211
334.4244	0.1085
334.6346	0.1059
334.8447	0.1368
335.0548	0.1171
335.2649	0.1085
335.475	0.1185
335.685	0.1091
335.8951	0.1214
336.1051	0.1027
336.3152	0.1263
336.5252	0.1166
336.7352	0.1119
336.9452	0.1223
337.1552	0.1182
337.3652	0.1112
337.5751	0.1007
337.7851	0.1188
337.995	0.1103
338.2049	0.1176
338.4148	0.1188
338.6247	0.1248
338.8346	0.1051
339.0445	0.1001
339.2543	0.1072
339.4642	0.1166
339.674	0.111
339.8838	0.112
340.0936	0.114
340.3034	0.1274
340.5132	0.1306
340.7229	0.1263
340.9327	0.1251
341.1424	0.1176
341.3522	0.1314
341.5619	0.1194
341.7716	0.1246
341.9813	0.1265
342.1909	0.1204
342.4006	0.123
342.6102	0.1229
342.8199	0.1326
343.0295	0.1183
343.2391	0.1224
343.4487	0.1236
343.6583	0.1173
343.8679	0.125
344.0774	0.1273
344.287	0.1338
344.4965	0.1219
344.706	0.1287
344.9155	0.1186
345.125	0.1279
345.3345	0.1286
345.544	0.1227
345.7534	0.128
345.9629	0.1262
346.1723	0.1268
346.3817	0.1337
346.5911	0.1343
346.8005	0.1305
347.0099	0.1244
347.2193	0.1373
347.4286	0.1325
347.638	0.1439
347.8473	0.1446
348.0566	0.1371
348.2659	0.1243
348.4752	0.1285
348.6845	0.1287
348.8937	0.1236
349.103	0.1513
349.3122	0.1359
349.5214	0.1251
349.7306	0.1406
349.9398	0.1305
350.149	0.1358
350.3582	0.1386
350.5674	0.1553
350.7765	0.1416
350.9856	0.1488
351.1948	0.148
351.4039	0.1308
351.613	0.1399
351.822	0.1458
352.0311	0.143
352.2402	0.1354
352.4492	0.1405
352.6582	0.1539
352.8672	0.14
353.0762	0.1465
353.2852	0.15
353.4942	0.1418
353.7032	0.1561
353.9121	0.1561
354.1211	0.1447
354.33	0.1468
354.5389	0.1602
354.7478	0.1412
354.9567	0.1376
355.1655	0.1346
355.3744	0.1418
355.5833	0.1524
355.7921	0.1552
356.0009	0.1534
356.2097	0.1615
356.4185	0.1554
356.6273	0.1537
356.8361	0.1605
357.0448	0.1471
357.2536	0.1502
357.4623	0.1553
357.671	0.1612
357.8797	0.1622
358.0884	0.1631
358.2971	0.1513
358.5057	0.1674
358.7144	0.1685
358.923	0.1636
359.1316	0.1731
359.3402	0.1589
359.5488	0.1607
359.7574	0.1563
359.966	0.1776
360.1746	0.1722
360.3831	0.1756
360.5916	0.1665
360.8002	0.1614
361.0087	0.1786
361.2172	0.1678
361.4256	0.1727
361.6341	0.1695
361.8426	0.1925
362.051	0.1722
362.2594	0.1731
362.4678	0.1744
362.6762	0.2018
362.8846	0.1725
363.093	0.1874
363.3014	0.1756
363.5097	0.1727
363.718	0.1792
363.9264	0.1865
364.1347	0.1791
364.343	0.1813
364.5513	0.1859
364.7595	0.1935
364.9678	0.18
365.176	0.1879
365.3842	0.1878
365.5925	0.1884
365.8007	0.1765
366.0089	0.1815
366.217	0.1925
366.4252	0.1942
366.6333	0.201
366.8415	0.1968
367.0496	0.1805
367.2577	0.199
367.4658	0.1999
367.6739	0.197
367.882	0.1917
368.09	0.1787
368.2981	0.203
368.5061	0.186
368.7141	0.1821
368.9221	0.1929
369.1301	0.1951
369.3381	0.1913
369.5461	0.2021
369.754	0.2032
369.962	0.2186
370.1699	0.2037
370.3778	0.2042
370.5857	0.1886
370.7936	0.2019
371.0015	0.2089
371.2093	0.2081
371.4172	0.2036
371.625	0.2112
371.8328	0.1898
372.0406	0.206
372.2484	0.1942
372.4562	0.2154
372.664	0.1894
372.8717	0.2113
373.0795	0.2036
373.2872	0.2022
373.4949	0.1997
373.7026	0.2116
373.9103	0.2135
374.118	0.2141
374.3256	0.2144
374.5333	0.208
374.7409	0.2054
374.9485	0.2245
375.1561	0.2248
375.3637	0.2157
375.5713	0.2149
375.7789	0.2065
375.9864	0.2194
376.194	0.2059
376.4015	0.2218
376.609	0.2313
376.8165	0.2181
377.024	0.2169
377.2315	0.1997
377.4389	0.2225
377.6464	0.2279
377.8538	0.2276
378.0612	0.2051
378.2686	0.216
378.476	0.2178
378.6834	0.211
378.8908	0.2206
379.0981	0.2159
379.3055	0.2345
379.5128	0.2077
379.7201	0.2329
379.9274	0.2237
380.1347	0.2184
380.342	0.2515
380.5492	0.2323
380.7565	0.2208
380.9637	0.2273
381.1709	0.2214
381.3781	0.2456
381.5853	0.2389
381.7925	0.2305
381.9997	0.2346
382.2068	0.2358
382.4139	0.2257
382.6211	0.2286
382.8282	0.2264
383.0353	0.2154
383.2424	0.219
383.4494	0.2417
383.6565	0.2277
383.8635	0.2247
384.0706	0.2314
384.2776	0.2417
384.4846	0.2147
384.6916	0.2304
384.8986	0.2165
385.1055	0.2287
385.3125	0.2469
385.5194	0.2217
385.7263	0.2467
385.9333	0.2388
386.1402	0.2337
386.347	0.2136
386.5539	0.2323
386.7608	0.2256
386.9676	0.2145
387.1744	0.2264
387.3813	0.2142
387.5881	0.2342
387.7948	0.2133
388.0016	0.2363
388.2084	0.2262
388.4151	0.2256
388.6219	0.2264
388.8286	0.2172
389.0353	0.2214
389.242	0.221
389.4487	0.1975
389.6553	0.2293
389.862	0.2096
390.0686	0.2105
390.2753	0.2147
390.4819	0.2159
390.6885	0.2069
390.8951	0.2299
391.1016	0.2146
391.3082	0.2163
391.5147	0.2149
391.7213	0.2057
391.9278	0.2164
392.1343	0.1931
392.3408	0.2216
392.5473	0.2034
392.7537	0.2146
392.9602	0.1963
393.1666	0.217
393.373	0.2133
393.5794	0.2032
393.7858	0.2074
393.9922	0.1958
394.1986	0.1884
394.4049	0.1985
394.6113	0.2028
394.8176	0.1858
395.0239	0.1983
395.2302	0.1989
395.4365	0.1994
395.6428	0.1988
395.8491	0.1802
396.0553	0.2146
396.2615	0.1939
396.4678	0.2006
396.674	0.1834
396.8802	0.2004
397.0863	0.2022
397.2925	0.1813
397.4987	0.1853
397.7048	0.1862
397.9109	0.1883
398.117	0.1919
398.3231	0.1798
398.5292	0.2069
398.7353	0.2013
398.9413	0.1919
399.1474	0.1918
399.3534	0.182
399.5594	0.1869
399.7654	0.2051
399.9714	0.1824
400.1774	0.1784
400.3833	0.1695
400.5893	0.188
400.7952	0.19
401.0011	0.1954
401.207	0.1995
401.4129	0.1915
401.6188	0.1857
401.8247	0.1919
402.0305	0.1984
402.2364	0.1786
402.4422	0.1988
402.648	0.1833
402.8538	0.2053
403.0596	0.1821
403.2654	0.1925
403.4711	0.1841
403.6768	0.1933
403.8826	0.19
404.0883	0.1739
404.294	0.1837
404.4997	0.1786
404.7054	0.1969
404.911	0.1897
405.1167	0.2013
405.3223	0.1913
405.5279	0.2045
405.7335	0.1925
405.9391	0.2014
406.1447	0.1883
406.3502	0.2056
406.5558	0.1892
406.7613	0.1897
406.9668	0.1909
407.1724	0.2014
407.3778	0.1849
407.5833	0.191
407.7888	0.1796
407.9942	0.1964
408.1997	0.1886
408.4051	0.1981
408.6105	0.1955
408.8159	0.1676
409.0213	0.1762
409.2267	0.1826
409.432	0.1743
409.6374	0.2166
409.8427	0.1774
410.048	0.1717
410.2533	0.1819
410.4586	0.1876
410.6639	0.1651
410.8691	0.1713
411.0744	0.1724
411.2796	0.1845
411.4848	0.1808
411.69	0.1781
411.8952	0.2049
412.1004	0.1826
412.3056	0.1879
412.5107	0.1662
412.7158	0.2013
412.921	0.1854
413.1261	0.1998
413.3312	0.1713
413.5362	0.1768
413.7413	0.1802
413.9464	0.1712
414.1514	0.1775
414.3564	0.1787
414.5614	0.1738
414.7664	0.1768
414.9714	0.1711
415.1764	0.1865
415.3813	0.2033
415.5863	0.1649
415.7912	0.1999
415.9961	0.1829
416.201	0.1702
416.4059	0.1937
416.6108	0.1677
416.8156	0.1877
417.0205	0.1756
417.2253	0.1558
417.4301	0.1848
417.6349	0.1729
417.8397	0.1629
418.0445	0.1818
418.2492	0.1724
418.454	0.169
418.6587	0.16
418.8634	0.1853
419.0681	0.1568
419.2728	0.1623
419.4775	0.1763
419.6822	0.1763
419.8868	0.1648
420.0915	0.1664
420.2961	0.1662
420.5007	0.1741
420.7053	0.1706
420.9099	0.1676
421.1144	0.1629
421.319	0.157
421.5235	0.1796
421.728	0.1577
421.9325	0.1681
422.137	0.1861
422.3415	0.1725
422.546	0.1643
422.7504	0.1703
422.9549	0.1575
423.1593	0.1713
423.3637	0.1774
423.5681	0.1659
423.7725	0.1608
423.9769	0.1507
424.1812	0.1551
424.3856	0.1453
424.5899	0.1529
424.7942	0.1457
424.9985	0.1584
425.2028	0.165
425.4071	0.1545
425.6113	0.124
425.8156	0.1595
426.0198	0.1436
426.224	0.1323
426.4282	0.1253
