Data from MonoPyChalIsomerACN10uM380nmA_Absorbance_13-38-30-649.txt Node
Date: Fri Jul 05 13:38:30 BST 2024
User: LASERRRRR
Spectrometer: FLMT03099
Trigger mode: 0
Integration Time (sec): 1.000000E-1
Scans to average: 1
Electric dark correction enabled: true
Nonlinearity correction enabled: false
Boxcar width: 0
XAxis mode: Wavelengths
Number of Pixels in Spectrum: 3648
>>>>>Begin Spectral Data<<<<<
179.3399	-0.4355
179.5586	-0.4355
179.7771	-0.4355
179.9957	0.1241
180.2143	-0
180.4329	0.0873
180.6514	0.3588
180.8699	-0
181.0885	0.2337
181.307	0.2674
181.5255	0.7347
181.744	-0.7929
181.9625	-0
182.181	-0
182.3994	1.9581
182.6179	-0
182.8363	-0.2372
183.0547	0.3319
183.2732	0.0188
183.4916	0.1193
183.71	0.1187
183.9284	0.0838
184.1467	-0.2018
184.3651	0.3409
184.5835	0.1046
184.8018	-0.0024
185.0201	0.399
185.2385	0.0294
185.4568	0.4257
185.6751	0.4681
185.8934	0.3648
186.1117	-0.0441
186.3299	0.078
186.5482	0.2124
186.7664	-0.0878
186.9847	0.0361
187.2029	0.187
187.4211	0.0488
187.6393	0.6456
187.8575	0.0679
188.0757	0.2342
188.2939	0.1323
188.512	-0.0961
188.7302	0.1099
188.9483	0.4995
189.1665	0.1375
189.3846	0.0626
189.6027	0.1686
189.8208	0.1685
190.0389	0.2071
190.257	0.2695
190.475	0.2724
190.6931	0.2492
190.9111	0.6377
191.1292	0.14
191.3472	0.5978
191.5652	0.2355
191.7832	0.1716
192.0012	0.6469
192.2192	0.5119
192.4371	0.8238
192.6551	0.3752
192.873	0.4632
193.091	0.6231
193.3089	0.8368
193.5268	0.7503
193.7447	0.548
193.9626	0.5366
194.1805	0.7594
194.3984	0.8173
194.6162	0.6342
194.8341	0.485
195.0519	0.7128
195.2697	1.5071
195.4875	1.1218
195.7054	0.5615
195.9231	0.7667
196.1409	0.9296
196.3587	0.5948
196.5765	0.7751
196.7942	0.8255
197.012	0.76
197.2297	1.5808
197.4474	0.8087
197.6651	0.5902
197.8828	0.828
198.1005	0.7907
198.3182	0.7898
198.5358	1.0062
198.7535	0.7062
198.9711	0.7026
199.1888	0.8493
199.4064	1.2507
199.624	0.8387
199.8416	0.8619
200.0592	0.9888
200.2767	0.8987
200.4943	1.0997
200.7119	0.936
200.9294	1.0832
201.1469	0.6827
201.3645	0.766
201.582	0.9903
201.7995	0.7961
202.017	1.1405
202.2344	0.7464
202.4519	1.0002
202.6694	0.8194
202.8868	0.7653
203.1042	1.0866
203.3217	0.8451
203.5391	0.9017
203.7565	0.7498
203.9739	0.8273
204.1913	0.7639
204.4086	0.8209
204.626	0.9627
204.8433	0.8271
205.0607	0.8176
205.278	0.7804
205.4953	0.8196
205.7126	0.8952
205.9299	0.9469
206.1472	0.8605
206.3644	0.8998
206.5817	0.9224
206.7989	0.9187
207.0162	0.8728
207.2334	0.8822
207.4506	0.8516
207.6678	0.7301
207.885	0.8025
208.1022	0.9257
208.3194	0.8949
208.5365	0.8577
208.7537	0.8448
208.9708	0.7864
209.1879	0.8922
209.405	0.9653
209.6222	0.9207
209.8392	0.8939
210.0563	0.8233
210.2734	0.8274
210.4905	0.9096
210.7075	0.8239
210.9245	0.7577
211.1416	1.015
211.3586	0.9882
211.5756	0.732
211.7926	0.9447
212.0096	0.8445
212.2265	0.7148
212.4435	0.7596
212.6604	0.9597
212.8774	0.9123
213.0943	0.8815
213.3112	0.7748
213.5281	0.7406
213.745	0.7876
213.9619	0.7212
214.1788	0.7334
214.3956	0.7075
214.6125	0.6722
214.8293	0.6635
215.0461	0.7014
215.2629	0.7003
215.4798	0.6983
215.6965	0.6103
215.9133	0.7431
216.1301	0.5984
216.3469	0.6666
216.5636	0.6688
216.7803	0.6659
216.9971	0.6915
217.2138	0.6746
217.4305	0.614
217.6472	0.5821
217.8639	0.6623
218.0805	0.6482
218.2972	0.6212
218.5138	0.599
218.7305	0.599
218.9471	0.576
219.1637	0.5615
219.3803	0.6134
219.5969	0.5571
219.8135	0.5318
220.0301	0.5657
220.2466	0.5391
220.4632	0.5078
220.6797	0.5243
220.8962	0.5206
221.1127	0.5281
221.3292	0.5273
221.5457	0.5257
221.7622	0.5479
221.9787	0.532
222.1951	0.5094
222.4116	0.5361
222.628	0.5306
222.8444	0.5978
223.0608	0.5025
223.2772	0.5465
223.4936	0.5492
223.71	0.5298
223.9264	0.5537
224.1427	0.5084
224.3591	0.5219
224.5754	0.547
224.7917	0.5578
225.008	0.5445
225.2243	0.5124
225.4406	0.5579
225.6569	0.5383
225.8732	0.553
226.0894	0.5403
226.3057	0.5567
226.5219	0.5872
226.7381	0.552
226.9543	0.5313
227.1705	0.5351
227.3867	0.5542
227.6029	0.5563
227.8191	0.5287
228.0352	0.5544
228.2513	0.567
228.4675	0.5827
228.6836	0.5594
228.8997	0.5111
229.1158	0.5724
229.3319	0.5723
229.548	0.5721
229.764	0.5718
229.9801	0.5544
230.1961	0.5804
230.4121	0.5635
230.6282	0.5725
230.8442	0.5397
231.0602	0.5885
231.2761	0.6075
231.4921	0.5653
231.7081	0.5668
231.924	0.5691
232.14	0.5567
232.3559	0.5389
232.5718	0.6177
232.7877	0.5554
233.0036	0.529
233.2195	0.547
233.4353	0.5289
233.6512	0.5943
233.867	0.5646
234.0829	0.5651
234.2987	0.5508
234.5145	0.5831
234.7303	0.5497
234.9461	0.5818
235.1619	0.5685
235.3776	0.5326
235.5934	0.5331
235.8091	0.5384
236.0249	0.5506
236.2406	0.5599
236.4563	0.5401
236.672	0.5537
236.8877	0.5502
237.1034	0.5575
237.319	0.5579
237.5347	0.5609
237.7503	0.5491
237.966	0.5471
238.1816	0.5721
238.3972	0.5355
238.6128	0.5257
238.8284	0.5458
239.0439	0.5504
239.2595	0.5347
239.475	0.5626
239.6906	0.5186
239.9061	0.5154
240.1216	0.5151
240.3371	0.5217
240.5526	0.521
240.7681	0.5167
240.9836	0.5138
241.199	0.522
241.4145	0.4963
241.6299	0.4963
241.8453	0.4981
242.0607	0.4839
242.2761	0.4661
242.4915	0.4673
242.7069	0.4585
242.9223	0.4481
243.1376	0.4505
243.353	0.4283
243.5683	0.4294
243.7836	0.4317
243.9989	0.4104
244.2142	0.4177
244.4295	0.417
244.6448	0.3741
244.86	0.3863
245.0753	0.3609
245.2905	0.3623
245.5057	0.354
245.721	0.3265
245.9362	0.3459
246.1514	0.3433
246.3665	0.3177
246.5817	0.3225
246.7969	0.3236
247.012	0.3055
247.2271	0.3015
247.4423	0.308
247.6574	0.2978
247.8725	0.3004
248.0876	0.275
248.3026	0.2828
248.5177	0.2846
248.7328	0.2708
248.9478	0.2553
249.1628	0.2573
249.3779	0.2649
249.5929	0.2497
249.8079	0.2651
250.0228	0.2466
250.2378	0.2446
250.4528	0.2473
250.6677	0.2289
250.8827	0.2366
251.0976	0.2352
251.3125	0.2376
251.5274	0.2125
251.7423	0.2241
251.9572	0.2216
252.172	0.2203
252.3869	0.2173
252.6017	0.2212
252.8166	0.2064
253.0314	0.2081
253.2462	0.2012
253.461	0.2117
253.6758	0.2079
253.8906	0.212
254.1053	0.196
254.3201	0.2063
254.5348	0.2216
254.7496	0.2056
254.9643	0.202
255.179	0.1984
255.3937	0.2
255.6083	0.2059
255.823	0.2033
256.0377	0.1999
256.2523	0.2088
256.467	0.1753
256.6816	0.1874
256.8962	0.1893
257.1108	0.1756
257.3254	0.196
257.54	0.1866
257.7545	0.1901
257.9691	0.2007
258.1836	0.1818
258.3981	0.2072
258.6127	0.2032
258.8272	0.1926
259.0417	0.1757
259.2561	0.1819
259.4706	0.1881
259.6851	0.1852
259.8995	0.1883
260.114	0.1813
260.3284	0.1923
260.5428	0.1847
260.7572	0.1947
260.9716	0.1838
261.186	0.1941
261.4003	0.1879
261.6147	0.1852
261.829	0.1751
262.0433	0.182
262.2577	0.1901
262.472	0.1932
262.6863	0.1773
262.9005	0.1967
263.1148	0.1801
263.3291	0.163
263.5433	0.1893
263.7576	0.1751
263.9718	0.181
264.186	0.1888
264.4002	0.1767
264.6144	0.1833
264.8286	0.191
265.0427	0.1813
265.2569	0.1706
265.471	0.1835
265.6851	0.1786
265.8993	0.1862
266.1134	0.1735
266.3275	0.1777
266.5415	0.1827
266.7556	0.1855
266.9697	0.1942
267.1837	0.1808
267.3978	0.1898
267.6118	0.1861
267.8258	0.1946
268.0398	0.1825
268.2538	0.1875
268.4677	0.1794
268.6817	0.174
268.8957	0.1894
269.1096	0.1802
269.3235	0.1844
269.5374	0.1683
269.7514	0.1717
269.9652	0.1744
270.1791	0.1736
270.393	0.1746
270.6068	0.1747
270.8207	0.1632
271.0345	0.1667
271.2483	0.1774
271.4622	0.1647
271.676	0.1781
271.8897	0.1656
272.1035	0.1608
272.3173	0.1571
272.531	0.1728
272.7448	0.1767
272.9585	0.1613
273.1722	0.1714
273.3859	0.175
273.5996	0.1599
273.8133	0.1622
274.0269	0.1727
274.2406	0.1635
274.4542	0.1733
274.6679	0.1529
274.8815	0.1687
275.0951	0.1806
275.3087	0.1742
275.5223	0.1795
275.7358	0.1626
275.9494	0.1646
276.1629	0.1711
276.3765	0.1562
276.59	0.1633
276.8035	0.1708
277.017	0.1611
277.2305	0.1647
277.444	0.1683
277.6574	0.1543
277.8709	0.1747
278.0843	0.1755
278.2978	0.1696
278.5112	0.1621
278.7246	0.1696
278.938	0.1772
279.1513	0.1818
279.3647	0.1865
279.5781	0.1718
279.7914	0.1739
280.0047	0.183
280.2181	0.1785
280.4314	0.1738
280.6447	0.1809
280.8579	0.1766
281.0712	0.1742
281.2845	0.1825
281.4977	0.1708
281.711	0.157
281.9242	0.1736
282.1374	0.1787
282.3506	0.1742
282.5638	0.1765
282.7769	0.1755
282.9901	0.172
283.2033	0.1904
283.4164	0.1827
283.6295	0.1692
283.8426	0.1663
284.0557	0.1884
284.2688	0.1914
284.4819	0.1805
284.695	0.1731
284.908	0.1828
285.1211	0.1662
285.3341	0.1828
285.5471	0.1815
285.7601	0.1811
285.9731	0.1751
286.1861	0.1728
286.3991	0.1867
286.612	0.1846
286.825	0.1863
287.0379	0.1866
287.2508	0.1765
287.4637	0.1824
287.6766	0.1664
287.8895	0.183
288.1024	0.1864
288.3152	0.1945
288.5281	0.1848
288.7409	0.1967
288.9538	0.1678
289.1666	0.1768
289.3794	0.1781
289.5922	0.1844
289.8049	0.1867
290.0177	0.1708
290.2304	0.1856
290.4432	0.1856
290.6559	0.1767
290.8686	0.1878
291.0813	0.1865
291.294	0.1799
291.5067	0.1808
291.7194	0.1905
291.932	0.1864
292.1447	0.1774
292.3573	0.1768
292.5699	0.1848
292.7825	0.1902
292.9951	0.1706
293.2077	0.1821
293.4203	0.1754
293.6328	0.173
293.8454	0.1912
294.0579	0.1688
294.2704	0.1791
294.4829	0.1713
294.6954	0.176
294.9079	0.1819
295.1204	0.1767
295.3328	0.1755
295.5453	0.1822
295.7577	0.1809
295.9701	0.1637
296.1825	0.1753
296.3949	0.1738
296.6073	0.1727
296.8197	0.1733
297.0321	0.1839
297.2444	0.168
297.4567	0.1772
297.6691	0.1787
297.8814	0.1731
298.0937	0.1677
298.306	0.1749
298.5182	0.1759
298.7305	0.1809
298.9428	0.1773
299.155	0.1817
299.3672	0.1706
299.5794	0.1742
299.7916	0.1663
300.0038	0.1838
300.216	0.1709
300.4282	0.1783
300.6403	0.1643
300.8525	0.182
301.0646	0.1676
301.2767	0.1795
301.4888	0.1724
301.7009	0.1676
301.913	0.1704
302.125	0.1721
302.3371	0.1618
302.5491	0.1844
302.7612	0.1772
302.9732	0.1764
303.1852	0.1659
303.3972	0.1699
303.6092	0.1589
303.8211	0.163
304.0331	0.1551
304.245	0.165
304.457	0.1683
304.6689	0.1534
304.8808	0.1725
305.0927	0.1482
305.3046	0.1717
305.5164	0.1682
305.7283	0.1552
305.9401	0.1607
306.152	0.1545
306.3638	0.1593
306.5756	0.1492
306.7874	0.1562
306.9992	0.1488
307.2109	0.1511
307.4227	0.147
307.6344	0.147
307.8462	0.1385
308.0579	0.1391
308.2696	0.1474
308.4813	0.1449
308.693	0.1403
308.9046	0.1412
309.1163	0.1335
309.328	0.1364
309.5396	0.1272
309.7512	0.1318
309.9628	0.1212
310.1744	0.1238
310.386	0.1242
310.5976	0.1253
310.8091	0.1316
311.0207	0.1196
311.2322	0.1269
311.4437	0.1188
311.6552	0.1225
311.8667	0.1264
312.0782	0.1015
312.2897	0.1161
312.5012	0.1142
312.7126	0.1047
312.924	0.1053
313.1355	0.1121
313.3469	0.116
313.5583	0.1048
313.7696	0.1216
313.981	0.1055
314.1924	0.1098
314.4037	0.1177
314.6151	0.1216
314.8264	0.104
315.0377	0.1011
315.249	0.1151
315.4603	0.1148
315.6716	0.1046
315.8828	0.0999
316.0941	0.0985
316.3053	0.0996
316.5165	0.0899
316.7277	0.0916
316.9389	0.1068
317.1501	0.0988
317.3613	0.106
317.5724	0.0918
317.7836	0.1053
317.9947	0.098
318.2058	0.104
318.417	0.0876
318.6281	0.0939
318.8391	0.1001
319.0502	0.0927
319.2613	0.1091
319.4723	0.1093
319.6834	0.0972
319.8944	0.0884
320.1054	0.1028
320.3164	0.1071
320.5274	0.0965
320.7383	0.1092
320.9493	0.1026
321.1602	0.1032
321.3712	0.0841
321.5821	0.1093
321.793	0.1098
322.0039	0.104
322.2148	0.0991
322.4257	0.103
322.6365	0.1066
322.8474	0.1106
323.0582	0.095
323.269	0.1154
323.4798	0.117
323.6906	0.0918
323.9014	0.0977
324.1122	0.1053
324.3229	0.103
324.5337	0.1091
324.7444	0.1002
324.9551	0.1133
325.1658	0.108
325.3765	0.1014
325.5872	0.112
325.7979	0.1061
326.0085	0.1116
326.2192	0.1051
326.4298	0.1129
326.6404	0.1059
326.851	0.0869
327.0616	0.0985
327.2722	0.1115
327.4828	0.1086
327.6933	0.0988
327.9039	0.1174
328.1144	0.1063
328.3249	0.1116
328.5354	0.1025
328.7459	0.1092
328.9564	0.0994
329.1669	0.1141
329.3773	0.1108
329.5878	0.1052
329.7982	0.0996
330.0086	0.1042
330.219	0.1159
330.4294	0.1095
330.6398	0.0915
330.8502	0.1112
331.0605	0.1099
331.2708	0.1163
331.4812	0.11
331.6915	0.1109
331.9018	0.1122
332.1121	0.1099
332.3224	0.1137
332.5326	0.1145
332.7429	0.1132
332.9531	0.111
333.1633	0.1154
333.3735	0.1
333.5837	0.1082
333.7939	0.1055
334.0041	0.1299
334.2143	0.1139
334.4244	0.112
334.6346	0.0899
334.8447	0.1261
335.0548	0.1134
335.2649	0.1062
335.475	0.1216
335.685	0.1016
335.8951	0.1124
336.1051	0.115
336.3152	0.123
336.5252	0.1083
336.7352	0.1293
336.9452	0.1165
337.1552	0.1163
337.3652	0.1043
337.5751	0.1162
337.7851	0.1108
337.995	0.1095
338.2049	0.1182
338.4148	0.1179
338.6247	0.1151
338.8346	0.1028
339.0445	0.1112
339.2543	0.1082
339.4642	0.1161
339.674	0.1163
339.8838	0.1202
340.0936	0.1137
340.3034	0.1207
340.5132	0.1175
340.7229	0.1092
340.9327	0.116
341.1424	0.1125
341.3522	0.1282
341.5619	0.1212
341.7716	0.1186
341.9813	0.1159
342.1909	0.1218
342.4006	0.1312
342.6102	0.1341
342.8199	0.1271
343.0295	0.1261
343.2391	0.129
343.4487	0.1342
343.6583	0.1342
343.8679	0.1305
344.0774	0.1184
344.287	0.1257
344.4965	0.1264
344.706	0.1325
344.9155	0.1264
345.125	0.1283
345.3345	0.1279
345.544	0.1294
345.7534	0.1285
345.9629	0.1332
346.1723	0.1427
346.3817	0.1243
346.5911	0.1209
346.8005	0.1269
347.0099	0.1314
347.2193	0.1259
347.4286	0.1324
347.638	0.1283
347.8473	0.1356
348.0566	0.1406
348.2659	0.1233
348.4752	0.1338
348.6845	0.1249
348.8937	0.1305
349.103	0.1463
349.3122	0.1214
349.5214	0.1203
349.7306	0.1501
349.9398	0.1499
350.149	0.1355
350.3582	0.1326
350.5674	0.1523
350.7765	0.1575
350.9856	0.1372
351.1948	0.1483
351.4039	0.1345
351.613	0.1319
351.822	0.1483
352.0311	0.1567
352.2402	0.1456
352.4492	0.1475
352.6582	0.1587
352.8672	0.1481
353.0762	0.1429
353.2852	0.145
353.4942	0.1323
353.7032	0.1536
353.9121	0.1507
354.1211	0.1529
354.33	0.1461
354.5389	0.1573
354.7478	0.1341
354.9567	0.1477
355.1655	0.1432
355.3744	0.159
355.5833	0.1688
355.7921	0.1734
356.0009	0.1551
356.2097	0.1513
356.4185	0.1728
356.6273	0.1708
356.8361	0.1672
357.0448	0.1611
357.2536	0.1673
357.4623	0.1658
357.671	0.161
357.8797	0.1684
358.0884	0.1705
358.2971	0.1544
358.5057	0.1653
358.7144	0.1659
358.923	0.1761
359.1316	0.1618
359.3402	0.1659
359.5488	0.1555
359.7574	0.1639
359.966	0.1616
360.1746	0.1666
360.3831	0.1831
360.5916	0.1559
360.8002	0.1606
361.0087	0.1908
361.2172	0.1641
361.4256	0.1754
361.6341	0.1897
361.8426	0.1804
362.051	0.1753
362.2594	0.1734
362.4678	0.1855
362.6762	0.205
362.8846	0.1933
363.093	0.1644
363.3014	0.1866
363.5097	0.1762
363.718	0.1727
363.9264	0.1862
364.1347	0.1837
364.343	0.1842
364.5513	0.203
364.7595	0.1915
364.9678	0.2024
365.176	0.1863
365.3842	0.1929
365.5925	0.1893
365.8007	0.186
366.0089	0.1878
366.217	0.187
366.4252	0.1952
366.6333	0.2069
366.8415	0.1967
367.0496	0.2047
367.2577	0.2119
367.4658	0.2225
367.6739	0.1986
367.882	0.2098
368.09	0.195
368.2981	0.2087
368.5061	0.1967
368.7141	0.2255
368.9221	0.2184
369.1301	0.213
369.3381	0.2073
369.5461	0.2182
369.754	0.2139
369.962	0.2227
370.1699	0.2192
370.3778	0.2385
370.5857	0.2037
370.7936	0.2163
371.0015	0.2111
371.2093	0.2148
371.4172	0.2237
371.625	0.2086
371.8328	0.2179
372.0406	0.224
372.2484	0.2244
372.4562	0.2281
372.664	0.2119
372.8717	0.2437
373.0795	0.1956
373.2872	0.226
373.4949	0.223
373.7026	0.2287
373.9103	0.2288
374.118	0.2326
374.3256	0.2484
374.5333	0.2204
374.7409	0.2176
374.9485	0.2403
375.1561	0.2321
375.3637	0.2315
375.5713	0.2315
375.7789	0.2428
375.9864	0.2251
376.194	0.2342
376.4015	0.2378
376.609	0.2403
376.8165	0.2284
377.024	0.2397
377.2315	0.2323
377.4389	0.2413
377.6464	0.2404
377.8538	0.2362
378.0612	0.2328
378.2686	0.247
378.476	0.2432
378.6834	0.24
378.8908	0.2476
379.0981	0.2584
379.3055	0.2488
379.5128	0.236
379.7201	0.2486
379.9274	0.2374
380.1347	0.2381
380.342	0.2685
380.5492	0.2291
380.7565	0.2384
380.9637	0.2409
381.1709	0.2315
381.3781	0.258
381.5853	0.253
381.7925	0.2557
381.9997	0.259
382.2068	0.2558
382.4139	0.2605
382.6211	0.2378
382.8282	0.2403
383.0353	0.2538
383.2424	0.2543
383.4494	0.2699
383.6565	0.2537
383.8635	0.2653
384.0706	0.2516
384.2776	0.2539
384.4846	0.2479
384.6916	0.2606
384.8986	0.2396
385.1055	0.244
385.3125	0.2659
385.5194	0.2368
385.7263	0.2628
385.9333	0.2581
386.1402	0.2742
386.347	0.2461
386.5539	0.2475
386.7608	0.2581
386.9676	0.2505
387.1744	0.2495
387.3813	0.2282
387.5881	0.2585
387.7948	0.2546
388.0016	0.2479
388.2084	0.2473
388.4151	0.2492
388.6219	0.2474
388.8286	0.2394
389.0353	0.2676
389.242	0.2499
389.4487	0.2356
389.6553	0.2553
389.862	0.2166
390.0686	0.2174
390.2753	0.2531
390.4819	0.2395
390.6885	0.2483
390.8951	0.2389
391.1016	0.2507
391.3082	0.2118
391.5147	0.2489
391.7213	0.2323
391.9278	0.2278
392.1343	0.2218
392.3408	0.2385
392.5473	0.2356
392.7537	0.2322
392.9602	0.217
393.1666	0.2356
393.373	0.2341
393.5794	0.2417
393.7858	0.2176
393.9922	0.2182
394.1986	0.2436
394.4049	0.2403
394.6113	0.222
394.8176	0.2131
395.0239	0.2336
395.2302	0.2054
395.4365	0.2184
395.6428	0.215
395.8491	0.208
396.0553	0.2239
396.2615	0.225
396.4678	0.2183
396.674	0.2038
396.8802	0.2294
397.0863	0.2427
397.2925	0.2134
397.4987	0.1984
397.7048	0.2112
397.9109	0.2169
398.117	0.199
398.3231	0.2112
398.5292	0.2295
398.7353	0.2368
398.9413	0.1987
399.1474	0.203
399.3534	0.2076
399.5594	0.2138
399.7654	0.2287
399.9714	0.2204
400.1774	0.211
400.3833	0.2073
400.5893	0.2195
400.7952	0.2069
401.0011	0.2269
401.207	0.2077
401.4129	0.2157
401.6188	0.2282
401.8247	0.2128
402.0305	0.1895
402.2364	0.2023
402.4422	0.2233
402.648	0.2133
402.8538	0.2128
403.0596	0.213
403.2654	0.2164
403.4711	0.2165
403.6768	0.2095
403.8826	0.2263
404.0883	0.2213
404.294	0.216
404.4997	0.2071
404.7054	0.214
404.911	0.1949
405.1167	0.2122
405.3223	0.2248
405.5279	0.2154
405.7335	0.2105
405.9391	0.2077
406.1447	0.1981
406.3502	0.2127
406.5558	0.212
406.7613	0.2171
406.9668	0.2048
407.1724	0.223
407.3778	0.2184
407.5833	0.2163
407.7888	0.1897
407.9942	0.2237
408.1997	0.2173
408.4051	0.2129
408.6105	0.2145
408.8159	0.2035
409.0213	0.191
409.2267	0.209
409.432	0.2185
409.6374	0.2398
409.8427	0.2101
410.048	0.2059
410.2533	0.209
410.4586	0.2011
410.6639	0.2143
410.8691	0.2165
411.0744	0.199
411.2796	0.1982
411.4848	0.2224
411.69	0.2081
411.8952	0.22
412.1004	0.2038
412.3056	0.226
412.5107	0.2043
412.7158	0.2117
412.921	0.2085
413.1261	0.2017
413.3312	0.2084
413.5362	0.1951
413.7413	0.206
413.9464	0.2138
414.1514	0.2066
414.3564	0.1912
414.5614	0.1999
414.7664	0.1952
414.9714	0.1961
415.1764	0.1934
415.3813	0.2048
415.5863	0.213
415.7912	0.2078
415.9961	0.2061
416.201	0.217
416.4059	0.2286
416.6108	0.1977
416.8156	0.1961
417.0205	0.2017
417.2253	0.2099
417.4301	0.2259
417.6349	0.2118
417.8397	0.1898
418.0445	0.1917
418.2492	0.2267
418.454	0.2044
418.6587	0.2087
418.8634	0.1964
419.0681	0.1902
419.2728	0.1803
419.4775	0.1984
419.6822	0.1845
419.8868	0.1842
420.0915	0.1835
420.2961	0.1818
420.5007	0.1761
420.7053	0.1866
420.9099	0.1878
421.1144	0.1778
421.319	0.1872
421.5235	0.1906
421.728	0.1865
421.9325	0.1988
422.137	0.2007
422.3415	0.1941
422.546	0.1975
422.7504	0.1871
422.9549	0.1947
423.1593	0.1891
423.3637	0.1938
423.5681	0.1918
423.7725	0.1846
423.9769	0.1744
424.1812	0.1674
424.3856	0.1782
424.5899	0.1617
424.7942	0.1732
424.9985	0.1866
425.2028	0.1563
425.4071	0.2028
425.6113	0.1623
425.8156	0.1649
426.0198	0.1952
426.224	0.1531
426.4282	0.1558
426.6324	0.1755
