Data from MonoPyChalIsomerACN10uM380nmA_Absorbance_13-38-28-849.txt Node
Date: Fri Jul 05 13:38:28 BST 2024
User: LASERRRRR
Spectrometer: FLMT03099
Trigger mode: 0
Integration Time (sec): 1.000000E-1
Scans to average: 1
Electric dark correction enabled: true
Nonlinearity correction enabled: false
Boxcar width: 0
XAxis mode: Wavelengths
Number of Pixels in Spectrum: 3648
>>>>>Begin Spectral Data<<<<<
179.3399	-0.2304
179.5586	-0.2304
179.7771	-0.2304
179.9957	-0
180.2143	0.2684
180.4329	0.2841
180.6514	-0
180.8699	-0
181.0885	-0.0557
181.307	0.1694
181.5255	-0.407
181.744	-0
181.9625	-0
182.181	-0
182.3994	-0
182.6179	-0
182.8363	-0.2962
183.0547	-0.0677
183.2732	-0.0231
183.4916	0.3191
183.71	0.305
183.9284	0.2367
184.1467	-0.0832
184.3651	0.0785
184.5835	0.0332
184.8018	-0.0481
185.0201	0.1236
185.2385	0.0972
185.4568	1.0063
185.6751	0.0693
185.8934	0.1142
186.1117	0.1056
186.3299	0.1781
186.5482	0.1178
186.7664	-0.161
186.9847	0.0436
187.2029	0.0485
187.4211	-0.0698
187.6393	0.0166
187.8575	0.2008
188.0757	0.2623
188.2939	0.025
188.512	0.1764
188.7302	0.0567
188.9483	-0.0534
189.1665	0.0956
189.3846	0.0553
189.6027	0.161
189.8208	0.0671
190.0389	-0.0084
190.257	0.2453
190.475	0.4391
190.6931	0.4027
190.9111	0.4856
191.1292	0.1654
191.3472	0.3556
191.5652	0.2213
191.7832	0.1736
192.0012	0.6816
192.2192	0.4282
192.4371	0.542
192.6551	0.5025
192.873	0.4363
193.091	0.3767
193.3089	0.4561
193.5268	0.4451
193.7447	0.8335
193.9626	0.4524
194.1805	0.566
194.3984	0.9077
194.6162	0.528
194.8341	0.7287
195.0519	0.5456
195.2697	0.6018
195.4875	0.6482
195.7054	0.9993
195.9231	0.5978
196.1409	0.7713
196.3587	0.5328
196.5765	0.6357
196.7942	0.6267
197.012	0.813
197.2297	0.5544
197.4474	0.706
197.6651	0.633
197.8828	0.8006
198.1005	0.7992
198.3182	0.6663
198.5358	0.9272
198.7535	0.8704
198.9711	0.7008
199.1888	0.9097
199.4064	1.2843
199.624	0.8038
199.8416	0.7969
200.0592	0.6811
200.2767	0.8408
200.4943	0.9418
200.7119	1.0748
200.9294	0.8278
201.1469	0.6994
201.3645	0.7076
201.582	0.7051
201.7995	0.9499
202.017	0.984
202.2344	0.7644
202.4519	0.9545
202.6694	0.6519
202.8868	0.6919
203.1042	0.9119
203.3217	0.9813
203.5391	0.9129
203.7565	0.6549
203.9739	0.7341
204.1913	0.7154
204.4086	0.8464
204.626	1.0101
204.8433	0.7172
205.0607	0.7608
205.278	0.7909
205.4953	0.7565
205.7126	0.9042
205.9299	1.1415
206.1472	0.8905
206.3644	0.7409
206.5817	0.8316
206.7989	0.7848
207.0162	0.8045
207.2334	0.9698
207.4506	0.7739
207.6678	0.695
207.885	0.8824
208.1022	0.7845
208.3194	0.7652
208.5365	0.8728
208.7537	0.8928
208.9708	0.8002
209.1879	0.8211
209.405	0.8815
209.6222	1.0815
209.8392	0.7438
210.0563	0.7309
210.2734	0.8195
210.4905	0.7278
210.7075	0.8637
210.9245	0.735
211.1416	0.9557
211.3586	0.8482
211.5756	0.7603
211.7926	0.751
212.0096	0.7671
212.2265	0.7804
212.4435	0.7521
212.6604	0.8527
212.8774	0.7567
213.0943	0.8094
213.3112	0.7534
213.5281	0.7205
213.745	0.7239
213.9619	0.7249
214.1788	0.6689
214.3956	0.6611
214.6125	0.7026
214.8293	0.6294
215.0461	0.7101
215.2629	0.6325
215.4798	0.6857
215.6965	0.6177
215.9133	0.6765
216.1301	0.6116
216.3469	0.6794
216.5636	0.686
216.7803	0.6032
216.9971	0.6921
217.2138	0.6054
217.4305	0.6032
217.6472	0.6069
217.8639	0.6446
218.0805	0.6064
218.2972	0.6318
218.5138	0.5901
218.7305	0.5675
218.9471	0.5788
219.1637	0.5611
219.3803	0.5583
219.5969	0.5424
219.8135	0.53
220.0301	0.5675
220.2466	0.5914
220.4632	0.5571
220.6797	0.5038
220.8962	0.54
221.1127	0.5039
221.3292	0.5103
221.5457	0.5197
221.7622	0.521
221.9787	0.5341
222.1951	0.5402
222.4116	0.5205
222.628	0.5081
222.8444	0.5531
223.0608	0.5173
223.2772	0.5153
223.4936	0.5429
223.71	0.5147
223.9264	0.5281
224.1427	0.557
224.3591	0.5205
224.5754	0.5264
224.7917	0.5693
225.008	0.5358
225.2243	0.5261
225.4406	0.5666
225.6569	0.5175
225.8732	0.5361
226.0894	0.5112
226.3057	0.5592
226.5219	0.5435
226.7381	0.5496
226.9543	0.5325
227.1705	0.588
227.3867	0.5164
227.6029	0.5524
227.8191	0.5654
228.0352	0.5654
228.2513	0.5556
228.4675	0.5717
228.6836	0.544
228.8997	0.5395
229.1158	0.5732
229.3319	0.5669
229.548	0.5407
229.764	0.5449
229.9801	0.5713
230.1961	0.5594
230.4121	0.5613
230.6282	0.5635
230.8442	0.518
231.0602	0.5504
231.2761	0.5786
231.4921	0.5798
231.7081	0.5648
231.924	0.5534
232.14	0.5639
232.3559	0.5369
232.5718	0.5741
232.7877	0.5659
233.0036	0.5304
233.2195	0.5493
233.4353	0.5483
233.6512	0.5412
233.867	0.5639
234.0829	0.5359
234.2987	0.5589
234.5145	0.571
234.7303	0.5699
234.9461	0.5794
235.1619	0.5721
235.3776	0.5533
235.5934	0.5653
235.8091	0.5235
236.0249	0.5658
236.2406	0.5466
236.4563	0.5407
236.672	0.572
236.8877	0.5554
237.1034	0.5348
237.319	0.5463
237.5347	0.5607
237.7503	0.5375
237.966	0.5719
238.1816	0.5377
238.3972	0.511
238.6128	0.5337
238.8284	0.5449
239.0439	0.5338
239.2595	0.52
239.475	0.5459
239.6906	0.524
239.9061	0.5114
240.1216	0.5077
240.3371	0.5222
240.5526	0.5157
240.7681	0.5303
240.9836	0.4939
241.199	0.4988
241.4145	0.4671
241.6299	0.4741
241.8453	0.4828
242.0607	0.4832
242.2761	0.4546
242.4915	0.4596
242.7069	0.4656
242.9223	0.4336
243.1376	0.4476
243.353	0.4279
243.5683	0.4329
243.7836	0.3954
243.9989	0.4126
244.2142	0.3584
244.4295	0.4031
244.6448	0.3996
244.86	0.3797
245.0753	0.3757
245.2905	0.3537
245.5057	0.3481
245.721	0.3475
245.9362	0.3379
246.1514	0.3413
246.3665	0.3202
246.5817	0.3212
246.7969	0.3168
247.012	0.3047
247.2271	0.2964
247.4423	0.3114
247.6574	0.2892
247.8725	0.2882
248.0876	0.2719
248.3026	0.2697
248.5177	0.2814
248.7328	0.2641
248.9478	0.2498
249.1628	0.2648
249.3779	0.2592
249.5929	0.252
249.8079	0.2568
250.0228	0.2377
250.2378	0.243
250.4528	0.2523
250.6677	0.2282
250.8827	0.2356
251.0976	0.2487
251.3125	0.2322
251.5274	0.202
251.7423	0.2107
251.9572	0.2255
252.172	0.2211
252.3869	0.2141
252.6017	0.2128
252.8166	0.2089
253.0314	0.1884
253.2462	0.2118
253.461	0.213
253.6758	0.201
253.8906	0.2019
254.1053	0.2019
254.3201	0.1992
254.5348	0.2183
254.7496	0.2152
254.9643	0.186
255.179	0.1932
255.3937	0.1966
255.6083	0.1984
255.823	0.1926
256.0377	0.1971
256.2523	0.2042
256.467	0.1796
256.6816	0.2068
256.8962	0.198
257.1108	0.1797
257.3254	0.1991
257.54	0.1829
257.7545	0.1886
257.9691	0.1916
258.1836	0.186
258.3981	0.1902
258.6127	0.1969
258.8272	0.1812
259.0417	0.1746
259.2561	0.1765
259.4706	0.1948
259.6851	0.1784
259.8995	0.1825
260.114	0.1792
260.3284	0.1812
260.5428	0.1792
260.7572	0.181
260.9716	0.1804
261.186	0.1769
261.4003	0.1843
261.6147	0.1843
261.829	0.1722
262.0433	0.1807
262.2577	0.1809
262.472	0.1821
262.6863	0.1854
262.9005	0.1816
263.1148	0.1778
263.3291	0.1779
263.5433	0.1853
263.7576	0.1859
263.9718	0.1802
264.186	0.1726
264.4002	0.1833
264.6144	0.1874
264.8286	0.1887
265.0427	0.1814
265.2569	0.1895
265.471	0.1841
265.6851	0.1746
265.8993	0.169
266.1134	0.163
266.3275	0.1902
266.5415	0.1683
266.7556	0.1856
266.9697	0.1769
267.1837	0.1795
267.3978	0.185
267.6118	0.1856
267.8258	0.1923
268.0398	0.1686
268.2538	0.1817
268.4677	0.176
268.6817	0.1691
268.8957	0.1673
269.1096	0.1806
269.3235	0.1793
269.5374	0.1752
269.7514	0.1624
269.9652	0.1663
270.1791	0.1603
270.393	0.1577
270.6068	0.1738
270.8207	0.1619
271.0345	0.1599
271.2483	0.1677
271.4622	0.1661
271.676	0.1698
271.8897	0.1494
272.1035	0.1661
272.3173	0.1575
272.531	0.1432
272.7448	0.1652
272.9585	0.1473
273.1722	0.1607
273.3859	0.1591
273.5996	0.148
273.8133	0.1689
274.0269	0.1614
274.2406	0.1496
274.4542	0.1633
274.6679	0.1461
274.8815	0.1658
275.0951	0.1706
275.3087	0.1723
275.5223	0.1712
275.7358	0.1616
275.9494	0.1656
276.1629	0.1561
276.3765	0.1543
276.59	0.1601
276.8035	0.1599
277.017	0.1628
277.2305	0.1525
277.444	0.1598
277.6574	0.1436
277.8709	0.1659
278.0843	0.1524
278.2978	0.157
278.5112	0.149
278.7246	0.1562
278.938	0.1616
279.1513	0.1767
279.3647	0.1736
279.5781	0.1622
279.7914	0.1555
280.0047	0.1713
280.2181	0.1568
280.4314	0.1616
280.6447	0.1561
280.8579	0.1576
281.0712	0.1658
281.2845	0.172
281.4977	0.1759
281.711	0.1463
281.9242	0.1685
282.1374	0.1721
282.3506	0.1541
282.5638	0.1703
282.7769	0.164
282.9901	0.1715
283.2033	0.1767
283.4164	0.1716
283.6295	0.1583
283.8426	0.1596
284.0557	0.1743
284.2688	0.1832
284.4819	0.1684
284.695	0.1661
284.908	0.1694
285.1211	0.1612
285.3341	0.1846
285.5471	0.1758
285.7601	0.1659
285.9731	0.159
286.1861	0.1813
286.3991	0.1779
286.612	0.1752
286.825	0.179
287.0379	0.1765
287.2508	0.1763
287.4637	0.1853
287.6766	0.1772
287.8895	0.1744
288.1024	0.1993
288.3152	0.1801
288.5281	0.1829
288.7409	0.1706
288.9538	0.1881
289.1666	0.1917
289.3794	0.181
289.5922	0.1698
289.8049	0.1809
290.0177	0.1776
290.2304	0.1829
290.4432	0.1745
290.6559	0.1834
290.8686	0.1938
291.0813	0.188
291.294	0.196
291.5067	0.2036
291.7194	0.1807
291.932	0.1936
292.1447	0.1698
292.3573	0.1622
292.5699	0.183
292.7825	0.1784
292.9951	0.1785
293.2077	0.1758
293.4203	0.1945
293.6328	0.181
293.8454	0.1892
294.0579	0.1897
294.2704	0.1864
294.4829	0.1658
294.6954	0.1859
294.9079	0.1848
295.1204	0.1858
295.3328	0.1854
295.5453	0.1822
295.7577	0.1907
295.9701	0.1758
296.1825	0.1773
296.3949	0.1779
296.6073	0.1809
296.8197	0.1705
297.0321	0.188
297.2444	0.1583
297.4567	0.1842
297.6691	0.1821
297.8814	0.1758
298.0937	0.1846
298.306	0.1811
298.5182	0.1801
298.7305	0.1885
298.9428	0.1736
299.155	0.1878
299.3672	0.1788
299.5794	0.1734
299.7916	0.1692
300.0038	0.1758
300.216	0.1824
300.4282	0.1844
300.6403	0.1735
300.8525	0.178
301.0646	0.175
301.2767	0.1831
301.4888	0.1877
301.7009	0.1867
301.913	0.1834
302.125	0.1701
302.3371	0.1715
302.5491	0.1832
302.7612	0.1771
302.9732	0.1886
303.1852	0.1769
303.3972	0.1888
303.6092	0.1677
303.8211	0.1611
304.0331	0.1602
304.245	0.1599
304.457	0.1597
304.6689	0.1711
304.8808	0.1677
305.0927	0.1562
305.3046	0.1608
305.5164	0.1706
305.7283	0.1618
305.9401	0.1643
306.152	0.158
306.3638	0.155
306.5756	0.159
306.7874	0.1604
306.9992	0.1649
307.2109	0.1553
307.4227	0.1452
307.6344	0.1433
307.8462	0.1487
308.0579	0.1405
308.2696	0.1378
308.4813	0.145
308.693	0.1434
308.9046	0.1449
309.1163	0.1388
309.328	0.1269
309.5396	0.1261
309.7512	0.127
309.9628	0.13
310.1744	0.1184
310.386	0.1241
310.5976	0.1248
310.8091	0.1195
311.0207	0.1215
311.2322	0.1287
311.4437	0.1057
311.6552	0.1211
311.8667	0.1158
312.0782	0.1136
312.2897	0.116
312.5012	0.117
312.7126	0.1116
312.924	0.1054
313.1355	0.1249
313.3469	0.1062
313.5583	0.112
313.7696	0.1052
313.981	0.1062
314.1924	0.1047
314.4037	0.1009
314.6151	0.104
314.8264	0.0982
315.0377	0.0977
315.249	0.0994
315.4603	0.1047
315.6716	0.1001
315.8828	0.095
316.0941	0.0948
316.3053	0.0976
316.5165	0.0998
316.7277	0.093
316.9389	0.1002
317.1501	0.0999
317.3613	0.0968
317.5724	0.0814
317.7836	0.0946
317.9947	0.0907
318.2058	0.0918
318.417	0.085
318.6281	0.0876
318.8391	0.0879
319.0502	0.0823
319.2613	0.0986
319.4723	0.0968
319.6834	0.1042
319.8944	0.0808
320.1054	0.0993
320.3164	0.0981
320.5274	0.0777
320.7383	0.0823
320.9493	0.0941
321.1602	0.1082
321.3712	0.0932
321.5821	0.1082
321.793	0.1025
322.0039	0.0937
322.2148	0.0914
322.4257	0.0974
322.6365	0.1024
322.8474	0.0973
323.0582	0.0941
323.269	0.1084
323.4798	0.0985
323.6906	0.1038
323.9014	0.1025
324.1122	0.1001
324.3229	0.0926
324.5337	0.0912
324.7444	0.1025
324.9551	0.1109
325.1658	0.1005
325.3765	0.1027
325.5872	0.1068
325.7979	0.0998
326.0085	0.0954
326.2192	0.1081
326.4298	0.0907
326.6404	0.0884
326.851	0.093
327.0616	0.0861
327.2722	0.0987
327.4828	0.1044
327.6933	0.0967
327.9039	0.0953
328.1144	0.1044
328.3249	0.1091
328.5354	0.0844
328.7459	0.0961
328.9564	0.0838
329.1669	0.0997
329.3773	0.1006
329.5878	0.1014
329.7982	0.0936
330.0086	0.0956
330.219	0.0953
330.4294	0.102
330.6398	0.108
330.8502	0.0974
331.0605	0.0953
331.2708	0.0961
331.4812	0.0964
331.6915	0.0989
331.9018	0.1038
332.1121	0.0974
332.3224	0.1019
332.5326	0.1017
332.7429	0.0987
332.9531	0.1103
333.1633	0.1094
333.3735	0.1053
333.5837	0.0907
333.7939	0.0986
334.0041	0.1224
334.2143	0.1028
334.4244	0.1024
334.6346	0.0948
334.8447	0.1177
335.0548	0.0979
335.2649	0.0941
335.475	0.1064
335.685	0.1008
335.8951	0.1125
336.1051	0.1144
336.3152	0.1065
336.5252	0.0996
336.7352	0.1046
336.9452	0.1144
337.1552	0.1112
337.3652	0.0992
337.5751	0.1057
337.7851	0.1104
337.995	0.1024
338.2049	0.1208
338.4148	0.106
338.6247	0.1144
338.8346	0.097
339.0445	0.0941
339.2543	0.101
339.4642	0.1148
339.674	0.1022
339.8838	0.105
340.0936	0.107
340.3034	0.1147
340.5132	0.1149
340.7229	0.1079
340.9327	0.0998
341.1424	0.1113
341.3522	0.1153
341.5619	0.107
341.7716	0.1066
341.9813	0.1108
342.1909	0.1038
342.4006	0.1089
342.6102	0.1281
342.8199	0.1142
343.0295	0.1228
343.2391	0.1246
343.4487	0.121
343.6583	0.1218
343.8679	0.1193
344.0774	0.1237
344.287	0.1272
344.4965	0.1177
344.706	0.1129
344.9155	0.1168
345.125	0.1137
345.3345	0.1305
345.544	0.1247
345.7534	0.1178
345.9629	0.1243
346.1723	0.1262
346.3817	0.1167
346.5911	0.1335
346.8005	0.1206
347.0099	0.123
347.2193	0.135
347.4286	0.118
347.638	0.1293
347.8473	0.1276
348.0566	0.1328
348.2659	0.1331
348.4752	0.1281
348.6845	0.1127
348.8937	0.1253
349.103	0.1388
349.3122	0.1243
349.5214	0.1243
349.7306	0.141
349.9398	0.1293
350.149	0.1329
350.3582	0.1254
350.5674	0.1473
350.7765	0.1306
350.9856	0.1344
351.1948	0.1309
351.4039	0.119
351.613	0.1336
351.822	0.1426
352.0311	0.1529
352.2402	0.1453
352.4492	0.1487
352.6582	0.1339
352.8672	0.1343
353.0762	0.138
353.2852	0.1367
353.4942	0.1357
353.7032	0.1298
353.9121	0.1408
354.1211	0.1474
354.33	0.15
354.5389	0.1563
354.7478	0.1442
354.9567	0.1552
355.1655	0.1332
355.3744	0.1506
355.5833	0.1483
355.7921	0.1738
356.0009	0.1595
356.2097	0.1616
356.4185	0.1564
356.6273	0.162
356.8361	0.1619
357.0448	0.1576
357.2536	0.1448
357.4623	0.1464
357.671	0.1548
357.8797	0.1585
358.0884	0.1655
358.2971	0.1475
358.5057	0.1719
358.7144	0.1655
358.923	0.1641
359.1316	0.1829
359.3402	0.1672
359.5488	0.1682
359.7574	0.1628
359.966	0.1762
360.1746	0.1737
360.3831	0.1832
360.5916	0.1716
360.8002	0.1625
361.0087	0.1823
361.2172	0.1637
361.4256	0.1833
361.6341	0.1811
361.8426	0.1994
362.051	0.1806
362.2594	0.1919
362.4678	0.1826
362.6762	0.1994
362.8846	0.1838
363.093	0.1828
363.3014	0.1701
363.5097	0.1774
363.718	0.192
363.9264	0.1876
364.1347	0.1707
364.343	0.2009
364.5513	0.1934
364.7595	0.1962
364.9678	0.1923
365.176	0.1984
365.3842	0.1907
365.5925	0.1814
365.8007	0.1899
366.0089	0.1892
366.217	0.1809
366.4252	0.2028
366.6333	0.2123
366.8415	0.1908
367.0496	0.1962
367.2577	0.2232
367.4658	0.2275
367.6739	0.2077
367.882	0.213
368.09	0.2073
368.2981	0.2357
368.5061	0.2003
368.7141	0.2284
368.9221	0.209
369.1301	0.2107
369.3381	0.2159
369.5461	0.2195
369.754	0.2122
369.962	0.214
370.1699	0.2239
370.3778	0.2254
370.5857	0.2202
370.7936	0.2098
371.0015	0.2226
371.2093	0.2199
371.4172	0.2424
371.625	0.2167
371.8328	0.2201
372.0406	0.2287
372.2484	0.2284
372.4562	0.2353
372.664	0.2499
372.8717	0.2445
373.0795	0.208
373.2872	0.2282
373.4949	0.2324
373.7026	0.2218
373.9103	0.2379
374.118	0.2474
374.3256	0.2584
374.5333	0.241
374.7409	0.2341
374.9485	0.2567
375.1561	0.2381
375.3637	0.2522
375.5713	0.2478
375.7789	0.2396
375.9864	0.2339
376.194	0.2435
376.4015	0.2586
376.609	0.2525
376.8165	0.2389
377.024	0.2484
377.2315	0.2335
377.4389	0.2604
377.6464	0.2495
377.8538	0.2444
378.0612	0.2312
378.2686	0.2571
378.476	0.2622
378.6834	0.2567
378.8908	0.2571
379.0981	0.2549
379.3055	0.262
379.5128	0.2425
379.7201	0.2673
379.9274	0.2514
380.1347	0.2639
380.342	0.294
380.5492	0.2632
380.7565	0.2512
380.9637	0.2632
381.1709	0.271
381.3781	0.2718
381.5853	0.2704
381.7925	0.275
381.9997	0.2693
382.2068	0.2656
382.4139	0.2718
382.6211	0.2488
382.8282	0.2613
383.0353	0.2588
383.2424	0.2487
383.4494	0.2922
383.6565	0.2435
383.8635	0.2681
384.0706	0.2712
384.2776	0.2771
384.4846	0.265
384.6916	0.2669
384.8986	0.2787
385.1055	0.2811
385.3125	0.2667
385.5194	0.2569
385.7263	0.2709
385.9333	0.2679
386.1402	0.2866
386.347	0.2574
386.5539	0.2639
386.7608	0.2723
386.9676	0.2579
387.1744	0.2692
387.3813	0.2565
387.5881	0.254
387.7948	0.261
388.0016	0.2808
388.2084	0.2637
388.4151	0.2688
388.6219	0.2777
388.8286	0.2795
389.0353	0.2872
389.242	0.2594
389.4487	0.2511
389.6553	0.2537
389.862	0.2384
390.0686	0.2545
390.2753	0.2611
390.4819	0.2788
390.6885	0.2675
390.8951	0.2463
391.1016	0.2663
391.3082	0.2689
391.5147	0.2427
391.7213	0.255
391.9278	0.2536
392.1343	0.2301
392.3408	0.2685
392.5473	0.2415
392.7537	0.244
392.9602	0.2466
393.1666	0.2461
393.373	0.2534
393.5794	0.2436
393.7858	0.2343
393.9922	0.2225
394.1986	0.2508
394.4049	0.2474
394.6113	0.2466
394.8176	0.2443
395.0239	0.2216
395.2302	0.2491
395.4365	0.2296
395.6428	0.2452
395.8491	0.2351
396.0553	0.249
396.2615	0.219
396.4678	0.2168
396.674	0.2144
396.8802	0.2355
397.0863	0.2376
397.2925	0.2272
397.4987	0.2445
397.7048	0.2294
397.9109	0.2305
398.117	0.2253
398.3231	0.2259
398.5292	0.2386
398.7353	0.2303
398.9413	0.2402
399.1474	0.239
399.3534	0.2353
399.5594	0.2122
399.7654	0.2505
399.9714	0.231
400.1774	0.2194
400.3833	0.2268
400.5893	0.236
400.7952	0.236
401.0011	0.2241
401.207	0.2306
401.4129	0.2161
401.6188	0.2257
401.8247	0.2466
402.0305	0.2108
402.2364	0.2213
402.4422	0.2273
402.648	0.2304
402.8538	0.232
403.0596	0.2102
403.2654	0.2363
403.4711	0.2232
403.6768	0.2424
403.8826	0.2339
404.0883	0.2297
404.294	0.2412
404.4997	0.2254
404.7054	0.23
404.911	0.23
405.1167	0.2447
405.3223	0.2371
405.5279	0.245
405.7335	0.2405
405.9391	0.2394
406.1447	0.225
406.3502	0.2499
406.5558	0.2093
406.7613	0.2229
406.9668	0.2323
407.1724	0.2271
407.3778	0.2206
407.5833	0.2195
407.7888	0.2338
407.9942	0.247
408.1997	0.2256
408.4051	0.2268
408.6105	0.2229
408.8159	0.2281
409.0213	0.2234
409.2267	0.2269
409.432	0.2161
409.6374	0.2236
409.8427	0.215
410.048	0.2317
410.2533	0.2293
410.4586	0.2295
410.6639	0.2261
410.8691	0.2184
411.0744	0.2338
411.2796	0.2232
411.4848	0.2167
411.69	0.2322
411.8952	0.2367
412.1004	0.2184
412.3056	0.2358
412.5107	0.2144
412.7158	0.2493
412.921	0.2241
413.1261	0.2196
413.3312	0.2109
413.5362	0.2292
413.7413	0.2106
413.9464	0.2075
414.1514	0.222
414.3564	0.2208
414.5614	0.1996
414.7664	0.2252
414.9714	0.2148
415.1764	0.2183
415.3813	0.2205
415.5863	0.2322
415.7912	0.2229
415.9961	0.222
416.201	0.2211
416.4059	0.2518
416.6108	0.2318
416.8156	0.2098
417.0205	0.215
417.2253	0.1919
417.4301	0.2304
417.6349	0.2264
417.8397	0.2154
418.0445	0.2416
418.2492	0.2138
418.454	0.2182
418.6587	0.2091
418.8634	0.2316
419.0681	0.1987
419.2728	0.1987
419.4775	0.2148
419.6822	0.2116
419.8868	0.1816
420.0915	0.2001
420.2961	0.2165
420.5007	0.2015
420.7053	0.2334
420.9099	0.2121
421.1144	0.2083
421.319	0.1923
421.5235	0.2106
421.728	0.2189
421.9325	0.1955
422.137	0.2148
422.3415	0.1966
422.546	0.2333
422.7504	0.1988
422.9549	0.2249
423.1593	0.2033
423.3637	0.2102
423.5681	0.1868
423.7725	0.1927
423.9769	0.2007
424.1812	0.2005
424.3856	0.1863
424.5899	0.2062
424.7942	0.1902
424.9985	0.1836
425.2028	0.1847
425.4071	0.2089
425.6113	0.1813
425.8156	0.1761
426.0198	0.1857
426.224	0.1752
426.4282	0.1774
426.6324	0.1877
