Data from MonoPyChalIsomerACN10uM380nmA_Absorbance_13-38-34-749.txt Node
Date: Fri Jul 05 13:38:34 BST 2024
User: LASERRRRR
Spectrometer: FLMT03099
Trigger mode: 0
Integration Time (sec): 1.000000E-1
Scans to average: 1
Electric dark correction enabled: true
Nonlinearity correction enabled: false
Boxcar width: 0
XAxis mode: Wavelengths
Number of Pixels in Spectrum: 3648
>>>>>Begin Spectral Data<<<<<
179.3399	-0.0838
179.5586	-0.0838
179.7771	-0.0838
179.9957	0.4605
180.2143	-0
180.4329	0.2652
180.6514	0.5012
180.8699	0.4726
181.0885	0.2358
181.307	-0.0432
181.5255	-0
181.744	-0.6327
181.9625	-0.13
182.181	-0
182.3994	-0.0169
182.6179	-0
182.8363	0.5151
183.0547	-0.414
183.2732	-0.0439
183.4916	0.3047
183.71	0.1234
183.9284	-0.0107
184.1467	-0.1554
184.3651	-0.0881
184.5835	-0.0986
184.8018	0.2416
185.0201	-0.0306
185.2385	0.04
185.4568	0.305
185.6751	0.0029
185.8934	0.1675
186.1117	-0.0307
186.3299	0.203
186.5482	0.0598
186.7664	-0.153
186.9847	-0.0847
187.2029	0.0804
187.4211	0.1052
187.6393	0.2846
187.8575	-0.037
188.0757	0.2438
188.2939	0.1543
188.512	-0.1155
188.7302	-0.1854
188.9483	-0.0838
189.1665	0.133
189.3846	-0.3156
189.6027	0.2706
189.8208	0.144
190.0389	0.0412
190.257	0.1707
190.475	0.1883
190.6931	0.2103
190.9111	0.3093
191.1292	0.2714
191.3472	0.362
191.5652	0.312
191.7832	0.2437
192.0012	0.6367
192.2192	0.2855
192.4371	0.343
192.6551	0.2825
192.873	0.434
193.091	0.3276
193.3089	0.3456
193.5268	0.6079
193.7447	0.5892
193.9626	0.5677
194.1805	0.6629
194.3984	0.7758
194.6162	0.4799
194.8341	0.5567
195.0519	0.6792
195.2697	0.5989
195.4875	0.5224
195.7054	0.7341
195.9231	0.5283
196.1409	0.6858
196.3587	0.5985
196.5765	0.8141
196.7942	0.8183
197.012	0.5708
197.2297	0.6248
197.4474	0.9473
197.6651	0.5625
197.8828	0.6009
198.1005	0.7136
198.3182	0.745
198.5358	0.8188
198.7535	0.7474
198.9711	0.6416
199.1888	0.7009
199.4064	0.9939
199.624	0.6469
199.8416	0.8363
200.0592	0.8256
200.2767	0.8197
200.4943	0.9011
200.7119	0.8739
200.9294	0.8167
201.1469	0.6426
201.3645	0.6971
201.582	0.8029
201.7995	0.7274
202.017	0.6218
202.2344	0.7064
202.4519	0.8687
202.6694	0.7006
202.8868	0.7557
203.1042	0.9726
203.3217	0.8569
203.5391	0.8103
203.7565	0.7014
203.9739	0.8238
204.1913	0.7342
204.4086	0.9973
204.626	0.8467
204.8433	0.7664
205.0607	0.8809
205.278	0.7862
205.4953	0.7604
205.7126	0.9058
205.9299	0.9039
206.1472	0.8918
206.3644	0.7666
206.5817	0.9081
206.7989	0.9318
207.0162	0.8418
207.2334	0.8
207.4506	0.8541
207.6678	0.8127
207.885	0.8126
208.1022	0.8239
208.3194	0.8232
208.5365	0.8138
208.7537	0.7765
208.9708	0.7347
209.1879	0.8442
209.405	0.767
209.6222	0.9266
209.8392	0.8495
210.0563	0.8705
210.2734	0.825
210.4905	0.7576
210.7075	0.7537
210.9245	0.7407
211.1416	0.8903
211.3586	0.7983
211.5756	0.7557
211.7926	0.8294
212.0096	0.7229
212.2265	0.6806
212.4435	0.7646
212.6604	0.8821
212.8774	0.7742
213.0943	0.7583
213.3112	0.6649
213.5281	0.7025
213.745	0.6128
213.9619	0.6992
214.1788	0.6809
214.3956	0.6755
214.6125	0.6335
214.8293	0.6551
215.0461	0.7471
215.2629	0.6704
215.4798	0.6886
215.6965	0.6611
215.9133	0.6386
216.1301	0.6492
216.3469	0.6286
216.5636	0.6232
216.7803	0.6248
216.9971	0.622
217.2138	0.5787
217.4305	0.6333
217.6472	0.5821
217.8639	0.6352
218.0805	0.5976
218.2972	0.5937
218.5138	0.574
218.7305	0.5554
218.9471	0.5663
219.1637	0.5089
219.3803	0.5398
219.5969	0.5228
219.8135	0.4883
220.0301	0.5529
220.2466	0.5286
220.4632	0.5567
220.6797	0.5053
220.8962	0.4848
221.1127	0.5236
221.3292	0.5446
221.5457	0.5206
221.7622	0.4897
221.9787	0.5121
222.1951	0.4924
222.4116	0.5021
222.628	0.5067
222.8444	0.5553
223.0608	0.4623
223.2772	0.5246
223.4936	0.548
223.71	0.5143
223.9264	0.549
224.1427	0.5434
224.3591	0.5101
224.5754	0.525
224.7917	0.5566
225.008	0.4944
225.2243	0.4998
225.4406	0.5366
225.6569	0.5076
225.8732	0.5158
226.0894	0.5301
226.3057	0.5378
226.5219	0.5381
226.7381	0.5253
226.9543	0.5506
227.1705	0.5173
227.3867	0.5368
227.6029	0.5573
227.8191	0.548
228.0352	0.538
228.2513	0.5699
228.4675	0.5544
228.6836	0.5226
228.8997	0.5129
229.1158	0.5611
229.3319	0.5298
229.548	0.5564
229.764	0.5969
229.9801	0.567
230.1961	0.5543
230.4121	0.5611
230.6282	0.5438
230.8442	0.529
231.0602	0.5805
231.2761	0.5623
231.4921	0.5709
231.7081	0.52
231.924	0.5691
232.14	0.5654
232.3559	0.5423
232.5718	0.5789
232.7877	0.5745
233.0036	0.5162
233.2195	0.5305
233.4353	0.5413
233.6512	0.5323
233.867	0.5355
234.0829	0.5599
234.2987	0.5541
234.5145	0.5669
234.7303	0.5239
234.9461	0.5531
235.1619	0.5376
235.3776	0.5427
235.5934	0.5471
235.8091	0.5336
236.0249	0.5245
236.2406	0.5341
236.4563	0.5412
236.672	0.5709
236.8877	0.5674
237.1034	0.5403
237.319	0.525
237.5347	0.5428
237.7503	0.5136
237.966	0.5298
238.1816	0.5378
238.3972	0.5194
238.6128	0.5208
238.8284	0.5222
239.0439	0.5016
239.2595	0.5151
239.475	0.5406
239.6906	0.5355
239.9061	0.5157
240.1216	0.5042
240.3371	0.5096
240.5526	0.493
240.7681	0.5105
240.9836	0.4953
241.199	0.5176
241.4145	0.5015
241.6299	0.495
241.8453	0.4832
242.0607	0.4897
242.2761	0.466
242.4915	0.4626
242.7069	0.4596
242.9223	0.4566
243.1376	0.4499
243.353	0.444
243.5683	0.4586
243.7836	0.411
243.9989	0.4276
244.2142	0.3839
244.4295	0.4359
244.6448	0.3848
244.86	0.3776
245.0753	0.3634
245.2905	0.3629
245.5057	0.3565
245.721	0.3527
245.9362	0.3392
246.1514	0.3754
246.3665	0.3331
246.5817	0.3447
246.7969	0.3206
247.012	0.3245
247.2271	0.3087
247.4423	0.2899
247.6574	0.3079
247.8725	0.2905
248.0876	0.2846
248.3026	0.2852
248.5177	0.2691
248.7328	0.2843
248.9478	0.2658
249.1628	0.2628
249.3779	0.2665
249.5929	0.2595
249.8079	0.2661
250.0228	0.2521
250.2378	0.2592
250.4528	0.2454
250.6677	0.2279
250.8827	0.2387
251.0976	0.2302
251.3125	0.2326
251.5274	0.2203
251.7423	0.2196
251.9572	0.2348
252.172	0.2209
252.3869	0.2133
252.6017	0.2137
252.8166	0.2111
253.0314	0.2033
253.2462	0.2048
253.461	0.2097
253.6758	0.2134
253.8906	0.2223
254.1053	0.196
254.3201	0.2065
254.5348	0.2032
254.7496	0.2173
254.9643	0.2028
255.179	0.2022
255.3937	0.2028
255.6083	0.195
255.823	0.1909
256.0377	0.1951
256.2523	0.188
256.467	0.1692
256.6816	0.2046
256.8962	0.1913
257.1108	0.1738
257.3254	0.2062
257.54	0.1907
257.7545	0.1898
257.9691	0.1976
258.1836	0.1886
258.3981	0.2076
258.6127	0.1832
258.8272	0.1887
259.0417	0.1855
259.2561	0.183
259.4706	0.1881
259.6851	0.1886
259.8995	0.1806
260.114	0.1952
260.3284	0.1954
260.5428	0.189
260.7572	0.1919
260.9716	0.1906
261.186	0.1758
261.4003	0.1871
261.6147	0.1969
261.829	0.1787
262.0433	0.1739
262.2577	0.1862
262.472	0.1899
262.6863	0.1752
262.9005	0.1831
263.1148	0.1869
263.3291	0.1647
263.5433	0.1894
263.7576	0.1764
263.9718	0.1953
264.186	0.1724
264.4002	0.1792
264.6144	0.1701
264.8286	0.1963
265.0427	0.1809
265.2569	0.1908
265.471	0.185
265.6851	0.1749
265.8993	0.1852
266.1134	0.1857
266.3275	0.1761
266.5415	0.1733
266.7556	0.1885
266.9697	0.1849
267.1837	0.1961
267.3978	0.1839
267.6118	0.2009
267.8258	0.1992
268.0398	0.1855
268.2538	0.192
268.4677	0.1798
268.6817	0.1718
268.8957	0.1776
269.1096	0.1915
269.3235	0.1892
269.5374	0.1943
269.7514	0.1701
269.9652	0.1724
270.1791	0.1919
270.393	0.1822
270.6068	0.1793
270.8207	0.1804
271.0345	0.1765
271.2483	0.179
271.4622	0.1766
271.676	0.1732
271.8897	0.1792
272.1035	0.1713
272.3173	0.1619
272.531	0.178
272.7448	0.182
272.9585	0.1647
273.1722	0.1839
273.3859	0.1845
273.5996	0.1696
273.8133	0.1884
274.0269	0.1791
274.2406	0.163
274.4542	0.1705
274.6679	0.1726
274.8815	0.1814
275.0951	0.186
275.3087	0.1821
275.5223	0.1827
275.7358	0.191
275.9494	0.1851
276.1629	0.1639
276.3765	0.1797
276.59	0.1732
276.8035	0.1898
277.017	0.1819
277.2305	0.1759
277.444	0.1745
277.6574	0.1758
277.8709	0.1852
278.0843	0.1707
278.2978	0.1755
278.5112	0.1663
278.7246	0.1741
278.938	0.1793
279.1513	0.1728
279.3647	0.1798
279.5781	0.1797
279.7914	0.1791
280.0047	0.1976
280.2181	0.1901
280.4314	0.1827
280.6447	0.1838
280.8579	0.1774
281.0712	0.1803
281.2845	0.1878
281.4977	0.1884
281.711	0.1763
281.9242	0.1796
282.1374	0.1834
282.3506	0.1653
282.5638	0.189
282.7769	0.1873
282.9901	0.1771
283.2033	0.1914
283.4164	0.1884
283.6295	0.1726
283.8426	0.1703
284.0557	0.1793
284.2688	0.1845
284.4819	0.1824
284.695	0.1693
284.908	0.1823
285.1211	0.173
285.3341	0.1811
285.5471	0.1868
285.7601	0.1756
285.9731	0.1746
286.1861	0.1768
286.3991	0.1808
286.612	0.1879
286.825	0.1761
287.0379	0.1819
287.2508	0.1744
287.4637	0.1774
287.6766	0.1611
287.8895	0.1838
288.1024	0.1844
288.3152	0.1888
288.5281	0.1671
288.7409	0.1868
288.9538	0.1709
289.1666	0.1719
289.3794	0.177
289.5922	0.1628
289.8049	0.1758
290.0177	0.1671
290.2304	0.171
290.4432	0.1774
290.6559	0.1731
290.8686	0.1767
291.0813	0.1705
291.294	0.1761
291.5067	0.1815
291.7194	0.1615
291.932	0.1979
292.1447	0.1734
292.3573	0.1579
292.5699	0.1654
292.7825	0.1755
292.9951	0.166
293.2077	0.1709
293.4203	0.1666
293.6328	0.1496
293.8454	0.1754
294.0579	0.1637
294.2704	0.1589
294.4829	0.163
294.6954	0.1658
294.9079	0.1749
295.1204	0.1681
295.3328	0.1646
295.5453	0.1674
295.7577	0.1754
295.9701	0.1514
296.1825	0.1633
296.3949	0.1623
296.6073	0.1543
296.8197	0.1614
297.0321	0.1716
297.2444	0.1573
297.4567	0.1663
297.6691	0.171
297.8814	0.1558
298.0937	0.1618
298.306	0.171
298.5182	0.1587
298.7305	0.1643
298.9428	0.1591
299.155	0.1589
299.3672	0.1521
299.5794	0.1543
299.7916	0.1654
300.0038	0.1708
300.216	0.168
300.4282	0.1804
300.6403	0.1462
300.8525	0.1739
301.0646	0.1533
301.2767	0.1581
301.4888	0.1578
301.7009	0.1667
301.913	0.1567
302.125	0.1616
302.3371	0.1529
302.5491	0.1607
302.7612	0.1808
302.9732	0.17
303.1852	0.1806
303.3972	0.1539
303.6092	0.1505
303.8211	0.1539
304.0331	0.1489
304.245	0.1442
304.457	0.1472
304.6689	0.1539
304.8808	0.1665
305.0927	0.1418
305.3046	0.1455
305.5164	0.1644
305.7283	0.1452
305.9401	0.1487
306.152	0.1497
306.3638	0.1436
306.5756	0.1452
306.7874	0.1447
306.9992	0.1477
307.2109	0.1362
307.4227	0.1206
307.6344	0.1435
307.8462	0.1404
308.0579	0.1456
308.2696	0.1342
308.4813	0.1317
308.693	0.1344
308.9046	0.1428
309.1163	0.1248
309.328	0.1312
309.5396	0.1259
309.7512	0.1265
309.9628	0.131
310.1744	0.123
310.386	0.1236
310.5976	0.1253
310.8091	0.1209
311.0207	0.1172
311.2322	0.1373
311.4437	0.1077
311.6552	0.1188
311.8667	0.1326
312.0782	0.1114
312.2897	0.1166
312.5012	0.1268
312.7126	0.1126
312.924	0.109
313.1355	0.1284
313.3469	0.1092
313.5583	0.1207
313.7696	0.1133
313.981	0.1184
314.1924	0.1072
314.4037	0.1053
314.6151	0.1202
314.8264	0.1089
315.0377	0.1137
315.249	0.107
315.4603	0.1133
315.6716	0.1136
315.8828	0.0964
316.0941	0.1036
316.3053	0.1086
316.5165	0.1004
316.7277	0.103
316.9389	0.1135
317.1501	0.1027
317.3613	0.0965
317.5724	0.0922
317.7836	0.1057
317.9947	0.0961
318.2058	0.1102
318.417	0.0982
318.6281	0.0938
318.8391	0.0982
319.0502	0.0994
319.2613	0.1128
319.4723	0.1073
319.6834	0.1142
319.8944	0.1076
320.1054	0.1047
320.3164	0.1119
320.5274	0.1042
320.7383	0.1082
320.9493	0.1121
321.1602	0.12
321.3712	0.0925
321.5821	0.0943
321.793	0.1111
322.0039	0.105
322.2148	0.1042
322.4257	0.1142
322.6365	0.1237
322.8474	0.1121
323.0582	0.1014
323.269	0.1033
323.4798	0.1257
323.6906	0.1116
323.9014	0.106
324.1122	0.108
324.3229	0.1105
324.5337	0.1155
324.7444	0.1055
324.9551	0.1304
325.1658	0.1031
325.3765	0.1092
325.5872	0.1171
325.7979	0.1089
326.0085	0.1064
326.2192	0.1104
326.4298	0.1192
326.6404	0.1032
326.851	0.1058
327.0616	0.1081
327.2722	0.1194
327.4828	0.1295
327.6933	0.1189
327.9039	0.1226
328.1144	0.1275
328.3249	0.1184
328.5354	0.1075
328.7459	0.1159
328.9564	0.1013
329.1669	0.1078
329.3773	0.1226
329.5878	0.1164
329.7982	0.1103
330.0086	0.107
330.219	0.1154
330.4294	0.1172
330.6398	0.1126
330.8502	0.115
331.0605	0.1146
331.2708	0.1058
331.4812	0.1055
331.6915	0.1211
331.9018	0.1108
332.1121	0.1158
332.3224	0.114
332.5326	0.116
332.7429	0.1217
332.9531	0.1306
333.1633	0.1256
333.3735	0.1192
333.5837	0.1139
333.7939	0.1255
334.0041	0.115
334.2143	0.1231
334.4244	0.115
334.6346	0.1001
334.8447	0.1334
335.0548	0.122
335.2649	0.1047
335.475	0.1191
335.685	0.1067
335.8951	0.1352
336.1051	0.1161
336.3152	0.1259
336.5252	0.1182
336.7352	0.1231
336.9452	0.128
337.1552	0.1267
337.3652	0.1095
337.5751	0.1136
337.7851	0.1239
337.995	0.1125
338.2049	0.1285
338.4148	0.126
338.6247	0.1218
338.8346	0.1088
339.0445	0.1194
339.2543	0.1159
339.4642	0.114
339.674	0.1101
339.8838	0.1218
340.0936	0.1173
340.3034	0.1288
340.5132	0.1297
340.7229	0.1277
340.9327	0.1262
341.1424	0.1374
341.3522	0.1409
341.5619	0.1331
341.7716	0.1308
341.9813	0.1286
342.1909	0.1339
342.4006	0.1378
342.6102	0.1312
342.8199	0.127
343.0295	0.1338
343.2391	0.1382
343.4487	0.1349
343.6583	0.1483
343.8679	0.1398
344.0774	0.1373
344.287	0.1333
344.4965	0.1221
344.706	0.1413
344.9155	0.1385
345.125	0.1294
345.3345	0.1373
345.544	0.1423
345.7534	0.129
345.9629	0.1316
346.1723	0.1204
346.3817	0.125
346.5911	0.1385
346.8005	0.141
347.0099	0.1365
347.2193	0.1373
347.4286	0.128
347.638	0.1416
347.8473	0.1471
348.0566	0.14
348.2659	0.1451
348.4752	0.1453
348.6845	0.135
348.8937	0.1411
349.103	0.1472
349.3122	0.1269
349.5214	0.1326
349.7306	0.1494
349.9398	0.1387
350.149	0.1476
350.3582	0.1331
350.5674	0.1491
350.7765	0.147
350.9856	0.1543
351.1948	0.1435
351.4039	0.1315
351.613	0.1414
351.822	0.1445
352.0311	0.1463
352.2402	0.1477
352.4492	0.1445
352.6582	0.1493
352.8672	0.1444
353.0762	0.148
353.2852	0.1455
353.4942	0.1415
353.7032	0.1638
353.9121	0.1473
354.1211	0.1496
354.33	0.153
354.5389	0.1482
354.7478	0.153
354.9567	0.1482
355.1655	0.1414
355.3744	0.1526
355.5833	0.1473
355.7921	0.1751
356.0009	0.1607
356.2097	0.161
356.4185	0.1747
356.6273	0.1656
356.8361	0.1484
357.0448	0.1528
357.2536	0.1512
357.4623	0.1399
357.671	0.1688
357.8797	0.1558
358.0884	0.1613
358.2971	0.1622
358.5057	0.1775
358.7144	0.1783
358.923	0.1656
359.1316	0.1525
359.3402	0.1643
359.5488	0.1674
359.7574	0.1615
359.966	0.1636
360.1746	0.1626
360.3831	0.1557
360.5916	0.1732
360.8002	0.1645
361.0087	0.1862
361.2172	0.1805
361.4256	0.1739
361.6341	0.1761
361.8426	0.1788
362.051	0.1686
362.2594	0.1754
362.4678	0.1809
362.6762	0.1939
362.8846	0.1884
363.093	0.1767
363.3014	0.1713
363.5097	0.1698
363.718	0.1808
363.9264	0.1704
364.1347	0.174
364.343	0.1831
364.5513	0.1885
364.7595	0.1926
364.9678	0.18
365.176	0.1934
365.3842	0.1778
365.5925	0.1835
365.8007	0.181
366.0089	0.1845
366.217	0.1777
366.4252	0.1815
366.6333	0.1991
366.8415	0.1898
367.0496	0.1758
367.2577	0.1981
367.4658	0.2042
367.6739	0.2029
367.882	0.2022
368.09	0.1818
368.2981	0.2071
368.5061	0.1865
368.7141	0.186
368.9221	0.2085
369.1301	0.2096
369.3381	0.1883
369.5461	0.2028
369.754	0.2119
369.962	0.2116
370.1699	0.209
370.3778	0.1969
370.5857	0.1931
370.7936	0.1909
371.0015	0.2031
371.2093	0.2075
371.4172	0.2079
371.625	0.1989
371.8328	0.1943
372.0406	0.2042
372.2484	0.2054
372.4562	0.2138
372.664	0.2045
372.8717	0.2229
373.0795	0.1935
373.2872	0.209
373.4949	0.2129
373.7026	0.2188
373.9103	0.2089
374.118	0.2275
374.3256	0.2042
374.5333	0.2167
374.7409	0.1913
374.9485	0.2038
375.1561	0.2029
375.3637	0.227
375.5713	0.2145
375.7789	0.2183
375.9864	0.1978
376.194	0.1982
376.4015	0.2202
376.609	0.2147
376.8165	0.2069
377.024	0.203
377.2315	0.2117
377.4389	0.216
377.6464	0.2134
377.8538	0.2216
378.0612	0.2227
378.2686	0.2254
378.476	0.2333
378.6834	0.2267
378.8908	0.2121
379.0981	0.2274
379.3055	0.2277
379.5128	0.2156
379.7201	0.2244
379.9274	0.2071
380.1347	0.2165
380.342	0.2337
380.5492	0.2072
380.7565	0.2238
380.9637	0.2179
381.1709	0.2197
381.3781	0.2212
381.5853	0.2178
381.7925	0.2327
381.9997	0.2286
382.2068	0.2459
382.4139	0.2271
382.6211	0.2252
382.8282	0.2294
383.0353	0.2158
383.2424	0.2223
383.4494	0.2383
383.6565	0.221
383.8635	0.2301
384.0706	0.2147
384.2776	0.2353
384.4846	0.2278
384.6916	0.2309
384.8986	0.2205
385.1055	0.2215
385.3125	0.2206
385.5194	0.2245
385.7263	0.23
385.9333	0.2221
386.1402	0.221
386.347	0.2302
386.5539	0.2098
386.7608	0.2283
386.9676	0.2077
387.1744	0.2115
387.3813	0.2176
387.5881	0.2363
387.7948	0.2178
388.0016	0.2196
388.2084	0.22
388.4151	0.2082
388.6219	0.2321
388.8286	0.215
389.0353	0.2295
389.242	0.2302
389.4487	0.2252
389.6553	0.2107
389.862	0.1935
390.0686	0.1865
390.2753	0.2162
390.4819	0.2055
390.6885	0.2106
390.8951	0.2151
391.1016	0.2101
391.3082	0.2007
391.5147	0.2039
391.7213	0.2028
391.9278	0.1928
392.1343	0.2041
392.3408	0.1865
392.5473	0.2052
392.7537	0.1968
392.9602	0.1853
393.1666	0.2043
393.373	0.2077
393.5794	0.2174
393.7858	0.1926
393.9922	0.1774
394.1986	0.2062
394.4049	0.2051
394.6113	0.1837
394.8176	0.1922
395.0239	0.1966
395.2302	0.1725
395.4365	0.2019
395.6428	0.2079
395.8491	0.191
396.0553	0.1871
396.2615	0.1859
396.4678	0.1882
396.674	0.1644
396.8802	0.181
397.0863	0.1944
397.2925	0.1859
397.4987	0.1813
397.7048	0.178
397.9109	0.1843
398.117	0.1707
398.3231	0.1869
398.5292	0.1944
398.7353	0.188
398.9413	0.1752
399.1474	0.179
399.3534	0.1945
399.5594	0.1727
399.7654	0.1995
399.9714	0.1924
400.1774	0.17
400.3833	0.1695
400.5893	0.1868
400.7952	0.1831
401.0011	0.1789
401.207	0.182
401.4129	0.1735
401.6188	0.1897
401.8247	0.1829
402.0305	0.1782
402.2364	0.1701
402.4422	0.1939
402.648	0.1838
402.8538	0.1819
403.0596	0.1556
403.2654	0.191
403.4711	0.1749
403.6768	0.1809
403.8826	0.1881
404.0883	0.1957
404.294	0.1913
404.4997	0.1791
404.7054	0.1716
404.911	0.1681
405.1167	0.1784
405.3223	0.2091
405.5279	0.185
405.7335	0.1985
405.9391	0.1857
406.1447	0.1869
406.3502	0.19
406.5558	0.185
406.7613	0.1836
406.9668	0.1977
407.1724	0.1723
407.3778	0.1613
407.5833	0.1783
407.7888	0.1757
407.9942	0.1917
408.1997	0.1737
408.4051	0.1831
408.6105	0.196
408.8159	0.1579
409.0213	0.1682
409.2267	0.1987
409.432	0.1664
409.6374	0.199
409.8427	0.1863
410.048	0.1774
410.2533	0.1669
410.4586	0.1848
410.6639	0.1568
410.8691	0.1671
411.0744	0.1687
411.2796	0.1672
411.4848	0.1944
411.69	0.1637
411.8952	0.1971
412.1004	0.1718
412.3056	0.1858
412.5107	0.1718
412.7158	0.1842
412.921	0.1767
413.1261	0.1862
413.3312	0.174
413.5362	0.1762
413.7413	0.1677
413.9464	0.1746
414.1514	0.1698
414.3564	0.1851
414.5614	0.1452
414.7664	0.1759
414.9714	0.1651
415.1764	0.1806
415.3813	0.191
415.5863	0.1885
415.7912	0.1778
415.9961	0.1788
416.201	0.1709
416.4059	0.1692
416.6108	0.1568
416.8156	0.1915
417.0205	0.1696
417.2253	0.1625
417.4301	0.177
417.6349	0.166
417.8397	0.1544
418.0445	0.1715
418.2492	0.1668
418.454	0.1737
418.6587	0.1667
418.8634	0.1758
419.0681	0.166
419.2728	0.1645
419.4775	0.1648
419.6822	0.1585
419.8868	0.1451
420.0915	0.1731
420.2961	0.1495
420.5007	0.1527
420.7053	0.1616
420.9099	0.1622
421.1144	0.158
421.319	0.1541
421.5235	0.1578
421.728	0.1675
421.9325	0.1598
422.137	0.1667
422.3415	0.1426
422.546	0.1681
422.7504	0.1544
422.9549	0.1583
423.1593	0.1607
423.3637	0.161
423.5681	0.1549
423.7725	0.1425
423.9769	0.1377
424.1812	0.1453
424.3856	0.1444
424.5899	0.1705
424.7942	0.1476
424.9985	0.1477
425.2028	0.1484
425.4071	0.1578
425.6113	0.1447
425.8156	0.132
426.0198	0.1519
426.224	0.1425
426.4282	0.1313
