Data from MonoPyChalIsomerACN10uM380nmA_Absorbance_13-38-30-750.txt Node
Date: Fri Jul 05 13:38:30 BST 2024
User: LASERRRRR
Spectrometer: FLMT03099
Trigger mode: 0
Integration Time (sec): 1.000000E-1
Scans to average: 1
Electric dark correction enabled: true
Nonlinearity correction enabled: false
Boxcar width: 0
XAxis mode: Wavelengths
Number of Pixels in Spectrum: 3648
>>>>>Begin Spectral Data<<<<<
179.3399	-0.0192
179.5586	-0.0192
179.7771	-0.0192
179.9957	-0
180.2143	-0
180.4329	-0.1432
180.6514	-0
180.8699	-0
181.0885	-0.1485
181.307	1.0946
181.5255	-0.9765
181.744	-0
181.9625	-0
182.181	-0.2663
182.3994	-0
182.6179	-0
182.8363	0.2071
183.0547	-0.1786
183.2732	-0.1506
183.4916	0.1346
183.71	0.1322
183.9284	0.0562
184.1467	-0.1642
184.3651	-0.0614
184.5835	0.0053
184.8018	-0.1476
185.0201	0.0417
185.2385	-0.1151
185.4568	0.0895
185.6751	0.2528
185.8934	0.1146
186.1117	-0.0841
186.3299	0.0849
186.5482	0.0333
186.7664	-0.0314
186.9847	-0.0589
187.2029	0.1288
187.4211	0.0581
187.6393	-0.0298
187.8575	-0.1443
188.0757	0.1472
188.2939	0.0764
188.512	0.7795
188.7302	0.001
188.9483	-0.1396
189.1665	0.0456
189.3846	-0.2445
189.6027	0.2259
189.8208	0.1668
190.0389	0.1055
190.257	0.2155
190.475	0.1669
190.6931	0.1931
190.9111	0.1809
191.1292	0.0753
191.3472	0.3837
191.5652	0.2406
191.7832	0.0947
192.0012	0.4732
192.2192	0.424
192.4371	0.3181
192.6551	0.4901
192.873	0.3629
193.091	0.3939
193.3089	0.4048
193.5268	0.599
193.7447	0.4811
193.9626	0.4082
194.1805	0.5212
194.3984	0.6183
194.6162	0.3969
194.8341	0.5219
195.0519	0.4609
195.2697	0.6509
195.4875	0.5539
195.7054	0.7617
195.9231	0.44
196.1409	0.6436
196.3587	0.7573
196.5765	0.6644
196.7942	0.7548
197.012	0.6124
197.2297	0.5915
197.4474	0.8696
197.6651	0.5923
197.8828	0.6689
198.1005	0.7028
198.3182	0.7825
198.5358	1.059
198.7535	0.7683
198.9711	0.6714
199.1888	0.8055
199.4064	2.0779
199.624	0.8364
199.8416	0.7928
200.0592	0.9032
200.2767	0.992
200.4943	0.8244
200.7119	0.8101
200.9294	0.7526
201.1469	0.6583
201.3645	0.6473
201.582	0.6836
201.7995	0.7369
202.017	0.7944
202.2344	0.8452
202.4519	0.8631
202.6694	0.6739
202.8868	0.7766
203.1042	0.89
203.3217	0.8679
203.5391	0.7717
203.7565	0.676
203.9739	0.7212
204.1913	0.6962
204.4086	0.8295
204.626	0.8589
204.8433	0.7847
205.0607	0.6614
205.278	0.813
205.4953	0.8028
205.7126	0.737
205.9299	0.7493
206.1472	0.7666
206.3644	0.916
206.5817	0.8647
206.7989	0.9173
207.0162	0.7339
207.2334	0.8095
207.4506	0.6826
207.6678	0.7825
207.885	0.7624
208.1022	0.7893
208.3194	0.8669
208.5365	0.7869
208.7537	0.7513
208.9708	0.761
209.1879	0.7235
209.405	0.8676
209.6222	0.8618
209.8392	0.7032
210.0563	0.7775
210.2734	0.8672
210.4905	0.7368
210.7075	0.7751
210.9245	0.8101
211.1416	1.072
211.3586	0.869
211.5756	0.8573
211.7926	0.7882
212.0096	0.8115
212.2265	0.6902
212.4435	0.714
212.6604	0.7068
212.8774	0.7651
213.0943	0.7673
213.3112	0.7137
213.5281	0.74
213.745	0.6305
213.9619	0.6875
214.1788	0.6492
214.3956	0.6907
214.6125	0.6492
214.8293	0.6121
215.0461	0.7294
215.2629	0.6924
215.4798	0.7002
215.6965	0.5759
215.9133	0.6525
216.1301	0.6575
216.3469	0.6563
216.5636	0.6142
216.7803	0.6023
216.9971	0.5976
217.2138	0.5988
217.4305	0.5941
217.6472	0.5835
217.8639	0.6023
218.0805	0.5873
218.2972	0.5457
218.5138	0.5441
218.7305	0.5716
218.9471	0.5422
219.1637	0.5231
219.3803	0.5507
219.5969	0.5671
219.8135	0.4805
220.0301	0.5204
220.2466	0.5537
220.4632	0.5056
220.6797	0.495
220.8962	0.5203
221.1127	0.5095
221.3292	0.5244
221.5457	0.492
221.7622	0.4895
221.9787	0.5172
222.1951	0.4906
222.4116	0.5479
222.628	0.5082
222.8444	0.5164
223.0608	0.5134
223.2772	0.5355
223.4936	0.5132
223.71	0.513
223.9264	0.5476
224.1427	0.5305
224.3591	0.5143
224.5754	0.5614
224.7917	0.5399
225.008	0.4988
225.2243	0.5102
225.4406	0.5604
225.6569	0.5166
225.8732	0.5023
226.0894	0.5461
226.3057	0.5269
226.5219	0.5369
226.7381	0.5068
226.9543	0.5169
227.1705	0.5364
227.3867	0.5376
227.6029	0.5402
227.8191	0.5266
228.0352	0.6004
228.2513	0.5336
228.4675	0.5587
228.6836	0.5493
228.8997	0.5519
229.1158	0.564
229.3319	0.5419
229.548	0.5435
229.764	0.5617
229.9801	0.5595
230.1961	0.5802
230.4121	0.5493
230.6282	0.5428
230.8442	0.5245
231.0602	0.5632
231.2761	0.5796
231.4921	0.5517
231.7081	0.5915
231.924	0.5684
232.14	0.5604
232.3559	0.5326
232.5718	0.5737
232.7877	0.5393
233.0036	0.5458
233.2195	0.5549
233.4353	0.5316
233.6512	0.5599
233.867	0.543
234.0829	0.5263
234.2987	0.5405
234.5145	0.557
234.7303	0.5281
234.9461	0.5396
235.1619	0.5446
235.3776	0.5639
235.5934	0.5498
235.8091	0.5514
236.0249	0.5187
236.2406	0.5417
236.4563	0.5271
236.672	0.5667
236.8877	0.5219
237.1034	0.5293
237.319	0.568
237.5347	0.5293
237.7503	0.529
237.966	0.5361
238.1816	0.5374
238.3972	0.5524
238.6128	0.5228
238.8284	0.5312
239.0439	0.5197
239.2595	0.5225
239.475	0.5456
239.6906	0.5076
239.9061	0.5069
240.1216	0.5041
240.3371	0.5226
240.5526	0.4984
240.7681	0.5183
240.9836	0.4705
241.199	0.5024
241.4145	0.4845
241.6299	0.4757
241.8453	0.4855
242.0607	0.5034
242.2761	0.4321
242.4915	0.4689
242.7069	0.4379
242.9223	0.4353
243.1376	0.4367
243.353	0.4406
243.5683	0.4295
243.7836	0.3901
243.9989	0.4061
244.2142	0.3877
244.4295	0.389
244.6448	0.3808
244.86	0.3807
245.0753	0.3628
245.2905	0.3581
245.5057	0.3453
245.721	0.3554
245.9362	0.3272
246.1514	0.3275
246.3665	0.3148
246.5817	0.3109
246.7969	0.3204
247.012	0.3078
247.2271	0.2989
247.4423	0.307
247.6574	0.3035
247.8725	0.2829
248.0876	0.2831
248.3026	0.2874
248.5177	0.257
248.7328	0.2601
248.9478	0.258
249.1628	0.2621
249.3779	0.2638
249.5929	0.264
249.8079	0.2591
250.0228	0.2399
250.2378	0.2432
250.4528	0.2461
250.6677	0.2283
250.8827	0.2299
251.0976	0.2385
251.3125	0.2149
251.5274	0.2122
251.7423	0.2049
251.9572	0.2205
252.172	0.2132
252.3869	0.2249
252.6017	0.2279
252.8166	0.1954
253.0314	0.2017
253.2462	0.196
253.461	0.1983
253.6758	0.191
253.8906	0.2095
254.1053	0.1914
254.3201	0.2023
254.5348	0.2069
254.7496	0.2018
254.9643	0.1979
255.179	0.1914
255.3937	0.1989
255.6083	0.1974
255.823	0.1963
256.0377	0.1905
256.2523	0.1926
256.467	0.1896
256.6816	0.1963
256.8962	0.1917
257.1108	0.1932
257.3254	0.1957
257.54	0.1799
257.7545	0.1987
257.9691	0.1949
258.1836	0.1846
258.3981	0.2073
258.6127	0.1856
258.8272	0.1868
259.0417	0.185
259.2561	0.176
259.4706	0.1857
259.6851	0.1709
259.8995	0.1837
260.114	0.1872
260.3284	0.1904
260.5428	0.173
260.7572	0.1854
260.9716	0.1943
261.186	0.1752
261.4003	0.1831
261.6147	0.1856
261.829	0.1831
262.0433	0.1833
262.2577	0.1799
262.472	0.1897
262.6863	0.1833
262.9005	0.182
263.1148	0.1803
263.3291	0.1743
263.5433	0.177
263.7576	0.1648
263.9718	0.1844
264.186	0.1754
264.4002	0.1758
264.6144	0.1806
264.8286	0.2063
265.0427	0.1845
265.2569	0.1775
265.471	0.1752
265.6851	0.1678
265.8993	0.1807
266.1134	0.1787
266.3275	0.1691
266.5415	0.1751
266.7556	0.2005
266.9697	0.1866
267.1837	0.1863
267.3978	0.1786
267.6118	0.189
267.8258	0.1983
268.0398	0.1738
268.2538	0.1957
268.4677	0.1723
268.6817	0.1786
268.8957	0.1785
269.1096	0.177
269.3235	0.18
269.5374	0.1779
269.7514	0.172
269.9652	0.1737
270.1791	0.1699
270.393	0.1699
270.6068	0.1707
270.8207	0.1688
271.0345	0.1615
271.2483	0.1713
271.4622	0.1783
271.676	0.1793
271.8897	0.1668
272.1035	0.167
272.3173	0.1661
272.531	0.1687
272.7448	0.1681
272.9585	0.1532
273.1722	0.1701
273.3859	0.1739
273.5996	0.1605
273.8133	0.1755
274.0269	0.158
274.2406	0.1621
274.4542	0.1574
274.6679	0.1559
274.8815	0.1656
275.0951	0.161
275.3087	0.1676
275.5223	0.1747
275.7358	0.1736
275.9494	0.1614
276.1629	0.1647
276.3765	0.1666
276.59	0.1632
276.8035	0.1598
277.017	0.1629
277.2305	0.1709
277.444	0.171
277.6574	0.1685
277.8709	0.1775
278.0843	0.1648
278.2978	0.158
278.5112	0.1635
278.7246	0.1606
278.938	0.1683
279.1513	0.1707
279.3647	0.1651
279.5781	0.1679
279.7914	0.1689
280.0047	0.1651
280.2181	0.1727
280.4314	0.1773
280.6447	0.1746
280.8579	0.1755
281.0712	0.1683
281.2845	0.1728
281.4977	0.1717
281.711	0.1663
281.9242	0.165
282.1374	0.1728
282.3506	0.1667
282.5638	0.1798
282.7769	0.1771
282.9901	0.1701
283.2033	0.1747
283.4164	0.1744
283.6295	0.1703
283.8426	0.1745
284.0557	0.1651
284.2688	0.1893
284.4819	0.1809
284.695	0.1778
284.908	0.1939
285.1211	0.1686
285.3341	0.1662
285.5471	0.184
285.7601	0.1736
285.9731	0.1637
286.1861	0.1722
286.3991	0.1784
286.612	0.1821
286.825	0.1756
287.0379	0.1813
287.2508	0.1761
287.4637	0.1758
287.6766	0.1683
287.8895	0.1908
288.1024	0.1999
288.3152	0.1864
288.5281	0.178
288.7409	0.1856
288.9538	0.1625
289.1666	0.1743
289.3794	0.1799
289.5922	0.1696
289.8049	0.1824
290.0177	0.165
290.2304	0.1747
290.4432	0.1787
290.6559	0.1693
290.8686	0.1887
291.0813	0.1789
291.294	0.1746
291.5067	0.1858
291.7194	0.1737
291.932	0.1814
292.1447	0.1746
292.3573	0.172
292.5699	0.1799
292.7825	0.1849
292.9951	0.1736
293.2077	0.1815
293.4203	0.191
293.6328	0.1691
293.8454	0.1769
294.0579	0.1786
294.2704	0.1777
294.4829	0.1598
294.6954	0.1787
294.9079	0.1766
295.1204	0.1704
295.3328	0.166
295.5453	0.1842
295.7577	0.1706
295.9701	0.1707
296.1825	0.1809
296.3949	0.1773
296.6073	0.1646
296.8197	0.1641
297.0321	0.1918
297.2444	0.1623
297.4567	0.1783
297.6691	0.1846
297.8814	0.173
298.0937	0.1658
298.306	0.1859
298.5182	0.1719
298.7305	0.1826
298.9428	0.1559
299.155	0.1649
299.3672	0.1721
299.5794	0.1643
299.7916	0.1706
300.0038	0.1786
300.216	0.1806
300.4282	0.1793
300.6403	0.1561
300.8525	0.1739
301.0646	0.1692
301.2767	0.1772
301.4888	0.1673
301.7009	0.1757
301.913	0.1604
302.125	0.1815
302.3371	0.1701
302.5491	0.1734
302.7612	0.1622
302.9732	0.18
303.1852	0.1752
303.3972	0.172
303.6092	0.164
303.8211	0.1511
304.0331	0.1619
304.245	0.1501
304.457	0.1547
304.6689	0.1542
304.8808	0.1683
305.0927	0.1585
305.3046	0.1599
305.5164	0.1662
305.7283	0.1547
305.9401	0.1528
306.152	0.1482
306.3638	0.158
306.5756	0.1518
306.7874	0.1471
306.9992	0.1519
307.2109	0.1415
307.4227	0.1284
307.6344	0.1396
307.8462	0.1466
308.0579	0.1368
308.2696	0.1414
308.4813	0.1369
308.693	0.137
308.9046	0.1366
309.1163	0.1431
309.328	0.1323
309.5396	0.1306
309.7512	0.1251
309.9628	0.1252
310.1744	0.1293
310.386	0.1259
310.5976	0.1181
310.8091	0.1255
311.0207	0.1139
311.2322	0.1183
311.4437	0.1103
311.6552	0.1166
311.8667	0.1198
312.0782	0.0976
312.2897	0.1084
312.5012	0.1007
312.7126	0.1046
312.924	0.1039
313.1355	0.1234
313.3469	0.1183
313.5583	0.1128
313.7696	0.1119
313.981	0.1088
314.1924	0.1074
314.4037	0.0933
314.6151	0.1193
314.8264	0.1065
315.0377	0.1028
315.249	0.1079
315.4603	0.1068
315.6716	0.108
315.8828	0.0946
316.0941	0.0979
316.3053	0.09
316.5165	0.0963
316.7277	0.0941
316.9389	0.1061
317.1501	0.0999
317.3613	0.0946
317.5724	0.0865
317.7836	0.1094
317.9947	0.1019
318.2058	0.0981
318.417	0.086
318.6281	0.0879
318.8391	0.098
319.0502	0.1065
319.2613	0.0973
319.4723	0.1033
319.6834	0.1203
319.8944	0.0917
320.1054	0.099
320.3164	0.1024
320.5274	0.0921
320.7383	0.0912
320.9493	0.0971
321.1602	0.1112
321.3712	0.0858
321.5821	0.1036
321.793	0.1017
322.0039	0.0984
322.2148	0.0917
322.4257	0.1009
322.6365	0.1119
322.8474	0.1059
323.0582	0.0909
323.269	0.0947
323.4798	0.1087
323.6906	0.096
323.9014	0.1049
324.1122	0.1015
324.3229	0.0942
324.5337	0.1096
324.7444	0.1012
324.9551	0.116
325.1658	0.1
325.3765	0.1072
325.5872	0.1127
325.7979	0.0987
326.0085	0.1094
326.2192	0.1084
326.4298	0.1077
326.6404	0.0918
326.851	0.0942
327.0616	0.0891
327.2722	0.1099
327.4828	0.1009
327.6933	0.1015
327.9039	0.1138
328.1144	0.118
328.3249	0.1078
328.5354	0.0952
328.7459	0.0994
328.9564	0.0871
329.1669	0.1117
329.3773	0.1081
329.5878	0.1081
329.7982	0.1054
330.0086	0.1003
330.219	0.1053
330.4294	0.103
330.6398	0.0986
330.8502	0.101
331.0605	0.1056
331.2708	0.1037
331.4812	0.1052
331.6915	0.1076
331.9018	0.099
332.1121	0.0972
332.3224	0.1051
332.5326	0.1052
332.7429	0.1023
332.9531	0.1065
333.1633	0.1115
333.3735	0.1052
333.5837	0.1065
333.7939	0.1005
334.0041	0.1266
334.2143	0.1148
334.4244	0.1102
334.6346	0.0969
334.8447	0.118
335.0548	0.101
335.2649	0.1039
335.475	0.1126
335.685	0.11
335.8951	0.1103
336.1051	0.1085
336.3152	0.1159
336.5252	0.1086
336.7352	0.1239
336.9452	0.1139
337.1552	0.1149
337.3652	0.1119
337.5751	0.1119
337.7851	0.1072
337.995	0.0995
338.2049	0.112
338.4148	0.1103
338.6247	0.1075
338.8346	0.101
339.0445	0.1055
339.2543	0.1077
339.4642	0.104
339.674	0.1164
339.8838	0.1221
340.0936	0.1038
340.3034	0.131
340.5132	0.1263
340.7229	0.1199
340.9327	0.1041
341.1424	0.117
341.3522	0.118
341.5619	0.1161
341.7716	0.1188
341.9813	0.1186
342.1909	0.1151
342.4006	0.136
342.6102	0.1223
342.8199	0.1219
343.0295	0.1301
343.2391	0.1202
343.4487	0.1314
343.6583	0.1126
343.8679	0.1213
344.0774	0.1312
344.287	0.1287
344.4965	0.1264
344.706	0.1117
344.9155	0.118
345.125	0.1353
345.3345	0.128
345.544	0.1146
345.7534	0.1277
345.9629	0.1179
346.1723	0.1208
346.3817	0.1327
346.5911	0.133
346.8005	0.1296
347.0099	0.1272
347.2193	0.1279
347.4286	0.1344
347.638	0.1348
347.8473	0.1308
348.0566	0.143
348.2659	0.1309
348.4752	0.1395
348.6845	0.137
348.8937	0.1246
349.103	0.1422
349.3122	0.1245
349.5214	0.1212
349.7306	0.1299
349.9398	0.1283
350.149	0.1293
350.3582	0.1273
350.5674	0.1482
350.7765	0.1518
350.9856	0.1434
351.1948	0.1375
351.4039	0.1222
351.613	0.1297
351.822	0.1435
352.0311	0.1464
352.2402	0.1425
352.4492	0.1422
352.6582	0.1514
352.8672	0.1367
353.0762	0.1529
353.2852	0.1515
353.4942	0.1336
353.7032	0.1351
353.9121	0.1437
354.1211	0.1451
354.33	0.1499
354.5389	0.1362
354.7478	0.145
354.9567	0.1395
355.1655	0.1439
355.3744	0.1612
355.5833	0.1545
355.7921	0.1778
356.0009	0.1438
356.2097	0.1674
356.4185	0.1669
356.6273	0.1757
356.8361	0.1493
357.0448	0.1431
357.2536	0.1552
357.4623	0.156
357.671	0.1613
357.8797	0.1562
358.0884	0.1796
358.2971	0.1671
358.5057	0.1634
358.7144	0.166
358.923	0.1641
359.1316	0.1629
359.3402	0.1617
359.5488	0.1691
359.7574	0.1681
359.966	0.1709
360.1746	0.1785
360.3831	0.1693
360.5916	0.1608
360.8002	0.1641
361.0087	0.1718
361.2172	0.1788
361.4256	0.172
361.6341	0.1923
361.8426	0.1744
362.051	0.1648
362.2594	0.1919
362.4678	0.1646
362.6762	0.1914
362.8846	0.1782
363.093	0.1819
363.3014	0.1888
363.5097	0.1695
363.718	0.1839
363.9264	0.1794
364.1347	0.187
364.343	0.1899
364.5513	0.1957
364.7595	0.2148
364.9678	0.1976
365.176	0.1859
365.3842	0.2024
365.5925	0.1766
365.8007	0.1931
366.0089	0.1898
366.217	0.186
366.4252	0.1964
366.6333	0.2011
366.8415	0.1931
367.0496	0.1823
367.2577	0.2076
367.4658	0.2004
367.6739	0.217
367.882	0.2072
368.09	0.1875
368.2981	0.2063
368.5061	0.1925
368.7141	0.2026
368.9221	0.2219
369.1301	0.2139
369.3381	0.1984
369.5461	0.2003
369.754	0.1996
369.962	0.2245
370.1699	0.2106
370.3778	0.2143
370.5857	0.1943
370.7936	0.2098
371.0015	0.2031
371.2093	0.218
371.4172	0.2088
371.625	0.2202
371.8328	0.222
372.0406	0.2102
372.2484	0.2049
372.4562	0.2109
372.664	0.2301
372.8717	0.2243
373.0795	0.2041
373.2872	0.2164
373.4949	0.2156
373.7026	0.2268
373.9103	0.229
374.118	0.2309
374.3256	0.221
374.5333	0.2249
374.7409	0.2115
374.9485	0.2422
375.1561	0.213
375.3637	0.2238
375.5713	0.2333
375.7789	0.2253
375.9864	0.2317
376.194	0.2282
376.4015	0.243
376.609	0.256
376.8165	0.237
377.024	0.2294
377.2315	0.2227
377.4389	0.2287
377.6464	0.2488
377.8538	0.2519
378.0612	0.2395
378.2686	0.2371
378.476	0.2671
378.6834	0.2578
378.8908	0.2475
379.0981	0.2481
379.3055	0.2373
379.5128	0.2363
379.7201	0.2461
379.9274	0.2319
380.1347	0.2305
380.342	0.2519
380.5492	0.2187
380.7565	0.241
380.9637	0.2537
381.1709	0.244
381.3781	0.2478
381.5853	0.2593
381.7925	0.2407
381.9997	0.256
382.2068	0.2658
382.4139	0.2677
382.6211	0.2231
382.8282	0.2484
383.0353	0.253
383.2424	0.2426
383.4494	0.2656
383.6565	0.252
383.8635	0.2613
384.0706	0.252
384.2776	0.2587
384.4846	0.2319
384.6916	0.2624
384.8986	0.2503
385.1055	0.253
385.3125	0.2449
385.5194	0.2251
385.7263	0.2398
385.9333	0.2492
386.1402	0.2388
386.347	0.233
386.5539	0.253
386.7608	0.2612
386.9676	0.221
387.1744	0.2637
387.3813	0.2379
387.5881	0.2538
387.7948	0.2599
388.0016	0.2435
388.2084	0.2609
388.4151	0.228
388.6219	0.2592
388.8286	0.2402
389.0353	0.2415
389.242	0.2652
389.4487	0.2343
389.6553	0.2398
389.862	0.2187
390.0686	0.2414
390.2753	0.2504
390.4819	0.2371
390.6885	0.2282
390.8951	0.2408
391.1016	0.2345
391.3082	0.2331
391.5147	0.2406
391.7213	0.2354
391.9278	0.2177
392.1343	0.2258
392.3408	0.2318
392.5473	0.2332
392.7537	0.219
392.9602	0.2094
393.1666	0.2336
393.373	0.227
393.5794	0.2245
393.7858	0.239
393.9922	0.216
394.1986	0.228
394.4049	0.2227
394.6113	0.1953
394.8176	0.2184
395.0239	0.2122
395.2302	0.2144
395.4365	0.2252
395.6428	0.2252
395.8491	0.1873
396.0553	0.2059
396.2615	0.2071
396.4678	0.2032
396.674	0.2113
396.8802	0.209
397.0863	0.2127
397.2925	0.2005
397.4987	0.2197
397.7048	0.2107
397.9109	0.2162
398.117	0.1973
398.3231	0.1992
398.5292	0.2235
398.7353	0.2299
398.9413	0.1998
399.1474	0.1994
399.3534	0.2041
399.5594	0.2008
399.7654	0.214
399.9714	0.2404
400.1774	0.2133
400.3833	0.2041
400.5893	0.206
400.7952	0.2177
401.0011	0.2114
401.207	0.2254
401.4129	0.2231
401.6188	0.2217
401.8247	0.195
402.0305	0.1973
402.2364	0.1947
402.4422	0.2248
402.648	0.2195
402.8538	0.2166
403.0596	0.1978
403.2654	0.2133
403.4711	0.2016
403.6768	0.2063
403.8826	0.2021
404.0883	0.218
404.294	0.2093
404.4997	0.2032
404.7054	0.2088
404.911	0.2054
405.1167	0.205
405.3223	0.23
405.5279	0.1956
405.7335	0.202
405.9391	0.2056
406.1447	0.1931
406.3502	0.2216
406.5558	0.2088
406.7613	0.2246
406.9668	0.2186
407.1724	0.2086
407.3778	0.201
407.5833	0.1998
407.7888	0.2034
407.9942	0.2066
408.1997	0.2053
408.4051	0.1796
408.6105	0.2108
408.8159	0.1904
409.0213	0.1982
409.2267	0.2196
409.432	0.1949
409.6374	0.2086
409.8427	0.1996
410.048	0.2
410.2533	0.1961
410.4586	0.2024
410.6639	0.1813
410.8691	0.1911
411.0744	0.2009
411.2796	0.1907
411.4848	0.1985
411.69	0.2033
411.8952	0.2283
412.1004	0.2155
412.3056	0.2091
412.5107	0.1879
412.7158	0.2106
412.921	0.1924
413.1261	0.2066
413.3312	0.201
413.5362	0.1903
413.7413	0.1967
413.9464	0.1798
414.1514	0.197
414.3564	0.1909
414.5614	0.179
414.7664	0.2013
414.9714	0.2004
415.1764	0.196
415.3813	0.2091
415.5863	0.2054
415.7912	0.1861
415.9961	0.2004
416.201	0.1939
416.4059	0.1897
416.6108	0.1974
416.8156	0.2038
417.0205	0.1973
417.2253	0.1822
417.4301	0.197
417.6349	0.1878
417.8397	0.1833
418.0445	0.2031
418.2492	0.2017
418.454	0.182
418.6587	0.2007
418.8634	0.2081
419.0681	0.1834
419.2728	0.1702
419.4775	0.179
419.6822	0.1875
419.8868	0.1655
420.0915	0.1861
420.2961	0.1747
420.5007	0.1765
420.7053	0.1815
420.9099	0.1862
421.1144	0.1876
421.319	0.1763
421.5235	0.192
421.728	0.1874
421.9325	0.18
422.137	0.1828
422.3415	0.1725
422.546	0.1754
422.7504	0.1867
422.9549	0.1893
423.1593	0.183
423.3637	0.2031
423.5681	0.1795
423.7725	0.1716
423.9769	0.1664
424.1812	0.1763
424.3856	0.1651
424.5899	0.1748
424.7942	0.1624
424.9985	0.1538
425.2028	0.1673
425.4071	0.1885
425.6113	0.1462
425.8156	0.1723
426.0198	0.1733
426.224	0.1592
426.4282	0.1595
426.6324	0.1626
426.8366	0.1615
