Data from MonoPyChalIsomerACN10uM380nmA_Absorbance_13-38-32-449.txt Node
Date: Fri Jul 05 13:38:32 BST 2024
User: LASERRRRR
Spectrometer: FLMT03099
Trigger mode: 0
Integration Time (sec): 1.000000E-1
Scans to average: 1
Electric dark correction enabled: true
Nonlinearity correction enabled: false
Boxcar width: 0
XAxis mode: Wavelengths
Number of Pixels in Spectrum: 3648
>>>>>Begin Spectral Data<<<<<
179.3399	0.1549
179.5586	0.1549
179.7771	0.1549
179.9957	0.1719
180.2143	-0.1723
180.4329	0.199
180.6514	0.5277
180.8699	0.4154
181.0885	0.6245
181.307	0.4731
181.5255	-0
181.744	-0.2821
181.9625	-0
182.181	-0.8661
182.3994	-0
182.6179	-0
182.8363	-0.1247
183.0547	-0.3919
183.2732	0.1261
183.4916	0.3115
183.71	0.1379
183.9284	0.2532
184.1467	-0.2388
184.3651	-0.0526
184.5835	-0.0034
184.8018	-0.0472
185.0201	0.2433
185.2385	-0.1339
185.4568	0.0107
185.6751	0.2859
185.8934	0.1828
186.1117	0.036
186.3299	0.0898
186.5482	0.0056
186.7664	-0.0929
186.9847	0.0704
187.2029	-0.0184
187.4211	0.1376
187.6393	-0.0534
187.8575	-0.0595
188.0757	0.1641
188.2939	0.2236
188.512	-0.0365
188.7302	-0.0044
188.9483	0.0783
189.1665	0.1894
189.3846	0.0434
189.6027	0.052
189.8208	0.0421
190.0389	0.1058
190.257	0.0348
190.475	0.2077
190.6931	0.1787
190.9111	0.5242
191.1292	0.0922
191.3472	0.3303
191.5652	0.2344
191.7832	0.3126
192.0012	0.4197
192.2192	0.4064
192.4371	0.4834
192.6551	0.2855
192.873	0.5211
193.091	0.3733
193.3089	0.6184
193.5268	0.5052
193.7447	0.5007
193.9626	0.5429
194.1805	0.6115
194.3984	0.5823
194.6162	0.5512
194.8341	0.6212
195.0519	0.7529
195.2697	0.7261
195.4875	0.6491
195.7054	0.6789
195.9231	0.6456
196.1409	0.8662
196.3587	0.801
196.5765	0.6403
196.7942	0.8728
197.012	0.5802
197.2297	0.7208
197.4474	1.0951
197.6651	0.8869
197.8828	0.8419
198.1005	0.6316
198.3182	0.6592
198.5358	1.1442
198.7535	0.9014
198.9711	0.6176
199.1888	0.6932
199.4064	0.9261
199.624	0.7202
199.8416	0.7124
200.0592	0.8756
200.2767	0.7483
200.4943	0.8897
200.7119	0.7747
200.9294	0.8554
201.1469	0.7094
201.3645	0.6105
201.582	0.6748
201.7995	1.2408
202.017	0.7569
202.2344	0.7266
202.4519	1.213
202.6694	0.7089
202.8868	0.6819
203.1042	0.9713
203.3217	0.8283
203.5391	0.7026
203.7565	0.7295
203.9739	0.6749
204.1913	0.8416
204.4086	0.8005
204.626	0.785
204.8433	0.7906
205.0607	0.7532
205.278	0.8787
205.4953	0.7331
205.7126	0.8664
205.9299	1.1058
206.1472	0.7793
206.3644	0.7486
206.5817	0.778
206.7989	0.9378
207.0162	0.734
207.2334	0.9167
207.4506	0.7609
207.6678	0.7465
207.885	0.8503
208.1022	0.7603
208.3194	0.7132
208.5365	0.7941
208.7537	0.7931
208.9708	0.8392
209.1879	0.7916
209.405	0.9339
209.6222	0.8986
209.8392	0.748
210.0563	0.7906
210.2734	0.8575
210.4905	0.8155
210.7075	0.8371
210.9245	0.7145
211.1416	0.8871
211.3586	0.8692
211.5756	0.7415
211.7926	0.7995
212.0096	0.7502
212.2265	0.7953
212.4435	0.7676
212.6604	0.8035
212.8774	0.7912
213.0943	0.7707
213.3112	0.7195
213.5281	0.6804
213.745	0.7032
213.9619	0.7177
214.1788	0.678
214.3956	0.6829
214.6125	0.6718
214.8293	0.6583
215.0461	0.6317
215.2629	0.6264
215.4798	0.7535
215.6965	0.61
215.9133	0.7097
216.1301	0.7101
216.3469	0.6695
216.5636	0.6201
216.7803	0.6276
216.9971	0.6062
217.2138	0.5858
217.4305	0.6281
217.6472	0.5572
217.8639	0.6189
218.0805	0.6307
218.2972	0.5662
218.5138	0.5228
218.7305	0.5764
218.9471	0.593
219.1637	0.5137
219.3803	0.5584
219.5969	0.5042
219.8135	0.5358
220.0301	0.5336
220.2466	0.5738
220.4632	0.5594
220.6797	0.5026
220.8962	0.4997
221.1127	0.5685
221.3292	0.5277
221.5457	0.5236
221.7622	0.4942
221.9787	0.5143
222.1951	0.5029
222.4116	0.5656
222.628	0.5055
222.8444	0.5022
223.0608	0.4889
223.2772	0.5415
223.4936	0.5354
223.71	0.4824
223.9264	0.5243
224.1427	0.5322
224.3591	0.5268
224.5754	0.5468
224.7917	0.5507
225.008	0.5266
225.2243	0.5158
225.4406	0.5817
225.6569	0.5349
225.8732	0.4951
226.0894	0.5133
226.3057	0.5307
226.5219	0.5513
226.7381	0.5171
226.9543	0.5387
227.1705	0.5483
227.3867	0.533
227.6029	0.5504
227.8191	0.5508
228.0352	0.5487
228.2513	0.5556
228.4675	0.5826
228.6836	0.5465
228.8997	0.5357
229.1158	0.5806
229.3319	0.5358
229.548	0.5449
229.764	0.5848
229.9801	0.5591
230.1961	0.542
230.4121	0.5517
230.6282	0.536
230.8442	0.5413
231.0602	0.5663
231.2761	0.5711
231.4921	0.5628
231.7081	0.5782
231.924	0.5364
232.14	0.5422
232.3559	0.5339
232.5718	0.5934
232.7877	0.5468
233.0036	0.5333
233.2195	0.539
233.4353	0.5362
233.6512	0.563
233.867	0.5431
234.0829	0.5208
234.2987	0.5418
234.5145	0.5711
234.7303	0.5387
234.9461	0.5656
235.1619	0.5298
235.3776	0.5594
235.5934	0.5434
235.8091	0.519
236.0249	0.5255
236.2406	0.5629
236.4563	0.5362
236.672	0.5496
236.8877	0.5269
237.1034	0.5219
237.319	0.5246
237.5347	0.5439
237.7503	0.5402
237.966	0.5315
238.1816	0.5309
238.3972	0.5379
238.6128	0.5295
238.8284	0.5291
239.0439	0.5318
239.2595	0.5427
239.475	0.5383
239.6906	0.5395
239.9061	0.5082
240.1216	0.5203
240.3371	0.5551
240.5526	0.5057
240.7681	0.5066
240.9836	0.4784
241.199	0.5089
241.4145	0.4759
241.6299	0.4882
241.8453	0.4758
242.0607	0.4677
242.2761	0.4525
242.4915	0.4758
242.7069	0.4521
242.9223	0.4377
243.1376	0.4365
243.353	0.4425
243.5683	0.4303
243.7836	0.4243
243.9989	0.4392
244.2142	0.3915
244.4295	0.3939
244.6448	0.391
244.86	0.3743
245.0753	0.3561
245.2905	0.3755
245.5057	0.3556
245.721	0.3298
245.9362	0.3443
246.1514	0.3385
246.3665	0.3331
246.5817	0.3148
246.7969	0.3196
247.012	0.3192
247.2271	0.3089
247.4423	0.2997
247.6574	0.2984
247.8725	0.3001
248.0876	0.2783
248.3026	0.2883
248.5177	0.2909
248.7328	0.2646
248.9478	0.2696
249.1628	0.2625
249.3779	0.2649
249.5929	0.2526
249.8079	0.2764
250.0228	0.2571
250.2378	0.2396
250.4528	0.2411
250.6677	0.2324
250.8827	0.2414
251.0976	0.2393
251.3125	0.235
251.5274	0.2134
251.7423	0.2157
251.9572	0.2183
252.172	0.2148
252.3869	0.2227
252.6017	0.2074
252.8166	0.2048
253.0314	0.1986
253.2462	0.2023
253.461	0.2058
253.6758	0.1963
253.8906	0.2012
254.1053	0.1913
254.3201	0.1988
254.5348	0.2107
254.7496	0.1987
254.9643	0.1971
255.179	0.2027
255.3937	0.195
255.6083	0.2121
255.823	0.1762
256.0377	0.188
256.2523	0.195
256.467	0.185
256.6816	0.1988
256.8962	0.1772
257.1108	0.1853
257.3254	0.1986
257.54	0.1828
257.7545	0.1879
257.9691	0.1829
258.1836	0.1897
258.3981	0.2011
258.6127	0.21
258.8272	0.1759
259.0417	0.1655
259.2561	0.1923
259.4706	0.1849
259.6851	0.1825
259.8995	0.18
260.114	0.1759
260.3284	0.176
260.5428	0.1803
260.7572	0.1841
260.9716	0.192
261.186	0.1646
261.4003	0.1923
261.6147	0.181
261.829	0.1755
262.0433	0.1788
262.2577	0.1774
262.472	0.18
262.6863	0.1767
262.9005	0.185
263.1148	0.1924
263.3291	0.1648
263.5433	0.1824
263.7576	0.1727
263.9718	0.1901
264.186	0.1862
264.4002	0.184
264.6144	0.1871
264.8286	0.1807
265.0427	0.1799
265.2569	0.202
265.471	0.1732
265.6851	0.1787
265.8993	0.1774
266.1134	0.1808
266.3275	0.1789
266.5415	0.1726
266.7556	0.186
266.9697	0.1939
267.1837	0.185
267.3978	0.173
267.6118	0.187
267.8258	0.1964
268.0398	0.1605
268.2538	0.1879
268.4677	0.1931
268.6817	0.1801
268.8957	0.1934
269.1096	0.1769
269.3235	0.1817
269.5374	0.1778
269.7514	0.1729
269.9652	0.1718
270.1791	0.1779
270.393	0.1729
270.6068	0.176
270.8207	0.1727
271.0345	0.1628
271.2483	0.1798
271.4622	0.1788
271.676	0.1821
271.8897	0.1643
272.1035	0.1625
272.3173	0.1657
272.531	0.1685
272.7448	0.1727
272.9585	0.1632
273.1722	0.1727
273.3859	0.1761
273.5996	0.1674
273.8133	0.1716
274.0269	0.1573
274.2406	0.1714
274.4542	0.1725
274.6679	0.1629
274.8815	0.178
275.0951	0.1702
275.3087	0.1822
275.5223	0.178
275.7358	0.1744
275.9494	0.1723
276.1629	0.1696
276.3765	0.1743
276.59	0.1663
276.8035	0.1724
277.017	0.1738
277.2305	0.1686
277.444	0.1772
277.6574	0.1709
277.8709	0.1805
278.0843	0.1594
278.2978	0.1626
278.5112	0.1692
278.7246	0.1716
278.938	0.1741
279.1513	0.1804
279.3647	0.1896
279.5781	0.178
279.7914	0.1773
280.0047	0.1814
280.2181	0.1693
280.4314	0.1765
280.6447	0.1783
280.8579	0.189
281.0712	0.183
281.2845	0.1763
281.4977	0.1675
281.711	0.1712
281.9242	0.1714
282.1374	0.1805
282.3506	0.1836
282.5638	0.1785
282.7769	0.1891
282.9901	0.1688
283.2033	0.1893
283.4164	0.1754
283.6295	0.1706
283.8426	0.1617
284.0557	0.1815
284.2688	0.1861
284.4819	0.1758
284.695	0.1685
284.908	0.1723
285.1211	0.1808
285.3341	0.1708
285.5471	0.1771
285.7601	0.1794
285.9731	0.1658
286.1861	0.1642
286.3991	0.1816
286.612	0.1774
286.825	0.1767
287.0379	0.1823
287.2508	0.1742
287.4637	0.1889
287.6766	0.1751
287.8895	0.184
288.1024	0.1973
288.3152	0.182
288.5281	0.1773
288.7409	0.1721
288.9538	0.1791
289.1666	0.1828
289.3794	0.1866
289.5922	0.1666
289.8049	0.1699
290.0177	0.1722
290.2304	0.1734
290.4432	0.1862
290.6559	0.1677
290.8686	0.1748
291.0813	0.1723
291.294	0.1867
291.5067	0.1826
291.7194	0.1775
291.932	0.1813
292.1447	0.1704
292.3573	0.1779
292.5699	0.1784
292.7825	0.1797
292.9951	0.1649
293.2077	0.1625
293.4203	0.1648
293.6328	0.1554
293.8454	0.1772
294.0579	0.1653
294.2704	0.173
294.4829	0.1714
294.6954	0.1778
294.9079	0.17
295.1204	0.1671
295.3328	0.1722
295.5453	0.1742
295.7577	0.1664
295.9701	0.1636
296.1825	0.1634
296.3949	0.1577
296.6073	0.1585
296.8197	0.1644
297.0321	0.1774
297.2444	0.1627
297.4567	0.1729
297.6691	0.1657
297.8814	0.1594
298.0937	0.1719
298.306	0.1811
298.5182	0.1584
298.7305	0.1838
298.9428	0.1626
299.155	0.1715
299.3672	0.1553
299.5794	0.1682
299.7916	0.1636
300.0038	0.1623
300.216	0.169
300.4282	0.1693
300.6403	0.1455
300.8525	0.1666
301.0646	0.1587
301.2767	0.1643
301.4888	0.1636
301.7009	0.1651
301.913	0.1547
302.125	0.1634
302.3371	0.165
302.5491	0.1705
302.7612	0.1671
302.9732	0.1776
303.1852	0.1555
303.3972	0.1535
303.6092	0.1465
303.8211	0.1573
304.0331	0.1574
304.245	0.1403
304.457	0.1589
304.6689	0.1556
304.8808	0.1579
305.0927	0.1473
305.3046	0.1553
305.5164	0.1597
305.7283	0.1377
305.9401	0.1499
306.152	0.1465
306.3638	0.1593
306.5756	0.133
306.7874	0.1509
306.9992	0.1538
307.2109	0.1409
307.4227	0.1157
307.6344	0.1437
307.8462	0.1419
308.0579	0.1369
308.2696	0.1366
308.4813	0.1309
308.693	0.1432
308.9046	0.1362
309.1163	0.1321
309.328	0.1289
309.5396	0.1284
309.7512	0.1223
309.9628	0.1248
310.1744	0.1286
310.386	0.1239
310.5976	0.1168
310.8091	0.122
311.0207	0.1158
311.2322	0.1222
311.4437	0.1137
311.6552	0.1175
311.8667	0.1251
312.0782	0.1063
312.2897	0.1045
312.5012	0.1158
312.7126	0.1135
312.924	0.1025
313.1355	0.1116
313.3469	0.1205
313.5583	0.1061
313.7696	0.1187
313.981	0.116
314.1924	0.1007
314.4037	0.1051
314.6151	0.1161
314.8264	0.1021
315.0377	0.1026
315.249	0.1007
315.4603	0.1124
315.6716	0.1101
315.8828	0.0938
316.0941	0.1002
316.3053	0.1078
316.5165	0.1073
316.7277	0.0916
316.9389	0.1082
317.1501	0.0943
317.3613	0.1043
317.5724	0.1009
317.7836	0.0962
317.9947	0.1027
318.2058	0.0989
318.417	0.1065
318.6281	0.091
318.8391	0.104
319.0502	0.0981
319.2613	0.1092
319.4723	0.1067
319.6834	0.1097
319.8944	0.1004
320.1054	0.1098
320.3164	0.1146
320.5274	0.0939
320.7383	0.0937
320.9493	0.0939
321.1602	0.1117
321.3712	0.0888
321.5821	0.1051
321.793	0.1163
322.0039	0.1025
322.2148	0.0943
322.4257	0.117
322.6365	0.1203
322.8474	0.0981
323.0582	0.1044
323.269	0.1119
323.4798	0.1171
323.6906	0.1106
323.9014	0.1021
324.1122	0.1167
324.3229	0.0983
324.5337	0.1111
324.7444	0.1001
324.9551	0.1225
325.1658	0.11
325.3765	0.1072
325.5872	0.1103
325.7979	0.1109
326.0085	0.1159
326.2192	0.1114
326.4298	0.1122
326.6404	0.0998
326.851	0.1006
327.0616	0.1072
327.2722	0.1097
327.4828	0.1157
327.6933	0.1096
327.9039	0.1061
328.1144	0.1133
328.3249	0.1105
328.5354	0.1017
328.7459	0.1078
328.9564	0.1045
329.1669	0.1048
329.3773	0.1101
329.5878	0.109
329.7982	0.1087
330.0086	0.1145
330.219	0.1269
330.4294	0.1059
330.6398	0.1065
330.8502	0.0973
331.0605	0.1121
331.2708	0.1179
331.4812	0.1179
331.6915	0.121
331.9018	0.109
332.1121	0.1058
332.3224	0.1176
332.5326	0.1091
332.7429	0.1152
332.9531	0.1174
333.1633	0.1138
333.3735	0.1178
333.5837	0.1222
333.7939	0.1107
334.0041	0.1157
334.2143	0.1135
334.4244	0.1117
334.6346	0.0923
334.8447	0.1232
335.0548	0.1153
335.2649	0.096
335.475	0.112
335.685	0.0988
335.8951	0.1242
336.1051	0.1228
336.3152	0.1236
336.5252	0.1106
336.7352	0.1224
336.9452	0.122
337.1552	0.117
337.3652	0.1096
337.5751	0.1219
337.7851	0.1137
337.995	0.1093
338.2049	0.1105
338.4148	0.1201
338.6247	0.1249
338.8346	0.1043
339.0445	0.1168
339.2543	0.1188
339.4642	0.1142
339.674	0.1051
339.8838	0.1105
340.0936	0.1154
340.3034	0.1275
340.5132	0.1265
340.7229	0.1215
340.9327	0.1136
341.1424	0.1156
341.3522	0.1304
341.5619	0.1298
341.7716	0.1269
341.9813	0.1326
342.1909	0.1179
342.4006	0.1263
342.6102	0.1435
342.8199	0.1151
343.0295	0.1284
343.2391	0.1356
343.4487	0.1297
343.6583	0.1134
343.8679	0.1261
344.0774	0.1407
344.287	0.1338
344.4965	0.117
344.706	0.1328
344.9155	0.1373
345.125	0.1298
345.3345	0.132
345.544	0.1387
345.7534	0.1264
345.9629	0.1125
346.1723	0.128
346.3817	0.1287
346.5911	0.1323
346.8005	0.1181
347.0099	0.1399
347.2193	0.1371
347.4286	0.1315
347.638	0.1436
347.8473	0.1445
348.0566	0.1431
348.2659	0.144
348.4752	0.1316
348.6845	0.1302
348.8937	0.1294
349.103	0.149
349.3122	0.1368
349.5214	0.1316
349.7306	0.1456
349.9398	0.1427
350.149	0.1417
350.3582	0.1367
350.5674	0.1551
350.7765	0.1456
350.9856	0.1353
351.1948	0.1353
351.4039	0.1329
351.613	0.1359
351.822	0.1392
352.0311	0.1466
352.2402	0.1457
352.4492	0.1424
352.6582	0.1623
352.8672	0.1292
353.0762	0.149
353.2852	0.1534
353.4942	0.1454
353.7032	0.1459
353.9121	0.1477
354.1211	0.1578
354.33	0.1538
354.5389	0.1432
354.7478	0.144
354.9567	0.1528
355.1655	0.1518
355.3744	0.1385
355.5833	0.1514
355.7921	0.1659
356.0009	0.1424
356.2097	0.1597
356.4185	0.1702
356.6273	0.1617
356.8361	0.1614
357.0448	0.1534
357.2536	0.1379
357.4623	0.1661
357.671	0.1606
357.8797	0.1561
358.0884	0.1599
358.2971	0.1509
358.5057	0.1599
358.7144	0.1634
358.923	0.1672
359.1316	0.1685
359.3402	0.1531
359.5488	0.1763
359.7574	0.1671
359.966	0.1604
360.1746	0.1647
360.3831	0.1686
360.5916	0.1668
360.8002	0.1545
361.0087	0.1865
361.2172	0.1596
361.4256	0.1788
361.6341	0.1857
361.8426	0.1886
362.051	0.1826
362.2594	0.1842
362.4678	0.1753
362.6762	0.2033
362.8846	0.1829
363.093	0.1773
363.3014	0.1768
363.5097	0.1584
363.718	0.1848
363.9264	0.1821
364.1347	0.1793
364.343	0.1976
364.5513	0.1991
364.7595	0.1912
364.9678	0.1936
365.176	0.2001
365.3842	0.1874
365.5925	0.1754
365.8007	0.1894
366.0089	0.1838
366.217	0.1857
366.4252	0.2002
366.6333	0.2019
366.8415	0.1892
367.0496	0.1897
367.2577	0.1906
367.4658	0.2136
367.6739	0.2068
367.882	0.2083
368.09	0.1989
368.2981	0.1961
368.5061	0.2079
368.7141	0.205
368.9221	0.2133
369.1301	0.1913
369.3381	0.1905
369.5461	0.2049
369.754	0.1951
369.962	0.2176
370.1699	0.207
370.3778	0.2012
370.5857	0.1976
370.7936	0.2074
371.0015	0.2029
371.2093	0.205
371.4172	0.2082
371.625	0.2083
371.8328	0.1956
372.0406	0.2076
372.2484	0.1955
372.4562	0.1999
372.664	0.2218
372.8717	0.2078
373.0795	0.1947
373.2872	0.2134
373.4949	0.2076
373.7026	0.2141
373.9103	0.2127
374.118	0.2356
374.3256	0.2193
374.5333	0.2067
374.7409	0.2228
374.9485	0.2366
375.1561	0.2214
375.3637	0.2247
375.5713	0.2306
375.7789	0.2266
375.9864	0.2291
376.194	0.2126
376.4015	0.2367
376.609	0.2252
376.8165	0.2088
377.024	0.215
377.2315	0.2052
377.4389	0.2268
377.6464	0.2489
377.8538	0.2141
378.0612	0.2241
378.2686	0.2358
378.476	0.2344
378.6834	0.2268
378.8908	0.2186
379.0981	0.2382
379.3055	0.2333
379.5128	0.2122
379.7201	0.2236
379.9274	0.2313
380.1347	0.2242
380.342	0.2313
380.5492	0.2252
380.7565	0.241
380.9637	0.2438
381.1709	0.2117
381.3781	0.2452
381.5853	0.2315
381.7925	0.245
381.9997	0.235
382.2068	0.2485
382.4139	0.2284
382.6211	0.2299
382.8282	0.2255
383.0353	0.2528
383.2424	0.2352
383.4494	0.2423
383.6565	0.2368
383.8635	0.2256
384.0706	0.2175
384.2776	0.2348
384.4846	0.2293
384.6916	0.239
384.8986	0.2243
385.1055	0.2375
385.3125	0.248
385.5194	0.2265
385.7263	0.2366
385.9333	0.2292
386.1402	0.2427
386.347	0.2462
386.5539	0.2223
386.7608	0.2333
386.9676	0.2203
387.1744	0.2414
387.3813	0.2089
387.5881	0.2335
387.7948	0.2152
388.0016	0.2349
388.2084	0.2298
388.4151	0.2302
388.6219	0.241
388.8286	0.2285
389.0353	0.2456
389.242	0.2253
389.4487	0.224
389.6553	0.2217
389.862	0.2014
390.0686	0.2217
390.2753	0.2129
390.4819	0.2122
390.6885	0.2202
390.8951	0.2325
391.1016	0.2179
391.3082	0.2305
391.5147	0.2224
391.7213	0.218
391.9278	0.2099
392.1343	0.212
392.3408	0.2162
392.5473	0.2356
392.7537	0.214
392.9602	0.212
393.1666	0.2138
393.373	0.211
393.5794	0.2356
393.7858	0.2177
393.9922	0.2101
394.1986	0.2208
394.4049	0.2144
394.6113	0.1914
394.8176	0.1829
395.0239	0.2284
395.2302	0.203
395.4365	0.2129
395.6428	0.223
395.8491	0.1897
396.0553	0.1955
396.2615	0.1971
396.4678	0.1896
396.674	0.184
396.8802	0.1954
397.0863	0.2281
397.2925	0.185
397.4987	0.187
397.7048	0.1825
397.9109	0.2149
398.117	0.1874
398.3231	0.1967
398.5292	0.1894
398.7353	0.2078
398.9413	0.1897
399.1474	0.2022
399.3534	0.1924
399.5594	0.1781
399.7654	0.2117
399.9714	0.2116
400.1774	0.1887
400.3833	0.1788
400.5893	0.1866
400.7952	0.2064
401.0011	0.1915
401.207	0.1984
401.4129	0.2052
401.6188	0.1929
401.8247	0.1999
402.0305	0.1873
402.2364	0.185
402.4422	0.2134
402.648	0.1871
402.8538	0.1922
403.0596	0.1796
403.2654	0.1956
403.4711	0.181
403.6768	0.1963
403.8826	0.1914
404.0883	0.2008
404.294	0.2023
404.4997	0.189
404.7054	0.1953
404.911	0.191
405.1167	0.1977
405.3223	0.2029
405.5279	0.1899
405.7335	0.2206
405.9391	0.2078
406.1447	0.181
406.3502	0.2333
406.5558	0.1926
406.7613	0.1989
406.9668	0.2092
407.1724	0.1783
407.3778	0.1815
407.5833	0.1877
407.7888	0.1937
407.9942	0.2134
408.1997	0.1879
408.4051	0.1835
408.6105	0.1875
408.8159	0.1902
409.0213	0.1806
409.2267	0.1882
409.432	0.1883
409.6374	0.2141
409.8427	0.1906
410.048	0.2055
410.2533	0.1878
410.4586	0.1855
410.6639	0.1943
410.8691	0.1883
411.0744	0.19
411.2796	0.1959
411.4848	0.1907
411.69	0.1882
411.8952	0.2177
412.1004	0.1711
412.3056	0.2063
412.5107	0.1918
412.7158	0.1936
412.921	0.1951
413.1261	0.1754
413.3312	0.1794
413.5362	0.1761
413.7413	0.1996
413.9464	0.1817
414.1514	0.1912
414.3564	0.1841
414.5614	0.1804
414.7664	0.1964
414.9714	0.1845
415.1764	0.1754
415.3813	0.1898
415.5863	0.1733
415.7912	0.1801
415.9961	0.209
416.201	0.1786
416.4059	0.1914
416.6108	0.1593
416.8156	0.1853
417.0205	0.1815
417.2253	0.181
417.4301	0.1803
417.6349	0.1778
417.8397	0.1826
418.0445	0.1882
418.2492	0.1825
418.454	0.1751
418.6587	0.1747
418.8634	0.1613
419.0681	0.1773
419.2728	0.17
419.4775	0.1694
419.6822	0.1813
419.8868	0.1595
420.0915	0.1692
420.2961	0.1668
420.5007	0.1642
420.7053	0.1734
420.9099	0.186
421.1144	0.1692
421.319	0.1723
421.5235	0.1769
421.728	0.17
421.9325	0.1827
422.137	0.1754
422.3415	0.1607
422.546	0.1589
422.7504	0.1758
422.9549	0.1676
423.1593	0.171
423.3637	0.1797
423.5681	0.153
423.7725	0.1709
423.9769	0.157
424.1812	0.1526
424.3856	0.1655
424.5899	0.16
424.7942	0.1573
424.9985	0.1681
425.2028	0.1479
425.4071	0.1805
425.6113	0.1435
425.8156	0.1535
426.0198	0.165
426.224	0.1426
426.4282	0.1442
