Data from MonoPyChalIsomerACN10uM380nmA_Absorbance_13-38-33-749.txt Node
Date: Fri Jul 05 13:38:33 BST 2024
User: LASERRRRR
Spectrometer: FLMT03099
Trigger mode: 0
Integration Time (sec): 1.000000E-1
Scans to average: 1
Electric dark correction enabled: true
Nonlinearity correction enabled: false
Boxcar width: 0
XAxis mode: Wavelengths
Number of Pixels in Spectrum: 3648
>>>>>Begin Spectral Data<<<<<
179.3399	-0.2213
179.5586	-0.2213
179.7771	-0.2213
179.9957	-0.3034
180.2143	-0.2896
180.4329	-0.3845
180.6514	0.7588
180.8699	-0.3445
181.0885	0.0945
181.307	0.0082
181.5255	-0
181.744	-0.7217
181.9625	0.5543
182.181	-0.2663
182.3994	-0
182.6179	0.0856
182.8363	-0.0021
183.0547	-0
183.2732	0.0429
183.4916	0.3585
183.71	0.0637
183.9284	0.8246
184.1467	0.0978
184.3651	-0.053
184.5835	0.0799
184.8018	0.0622
185.0201	0.0929
185.2385	-0.095
185.4568	0.0781
185.6751	0.4611
185.8934	0.4156
186.1117	0.22
186.3299	-0.0066
186.5482	0.043
186.7664	0.0848
186.9847	-0.1738
187.2029	0.0713
187.4211	0.0691
187.6393	0.1513
187.8575	-0.0702
188.0757	0.2575
188.2939	0.0796
188.512	1.0348
188.7302	0.0709
188.9483	0.2208
189.1665	0.2443
189.3846	-0.2517
189.6027	0.0756
189.8208	0.3886
190.0389	0.1651
190.257	0.1118
190.475	0.4584
190.6931	0.2643
190.9111	0.5431
191.1292	0.4283
191.3472	0.3216
191.5652	0.3146
191.7832	0.352
192.0012	0.7375
192.2192	0.5325
192.4371	0.358
192.6551	0.5517
192.873	0.5893
193.091	0.4205
193.3089	0.5085
193.5268	0.5612
193.7447	0.6497
193.9626	0.5093
194.1805	0.4716
194.3984	0.8493
194.6162	0.5795
194.8341	0.704
195.0519	0.5956
195.2697	0.8415
195.4875	0.6874
195.7054	0.7321
195.9231	1.0593
196.1409	0.7058
196.3587	0.682
196.5765	0.6991
196.7942	0.6103
197.012	0.8508
197.2297	0.7361
197.4474	1.6255
197.6651	0.6534
197.8828	0.8362
198.1005	0.7884
198.3182	0.7675
198.5358	0.7981
198.7535	1.0056
198.9711	0.7046
199.1888	0.8282
199.4064	1.1141
199.624	0.842
199.8416	0.6317
200.0592	1.0074
200.2767	0.7796
200.4943	0.7606
200.7119	1.0679
200.9294	0.7987
201.1469	0.7123
201.3645	0.6962
201.582	0.8219
201.7995	0.8153
202.017	0.6568
202.2344	0.7714
202.4519	0.839
202.6694	1.3107
202.8868	0.9827
203.1042	1.0704
203.3217	1.1215
203.5391	0.9178
203.7565	0.7962
203.9739	0.737
204.1913	0.8348
204.4086	0.8948
204.626	0.8726
204.8433	0.7271
205.0607	0.9094
205.278	0.8227
205.4953	0.7678
205.7126	0.8371
205.9299	0.9534
206.1472	0.939
206.3644	0.7459
206.5817	0.8376
206.7989	0.8618
207.0162	0.8894
207.2334	0.9701
207.4506	0.8399
207.6678	0.8018
207.885	0.7647
208.1022	0.8206
208.3194	0.7612
208.5365	0.8081
208.7537	0.7907
208.9708	0.707
209.1879	0.7914
209.405	0.8761
209.6222	0.8868
209.8392	0.9481
210.0563	0.7949
210.2734	0.9234
210.4905	0.8702
210.7075	0.8793
210.9245	0.7605
211.1416	0.965
211.3586	0.7937
211.5756	0.7499
211.7926	0.8167
212.0096	0.8057
212.2265	0.7282
212.4435	0.8264
212.6604	0.7834
212.8774	0.8667
213.0943	0.8167
213.3112	0.7567
213.5281	0.7385
213.745	0.7197
213.9619	0.7547
214.1788	0.6504
214.3956	0.6894
214.6125	0.6763
214.8293	0.6454
215.0461	0.6679
215.2629	0.6222
215.4798	0.7493
215.6965	0.6393
215.9133	0.6873
216.1301	0.6087
216.3469	0.7482
216.5636	0.645
216.7803	0.6234
216.9971	0.6992
217.2138	0.5978
217.4305	0.5968
217.6472	0.5415
217.8639	0.6527
218.0805	0.6316
218.2972	0.6082
218.5138	0.5563
218.7305	0.5788
218.9471	0.6023
219.1637	0.5455
219.3803	0.5447
219.5969	0.5355
219.8135	0.5386
220.0301	0.5403
220.2466	0.5501
220.4632	0.5273
220.6797	0.4926
220.8962	0.5127
221.1127	0.5253
221.3292	0.5016
221.5457	0.5197
221.7622	0.4948
221.9787	0.5323
222.1951	0.5104
222.4116	0.5394
222.628	0.5327
222.8444	0.5582
223.0608	0.5288
223.2772	0.5355
223.4936	0.5149
223.71	0.5175
223.9264	0.5447
224.1427	0.527
224.3591	0.5279
224.5754	0.5662
224.7917	0.5187
225.008	0.5348
225.2243	0.5158
225.4406	0.5678
225.6569	0.5354
225.8732	0.5309
226.0894	0.5097
226.3057	0.5301
226.5219	0.5456
226.7381	0.5246
226.9543	0.5546
227.1705	0.5519
227.3867	0.5413
227.6029	0.5709
227.8191	0.5257
228.0352	0.5487
228.2513	0.5537
228.4675	0.5667
228.6836	0.5622
228.8997	0.544
229.1158	0.579
229.3319	0.5372
229.548	0.5568
229.764	0.5602
229.9801	0.5615
230.1961	0.5476
230.4121	0.5637
230.6282	0.5611
230.8442	0.5418
231.0602	0.5557
231.2761	0.5724
231.4921	0.5609
231.7081	0.5413
231.924	0.5415
232.14	0.5864
232.3559	0.5453
232.5718	0.5695
232.7877	0.5493
233.0036	0.5313
233.2195	0.5502
233.4353	0.5522
233.6512	0.5479
233.867	0.5597
234.0829	0.5597
234.2987	0.5337
234.5145	0.5492
234.7303	0.5223
234.9461	0.5702
235.1619	0.5637
235.3776	0.5398
235.5934	0.5611
235.8091	0.5616
236.0249	0.5214
236.2406	0.5562
236.4563	0.5286
236.672	0.561
236.8877	0.5629
237.1034	0.5421
237.319	0.5418
237.5347	0.5631
237.7503	0.5308
237.966	0.5473
238.1816	0.5447
238.3972	0.5378
238.6128	0.507
238.8284	0.5892
239.0439	0.5624
239.2595	0.5377
239.475	0.5401
239.6906	0.5405
239.9061	0.5222
240.1216	0.522
240.3371	0.5288
240.5526	0.514
240.7681	0.5242
240.9836	0.5016
241.199	0.5069
241.4145	0.5023
241.6299	0.4958
241.8453	0.4961
242.0607	0.4918
242.2761	0.4834
242.4915	0.4522
242.7069	0.4406
242.9223	0.4435
243.1376	0.4282
243.353	0.4351
243.5683	0.4477
243.7836	0.4271
243.9989	0.4331
244.2142	0.4113
244.4295	0.3901
244.6448	0.4078
244.86	0.3871
245.0753	0.3649
245.2905	0.3523
245.5057	0.3545
245.721	0.3655
245.9362	0.3511
246.1514	0.3601
246.3665	0.321
246.5817	0.322
246.7969	0.3304
247.012	0.3164
247.2271	0.3107
247.4423	0.3116
247.6574	0.3069
247.8725	0.2935
248.0876	0.2898
248.3026	0.2986
248.5177	0.2663
248.7328	0.2731
248.9478	0.2666
249.1628	0.2736
249.3779	0.2669
249.5929	0.2615
249.8079	0.2725
250.0228	0.2529
250.2378	0.2477
250.4528	0.246
250.6677	0.2399
250.8827	0.2376
251.0976	0.2343
251.3125	0.242
251.5274	0.2115
251.7423	0.2325
251.9572	0.2215
252.172	0.2193
252.3869	0.2235
252.6017	0.2182
252.8166	0.2047
253.0314	0.1975
253.2462	0.1981
253.461	0.2195
253.6758	0.2104
253.8906	0.205
254.1053	0.2045
254.3201	0.2077
254.5348	0.2068
254.7496	0.2159
254.9643	0.1954
255.179	0.1975
255.3937	0.1895
255.6083	0.2018
255.823	0.1973
256.0377	0.1971
256.2523	0.1957
256.467	0.1795
256.6816	0.2002
256.8962	0.1914
257.1108	0.1797
257.3254	0.2
257.54	0.1834
257.7545	0.1961
257.9691	0.2012
258.1836	0.193
258.3981	0.1916
258.6127	0.188
258.8272	0.1902
259.0417	0.1816
259.2561	0.1956
259.4706	0.1914
259.6851	0.18
259.8995	0.1929
260.114	0.1843
260.3284	0.1875
260.5428	0.1816
260.7572	0.1863
260.9716	0.1947
261.186	0.1879
261.4003	0.1965
261.6147	0.1888
261.829	0.1773
262.0433	0.183
262.2577	0.1903
262.472	0.1774
262.6863	0.1858
262.9005	0.1891
263.1148	0.1901
263.3291	0.1656
263.5433	0.1811
263.7576	0.1863
263.9718	0.1838
264.186	0.1838
264.4002	0.1846
264.6144	0.1867
264.8286	0.2044
265.0427	0.1825
265.2569	0.189
265.471	0.1799
265.6851	0.1807
265.8993	0.1891
266.1134	0.1738
266.3275	0.1862
266.5415	0.1858
266.7556	0.1917
266.9697	0.1904
267.1837	0.1876
267.3978	0.1827
267.6118	0.1879
267.8258	0.1933
268.0398	0.1897
268.2538	0.1873
268.4677	0.1907
268.6817	0.1894
268.8957	0.1834
269.1096	0.1785
269.3235	0.1994
269.5374	0.1823
269.7514	0.1802
269.9652	0.174
270.1791	0.168
270.393	0.1716
270.6068	0.1767
270.8207	0.1761
271.0345	0.1769
271.2483	0.1852
271.4622	0.1847
271.676	0.1834
271.8897	0.1716
272.1035	0.179
272.3173	0.1691
272.531	0.1856
272.7448	0.1812
272.9585	0.1779
273.1722	0.18
273.3859	0.1794
273.5996	0.1717
273.8133	0.1834
274.0269	0.1735
274.2406	0.1742
274.4542	0.167
274.6679	0.1654
274.8815	0.1764
275.0951	0.1803
275.3087	0.1933
275.5223	0.1836
275.7358	0.1717
275.9494	0.174
276.1629	0.1739
276.3765	0.1715
276.59	0.1737
276.8035	0.173
277.017	0.1723
277.2305	0.1804
277.444	0.19
277.6574	0.1636
277.8709	0.1769
278.0843	0.175
278.2978	0.1821
278.5112	0.1789
278.7246	0.1779
278.938	0.1786
279.1513	0.184
279.3647	0.183
279.5781	0.1799
279.7914	0.1738
280.0047	0.1845
280.2181	0.1929
280.4314	0.1905
280.6447	0.1812
280.8579	0.1846
281.0712	0.188
281.2845	0.1848
281.4977	0.1775
281.711	0.1787
281.9242	0.1723
282.1374	0.1815
282.3506	0.1742
282.5638	0.1835
282.7769	0.1841
282.9901	0.1783
283.2033	0.1902
283.4164	0.1829
283.6295	0.1748
283.8426	0.1814
284.0557	0.1903
284.2688	0.1879
284.4819	0.1778
284.695	0.1745
284.908	0.1727
285.1211	0.1771
285.3341	0.1813
285.5471	0.182
285.7601	0.1766
285.9731	0.1782
286.1861	0.1636
286.3991	0.1828
286.612	0.1878
286.825	0.1844
287.0379	0.1832
287.2508	0.1764
287.4637	0.18
287.6766	0.1721
287.8895	0.1826
288.1024	0.193
288.3152	0.1842
288.5281	0.1653
288.7409	0.1819
288.9538	0.1763
289.1666	0.1724
289.3794	0.1738
289.5922	0.1641
289.8049	0.1775
290.0177	0.1759
290.2304	0.171
290.4432	0.1774
290.6559	0.1824
290.8686	0.1811
291.0813	0.172
291.294	0.1649
291.5067	0.1849
291.7194	0.1603
291.932	0.1912
292.1447	0.1644
292.3573	0.1713
292.5699	0.1592
292.7825	0.1734
292.9951	0.1704
293.2077	0.1737
293.4203	0.1775
293.6328	0.1654
293.8454	0.1769
294.0579	0.1625
294.2704	0.1758
294.4829	0.1651
294.6954	0.1757
294.9079	0.1694
295.1204	0.1697
295.3328	0.1671
295.5453	0.1683
295.7577	0.165
295.9701	0.1705
296.1825	0.1699
296.3949	0.1603
296.6073	0.1642
296.8197	0.1497
297.0321	0.1783
297.2444	0.1584
297.4567	0.166
297.6691	0.1724
297.8814	0.1657
298.0937	0.1606
298.306	0.1684
298.5182	0.1593
298.7305	0.1676
298.9428	0.1618
299.155	0.1715
299.3672	0.1604
299.5794	0.1553
299.7916	0.1662
300.0038	0.1704
300.216	0.1588
300.4282	0.1681
300.6403	0.1628
300.8525	0.1713
301.0646	0.1481
301.2767	0.1659
301.4888	0.1606
301.7009	0.1687
301.913	0.1695
302.125	0.1599
302.3371	0.156
302.5491	0.1503
302.7612	0.1647
302.9732	0.1706
303.1852	0.1603
303.3972	0.164
303.6092	0.1574
303.8211	0.1477
304.0331	0.1453
304.245	0.1592
304.457	0.1531
304.6689	0.1505
304.8808	0.1628
305.0927	0.1528
305.3046	0.156
305.5164	0.1621
305.7283	0.1457
305.9401	0.1578
306.152	0.1503
306.3638	0.1635
306.5756	0.1408
306.7874	0.1603
306.9992	0.1555
307.2109	0.1508
307.4227	0.1323
307.6344	0.1439
307.8462	0.1309
308.0579	0.1422
308.2696	0.1351
308.4813	0.1348
308.693	0.1432
308.9046	0.1391
309.1163	0.129
309.328	0.126
309.5396	0.1273
309.7512	0.132
309.9628	0.1351
310.1744	0.1222
310.386	0.1205
310.5976	0.1188
310.8091	0.1293
311.0207	0.122
311.2322	0.1285
311.4437	0.1101
311.6552	0.1174
311.8667	0.1199
312.0782	0.1046
312.2897	0.1135
312.5012	0.1156
312.7126	0.1152
312.924	0.1114
313.1355	0.1248
313.3469	0.1143
313.5583	0.1295
313.7696	0.1076
313.981	0.1141
314.1924	0.1065
314.4037	0.1135
314.6151	0.122
314.8264	0.1015
315.0377	0.1024
315.249	0.1127
315.4603	0.1197
315.6716	0.1109
315.8828	0.1027
316.0941	0.1096
316.3053	0.1077
316.5165	0.1045
316.7277	0.096
316.9389	0.1148
317.1501	0.1032
317.3613	0.1071
317.5724	0.0968
317.7836	0.1018
317.9947	0.0992
318.2058	0.098
318.417	0.091
318.6281	0.0932
318.8391	0.1109
319.0502	0.1089
319.2613	0.1071
319.4723	0.1189
319.6834	0.112
319.8944	0.1075
320.1054	0.1064
320.3164	0.1103
320.5274	0.0998
320.7383	0.1071
320.9493	0.1163
321.1602	0.1102
321.3712	0.1102
321.5821	0.1032
321.793	0.1141
322.0039	0.1098
322.2148	0.0993
322.4257	0.1128
322.6365	0.1147
322.8474	0.1087
323.0582	0.1078
323.269	0.1064
323.4798	0.1124
323.6906	0.1208
323.9014	0.1106
324.1122	0.1204
324.3229	0.1061
324.5337	0.1048
324.7444	0.1008
324.9551	0.1282
325.1658	0.1152
325.3765	0.1165
325.5872	0.1104
325.7979	0.1056
326.0085	0.1178
326.2192	0.1103
326.4298	0.1202
326.6404	0.1047
326.851	0.1107
327.0616	0.0995
327.2722	0.1165
327.4828	0.117
327.6933	0.1084
327.9039	0.1219
328.1144	0.1177
328.3249	0.1134
328.5354	0.1111
328.7459	0.1104
328.9564	0.1024
329.1669	0.1043
329.3773	0.1085
329.5878	0.1134
329.7982	0.1137
330.0086	0.1166
330.219	0.1061
330.4294	0.1191
330.6398	0.1201
330.8502	0.1032
331.0605	0.1243
331.2708	0.1179
331.4812	0.1216
331.6915	0.1097
331.9018	0.1193
332.1121	0.1225
332.3224	0.109
332.5326	0.116
332.7429	0.123
332.9531	0.1221
333.1633	0.1121
333.3735	0.1186
333.5837	0.1107
333.7939	0.1115
334.0041	0.1373
334.2143	0.1201
334.4244	0.1147
334.6346	0.1017
334.8447	0.1393
335.0548	0.1072
335.2649	0.1191
335.475	0.1167
335.685	0.1078
335.8951	0.1209
336.1051	0.1188
336.3152	0.1209
336.5252	0.1071
336.7352	0.1287
336.9452	0.1288
337.1552	0.1275
337.3652	0.1144
337.5751	0.1156
337.7851	0.1285
337.995	0.0998
338.2049	0.1274
338.4148	0.1199
338.6247	0.1335
338.8346	0.1267
339.0445	0.1136
339.2543	0.1228
339.4642	0.1234
339.674	0.1215
339.8838	0.122
340.0936	0.1174
340.3034	0.1397
340.5132	0.1439
340.7229	0.1146
340.9327	0.1122
341.1424	0.1171
341.3522	0.1331
341.5619	0.1293
341.7716	0.1276
341.9813	0.1404
342.1909	0.1286
342.4006	0.1367
342.6102	0.1276
342.8199	0.1347
343.0295	0.1285
343.2391	0.1393
343.4487	0.1252
343.6583	0.1254
343.8679	0.1297
344.0774	0.1353
344.287	0.1448
344.4965	0.1308
344.706	0.1395
344.9155	0.135
345.125	0.1301
345.3345	0.138
345.544	0.1346
345.7534	0.1268
345.9629	0.1257
346.1723	0.1286
346.3817	0.1315
346.5911	0.1269
346.8005	0.1358
347.0099	0.1379
347.2193	0.1475
347.4286	0.1374
347.638	0.131
347.8473	0.1437
348.0566	0.1339
348.2659	0.142
348.4752	0.1431
348.6845	0.1447
348.8937	0.1474
349.103	0.152
349.3122	0.1325
349.5214	0.1361
349.7306	0.1415
349.9398	0.1322
350.149	0.1395
350.3582	0.1271
350.5674	0.1525
350.7765	0.1449
350.9856	0.1391
351.1948	0.1375
351.4039	0.1319
351.613	0.1463
351.822	0.1564
352.0311	0.1469
352.2402	0.1446
352.4492	0.1478
352.6582	0.1485
352.8672	0.1427
353.0762	0.1457
353.2852	0.1421
353.4942	0.1477
353.7032	0.1447
353.9121	0.1415
354.1211	0.155
354.33	0.1458
354.5389	0.151
354.7478	0.1467
354.9567	0.1614
355.1655	0.1524
355.3744	0.1507
355.5833	0.1595
355.7921	0.1748
356.0009	0.1543
356.2097	0.1721
356.4185	0.1633
356.6273	0.1686
356.8361	0.1637
357.0448	0.1431
357.2536	0.1563
357.4623	0.1526
357.671	0.1626
357.8797	0.1747
358.0884	0.1675
358.2971	0.1601
358.5057	0.1627
358.7144	0.1814
358.923	0.1673
359.1316	0.1631
359.3402	0.1689
359.5488	0.1627
359.7574	0.1596
359.966	0.1737
360.1746	0.1642
360.3831	0.1782
360.5916	0.1689
360.8002	0.164
361.0087	0.1816
361.2172	0.1711
361.4256	0.1614
361.6341	0.1795
361.8426	0.1839
362.051	0.1827
362.2594	0.1654
362.4678	0.1723
362.6762	0.201
362.8846	0.1756
363.093	0.1819
363.3014	0.1929
363.5097	0.1639
363.718	0.1879
363.9264	0.1869
364.1347	0.1867
364.343	0.1819
364.5513	0.1895
364.7595	0.1726
364.9678	0.2001
365.176	0.194
365.3842	0.18
365.5925	0.1938
365.8007	0.2035
366.0089	0.1985
366.217	0.1778
366.4252	0.2041
366.6333	0.2022
366.8415	0.1845
367.0496	0.1812
367.2577	0.2011
367.4658	0.2071
367.6739	0.1967
367.882	0.1952
368.09	0.1938
368.2981	0.2107
368.5061	0.1887
368.7141	0.1882
368.9221	0.2096
369.1301	0.1962
369.3381	0.1923
369.5461	0.1976
369.754	0.2066
369.962	0.2214
370.1699	0.2105
370.3778	0.2165
370.5857	0.187
370.7936	0.203
371.0015	0.2036
371.2093	0.2139
371.4172	0.2166
371.625	0.1927
371.8328	0.2
372.0406	0.2239
372.2484	0.2039
372.4562	0.2222
372.664	0.2141
372.8717	0.2188
373.0795	0.1908
373.2872	0.2107
373.4949	0.2112
373.7026	0.2216
373.9103	0.2208
374.118	0.1982
374.3256	0.2228
374.5333	0.2082
374.7409	0.2032
374.9485	0.2183
375.1561	0.2271
375.3637	0.2377
375.5713	0.216
375.7789	0.2191
375.9864	0.2269
376.194	0.202
376.4015	0.2214
376.609	0.2338
376.8165	0.2281
377.024	0.2183
377.2315	0.227
377.4389	0.2212
377.6464	0.2279
377.8538	0.2238
378.0612	0.2214
378.2686	0.2233
378.476	0.2433
378.6834	0.2169
378.8908	0.2391
379.0981	0.2111
379.3055	0.229
379.5128	0.2181
379.7201	0.2314
379.9274	0.1986
380.1347	0.2295
380.342	0.2358
380.5492	0.2309
380.7565	0.2173
380.9637	0.2344
381.1709	0.2158
381.3781	0.2243
381.5853	0.2504
381.7925	0.2398
381.9997	0.2304
382.2068	0.2517
382.4139	0.2459
382.6211	0.2139
382.8282	0.233
383.0353	0.2237
383.2424	0.2363
383.4494	0.2615
383.6565	0.2107
383.8635	0.2466
384.0706	0.2541
384.2776	0.2359
384.4846	0.2189
384.6916	0.2397
384.8986	0.2211
385.1055	0.2334
385.3125	0.2228
385.5194	0.2198
385.7263	0.2455
385.9333	0.2378
386.1402	0.2337
386.347	0.2196
386.5539	0.2166
386.7608	0.233
386.9676	0.2063
387.1744	0.2289
387.3813	0.2281
387.5881	0.2413
387.7948	0.226
388.0016	0.2223
388.2084	0.2229
388.4151	0.2227
388.6219	0.2257
388.8286	0.2113
389.0353	0.2481
389.242	0.2353
389.4487	0.2327
389.6553	0.2226
389.862	0.1789
390.0686	0.203
390.2753	0.2254
390.4819	0.2205
390.6885	0.2296
390.8951	0.2237
391.1016	0.1956
391.3082	0.2213
391.5147	0.2197
391.7213	0.2108
391.9278	0.2072
392.1343	0.2185
392.3408	0.1894
392.5473	0.205
392.7537	0.1919
392.9602	0.2047
393.1666	0.2152
393.373	0.2108
393.5794	0.2241
393.7858	0.2253
393.9922	0.2113
394.1986	0.2087
394.4049	0.2017
394.6113	0.1959
394.8176	0.184
395.0239	0.2024
395.2302	0.1982
395.4365	0.2029
395.6428	0.199
395.8491	0.1814
396.0553	0.1925
396.2615	0.1895
396.4678	0.1952
396.674	0.1723
396.8802	0.1937
397.0863	0.2086
397.2925	0.1958
397.4987	0.193
397.7048	0.1942
397.9109	0.1945
398.117	0.1836
398.3231	0.1955
398.5292	0.1887
398.7353	0.2029
398.9413	0.183
399.1474	0.1957
399.3534	0.1851
399.5594	0.1889
399.7654	0.2044
399.9714	0.2086
400.1774	0.1904
400.3833	0.1744
400.5893	0.1867
400.7952	0.173
401.0011	0.1936
401.207	0.1959
401.4129	0.2044
401.6188	0.1812
401.8247	0.1853
402.0305	0.1754
402.2364	0.1769
402.4422	0.1919
402.648	0.2132
402.8538	0.2104
403.0596	0.187
403.2654	0.1969
403.4711	0.1858
403.6768	0.1848
403.8826	0.2005
404.0883	0.1793
404.294	0.1997
404.4997	0.1812
404.7054	0.1685
404.911	0.1834
405.1167	0.1907
405.3223	0.2088
405.5279	0.2073
405.7335	0.1909
405.9391	0.1916
406.1447	0.1989
406.3502	0.2228
406.5558	0.1892
406.7613	0.1975
406.9668	0.1882
407.1724	0.1725
407.3778	0.1635
407.5833	0.1851
407.7888	0.1685
407.9942	0.2083
408.1997	0.1901
408.4051	0.183
408.6105	0.1896
408.8159	0.182
409.0213	0.1851
409.2267	0.1991
409.432	0.1855
409.6374	0.1867
409.8427	0.1878
410.048	0.1919
410.2533	0.1847
410.4586	0.1871
410.6639	0.1674
410.8691	0.1684
411.0744	0.1921
411.2796	0.1742
411.4848	0.1805
411.69	0.1799
411.8952	0.2221
412.1004	0.178
412.3056	0.186
412.5107	0.1739
412.7158	0.1956
412.921	0.1969
413.1261	0.1836
413.3312	0.1773
413.5362	0.1752
413.7413	0.1722
413.9464	0.1861
414.1514	0.1827
414.3564	0.1798
414.5614	0.1507
414.7664	0.1964
414.9714	0.1901
415.1764	0.1929
415.3813	0.1992
415.5863	0.1812
415.7912	0.1914
415.9961	0.1827
416.201	0.1745
416.4059	0.1812
416.6108	0.1509
416.8156	0.1836
417.0205	0.181
417.2253	0.1834
417.4301	0.1828
417.6349	0.1761
417.8397	0.1644
418.0445	0.1887
418.2492	0.1854
418.454	0.1605
418.6587	0.1769
418.8634	0.1643
419.0681	0.1629
419.2728	0.154
419.4775	0.1696
419.6822	0.161
419.8868	0.1585
420.0915	0.1748
420.2961	0.1634
420.5007	0.1629
420.7053	0.1721
420.9099	0.1644
421.1144	0.163
421.319	0.1522
421.5235	0.1749
421.728	0.1772
421.9325	0.1649
422.137	0.1735
422.3415	0.1622
422.546	0.1676
422.7504	0.1579
422.9549	0.1655
423.1593	0.1547
423.3637	0.171
423.5681	0.1543
423.7725	0.1578
423.9769	0.1473
424.1812	0.1569
424.3856	0.1644
424.5899	0.153
424.7942	0.153
424.9985	0.1605
425.2028	0.1477
425.4071	0.1659
425.6113	0.1427
425.8156	0.1482
426.0198	0.1573
426.224	0.1475
426.4282	0.1319
