Data from MonoPyChalIsomerACN10uM380nmA_Absorbance_13-38-30-449.txt Node
Date: Fri Jul 05 13:38:30 BST 2024
User: LASERRRRR
Spectrometer: FLMT03099
Trigger mode: 0
Integration Time (sec): 1.000000E-1
Scans to average: 1
Electric dark correction enabled: true
Nonlinearity correction enabled: false
Boxcar width: 0
XAxis mode: Wavelengths
Number of Pixels in Spectrum: 3648
>>>>>Begin Spectral Data<<<<<
179.3399	-0.2154
179.5586	-0.2154
179.7771	-0.2154
179.9957	0.2594
180.2143	-0
180.4329	-0.3886
180.6514	-0
180.8699	-0
181.0885	-0.1728
181.307	0.1071
181.5255	-0
181.744	-0
181.9625	-0
182.181	-0.9333
182.3994	-0.0793
182.6179	-0
182.8363	0.1242
183.0547	-0.074
183.2732	-0.1349
183.4916	0.0911
183.71	0.301
183.9284	-0.0061
184.1467	-0.1809
184.3651	-0.047
184.5835	-0.0684
184.8018	0.015
185.0201	0.0604
185.2385	0.1069
185.4568	0.2275
185.6751	0.2468
185.8934	0.1847
186.1117	0.1227
186.3299	-0.0749
186.5482	0.275
186.7664	-0.002
186.9847	0.0214
187.2029	0.0807
187.4211	-0.0013
187.6393	0.1938
187.8575	-0.0419
188.0757	0.1062
188.2939	0.0409
188.512	0.3996
188.7302	-0.036
188.9483	0.4429
189.1665	0.2575
189.3846	-0.2113
189.6027	0.3483
189.8208	0.0996
190.0389	0.0447
190.257	0.1251
190.475	-0.0111
190.6931	0.1902
190.9111	0.2758
191.1292	0.1515
191.3472	0.476
191.5652	0.3319
191.7832	0.1917
192.0012	0.8978
192.2192	0.4446
192.4371	0.5786
192.6551	0.4739
192.873	0.3411
193.091	0.3134
193.3089	0.5184
193.5268	0.3266
193.7447	0.652
193.9626	0.4508
194.1805	1.0092
194.3984	0.739
194.6162	0.4427
194.8341	0.6885
195.0519	0.6201
195.2697	0.9342
195.4875	0.8098
195.7054	0.4776
195.9231	0.6426
196.1409	0.5997
196.3587	0.6283
196.5765	0.7541
196.7942	0.6246
197.012	0.6028
197.2297	0.7662
197.4474	1.0742
197.6651	0.926
197.8828	0.6776
198.1005	0.8257
198.3182	1.0345
198.5358	0.9057
198.7535	0.8973
198.9711	0.689
199.1888	0.8163
199.4064	1.1579
199.624	0.7174
199.8416	0.7523
200.0592	0.7889
200.2767	0.7813
200.4943	0.9279
200.7119	0.9765
200.9294	0.7652
201.1469	0.6709
201.3645	0.7527
201.582	0.6699
201.7995	0.7961
202.017	0.7805
202.2344	0.7215
202.4519	0.9469
202.6694	0.7646
202.8868	0.7178
203.1042	0.9784
203.3217	0.8696
203.5391	0.8252
203.7565	0.773
203.9739	0.8989
204.1913	0.7142
204.4086	0.8446
204.626	0.7975
204.8433	0.7587
205.0607	0.6939
205.278	0.8799
205.4953	0.8102
205.7126	0.7798
205.9299	0.8521
206.1472	0.991
206.3644	0.8829
206.5817	0.9368
206.7989	0.8689
207.0162	0.8475
207.2334	0.8884
207.4506	0.8178
207.6678	0.7931
207.885	0.7825
208.1022	0.8167
208.3194	0.8118
208.5365	0.7743
208.7537	0.8026
208.9708	0.6922
209.1879	0.8082
209.405	0.9037
209.6222	0.9238
209.8392	0.8399
210.0563	0.8209
210.2734	0.9105
210.4905	0.9069
210.7075	0.8239
210.9245	0.7182
211.1416	0.9819
211.3586	0.7513
211.5756	0.7141
211.7926	0.7945
212.0096	0.8162
212.2265	0.7451
212.4435	0.8434
212.6604	0.754
212.8774	0.8469
213.0943	0.8067
213.3112	0.7913
213.5281	0.6903
213.745	0.6863
213.9619	0.6965
214.1788	0.7009
214.3956	0.6519
214.6125	0.6346
214.8293	0.5708
215.0461	0.691
215.2629	0.6514
215.4798	0.6995
215.6965	0.6113
215.9133	0.6806
216.1301	0.658
216.3469	0.7045
216.5636	0.6666
216.7803	0.6438
216.9971	0.6646
217.2138	0.6011
217.4305	0.6334
217.6472	0.5631
217.8639	0.6155
218.0805	0.594
218.2972	0.5955
218.5138	0.5369
218.7305	0.5816
218.9471	0.5727
219.1637	0.5794
219.3803	0.5451
219.5969	0.5337
219.8135	0.5105
220.0301	0.522
220.2466	0.5584
220.4632	0.5546
220.6797	0.5289
220.8962	0.5036
221.1127	0.5575
221.3292	0.5509
221.5457	0.5044
221.7622	0.4827
221.9787	0.5426
222.1951	0.5141
222.4116	0.5331
222.628	0.5084
222.8444	0.5236
223.0608	0.5181
223.2772	0.5061
223.4936	0.5321
223.71	0.5155
223.9264	0.542
224.1427	0.5447
224.3591	0.5328
224.5754	0.5581
224.7917	0.5346
225.008	0.5119
225.2243	0.5073
225.4406	0.5377
225.6569	0.5112
225.8732	0.526
226.0894	0.5339
226.3057	0.533
226.5219	0.5336
226.7381	0.5341
226.9543	0.5363
227.1705	0.5402
227.3867	0.5281
227.6029	0.5711
227.8191	0.5387
228.0352	0.5724
228.2513	0.5501
228.4675	0.5629
228.6836	0.5409
228.8997	0.5427
229.1158	0.5622
229.3319	0.5577
229.548	0.5428
229.764	0.5349
229.9801	0.5919
230.1961	0.5587
230.4121	0.5616
230.6282	0.5334
230.8442	0.5251
231.0602	0.5976
231.2761	0.5413
231.4921	0.5719
231.7081	0.5555
231.924	0.5631
232.14	0.5585
232.3559	0.5294
232.5718	0.585
232.7877	0.5465
233.0036	0.5072
233.2195	0.5766
233.4353	0.5343
233.6512	0.5601
233.867	0.5399
234.0829	0.5586
234.2987	0.5642
234.5145	0.5652
234.7303	0.5521
234.9461	0.5468
235.1619	0.5606
235.3776	0.5483
235.5934	0.5554
235.8091	0.5294
236.0249	0.5681
236.2406	0.5419
236.4563	0.5518
236.672	0.5556
236.8877	0.5404
237.1034	0.5547
237.319	0.5541
237.5347	0.5629
237.7503	0.5395
237.966	0.5446
238.1816	0.5627
238.3972	0.5394
238.6128	0.515
238.8284	0.5328
239.0439	0.5607
239.2595	0.5049
239.475	0.5554
239.6906	0.5157
239.9061	0.5438
240.1216	0.5225
240.3371	0.5383
240.5526	0.4989
240.7681	0.5291
240.9836	0.4837
241.199	0.5025
241.4145	0.4875
241.6299	0.4852
241.8453	0.4733
242.0607	0.4788
242.2761	0.455
242.4915	0.4603
242.7069	0.4506
242.9223	0.4456
243.1376	0.4315
243.353	0.4225
243.5683	0.4464
243.7836	0.3992
243.9989	0.4012
244.2142	0.3747
244.4295	0.4202
244.6448	0.376
244.86	0.3627
245.0753	0.3634
245.2905	0.3481
245.5057	0.3555
245.721	0.3474
245.9362	0.3267
246.1514	0.3358
246.3665	0.305
246.5817	0.3249
246.7969	0.3073
247.012	0.2937
247.2271	0.2998
247.4423	0.2986
247.6574	0.3041
247.8725	0.2912
248.0876	0.279
248.3026	0.276
248.5177	0.2785
248.7328	0.2452
248.9478	0.2518
249.1628	0.2668
249.3779	0.2627
249.5929	0.244
249.8079	0.2745
250.0228	0.2409
250.2378	0.2474
250.4528	0.2545
250.6677	0.2084
250.8827	0.2414
251.0976	0.2328
251.3125	0.2211
251.5274	0.2253
251.7423	0.2271
251.9572	0.2233
252.172	0.2242
252.3869	0.2051
252.6017	0.217
252.8166	0.213
253.0314	0.2049
253.2462	0.1963
253.461	0.2123
253.6758	0.2052
253.8906	0.1947
254.1053	0.1882
254.3201	0.1864
254.5348	0.2131
254.7496	0.2064
254.9643	0.1961
255.179	0.2058
255.3937	0.188
255.6083	0.196
255.823	0.209
256.0377	0.1842
256.2523	0.2041
256.467	0.177
256.6816	0.1985
256.8962	0.188
257.1108	0.1855
257.3254	0.1958
257.54	0.1877
257.7545	0.1886
257.9691	0.1905
258.1836	0.1817
258.3981	0.1915
258.6127	0.1909
258.8272	0.1672
259.0417	0.1892
259.2561	0.1852
259.4706	0.1877
259.6851	0.185
259.8995	0.1856
260.114	0.1919
260.3284	0.1894
260.5428	0.1765
260.7572	0.1912
260.9716	0.1889
261.186	0.1745
261.4003	0.192
261.6147	0.1972
261.829	0.1806
262.0433	0.1877
262.2577	0.1896
262.472	0.1773
262.6863	0.1767
262.9005	0.1825
263.1148	0.1939
263.3291	0.1692
263.5433	0.1742
263.7576	0.1792
263.9718	0.1778
264.186	0.1873
264.4002	0.1815
264.6144	0.1793
264.8286	0.1906
265.0427	0.1837
265.2569	0.1889
265.471	0.1822
265.6851	0.1702
265.8993	0.1875
266.1134	0.1717
266.3275	0.1764
266.5415	0.175
266.7556	0.1712
266.9697	0.1753
267.1837	0.1818
267.3978	0.1875
267.6118	0.1847
267.8258	0.1951
268.0398	0.1696
268.2538	0.1866
268.4677	0.1851
268.6817	0.173
268.8957	0.1957
269.1096	0.1813
269.3235	0.1916
269.5374	0.176
269.7514	0.1784
269.9652	0.1702
270.1791	0.1719
270.393	0.1731
270.6068	0.1789
270.8207	0.1637
271.0345	0.1688
271.2483	0.1726
271.4622	0.1736
271.676	0.1807
271.8897	0.1592
272.1035	0.1678
272.3173	0.1633
272.531	0.1653
272.7448	0.1584
272.9585	0.1533
273.1722	0.1612
273.3859	0.1741
273.5996	0.1575
273.8133	0.1595
274.0269	0.1673
274.2406	0.159
274.4542	0.1652
274.6679	0.1607
274.8815	0.1659
275.0951	0.1614
275.3087	0.1793
275.5223	0.1768
275.7358	0.1598
275.9494	0.1718
276.1629	0.163
276.3765	0.1597
276.59	0.17
276.8035	0.1696
277.017	0.1704
277.2305	0.1601
277.444	0.1698
277.6574	0.1748
277.8709	0.1764
278.0843	0.1626
278.2978	0.1719
278.5112	0.1575
278.7246	0.1603
278.938	0.1751
279.1513	0.1716
279.3647	0.1669
279.5781	0.1708
279.7914	0.1651
280.0047	0.1744
280.2181	0.1674
280.4314	0.1759
280.6447	0.1727
280.8579	0.1788
281.0712	0.176
281.2845	0.1775
281.4977	0.1683
281.711	0.1593
281.9242	0.1654
282.1374	0.1714
282.3506	0.1605
282.5638	0.174
282.7769	0.1726
282.9901	0.1745
283.2033	0.1846
283.4164	0.1812
283.6295	0.1588
283.8426	0.167
284.0557	0.1707
284.2688	0.1872
284.4819	0.1714
284.695	0.1773
284.908	0.1795
285.1211	0.1717
285.3341	0.177
285.5471	0.1703
285.7601	0.1676
285.9731	0.1787
286.1861	0.1811
286.3991	0.1853
286.612	0.1736
286.825	0.1608
287.0379	0.1815
287.2508	0.1698
287.4637	0.1829
287.6766	0.1699
287.8895	0.1794
288.1024	0.1955
288.3152	0.1937
288.5281	0.1652
288.7409	0.1882
288.9538	0.1846
289.1666	0.1726
289.3794	0.1799
289.5922	0.1718
289.8049	0.1815
290.0177	0.1738
290.2304	0.1809
290.4432	0.1765
290.6559	0.1701
290.8686	0.1786
291.0813	0.1798
291.294	0.185
291.5067	0.1822
291.7194	0.1786
291.932	0.1889
292.1447	0.1751
292.3573	0.1628
292.5699	0.1685
292.7825	0.1792
292.9951	0.178
293.2077	0.1761
293.4203	0.18
293.6328	0.1674
293.8454	0.1887
294.0579	0.1624
294.2704	0.1772
294.4829	0.1688
294.6954	0.1811
294.9079	0.1759
295.1204	0.1698
295.3328	0.1778
295.5453	0.1748
295.7577	0.1729
295.9701	0.1777
296.1825	0.1755
296.3949	0.1702
296.6073	0.1701
296.8197	0.171
297.0321	0.183
297.2444	0.1612
297.4567	0.1736
297.6691	0.1791
297.8814	0.1625
298.0937	0.1727
298.306	0.1739
298.5182	0.1707
298.7305	0.176
298.9428	0.1724
299.155	0.1776
299.3672	0.1685
299.5794	0.1685
299.7916	0.1744
300.0038	0.1825
300.216	0.1674
300.4282	0.1694
300.6403	0.1656
300.8525	0.172
301.0646	0.1581
301.2767	0.1746
301.4888	0.1689
301.7009	0.1703
301.913	0.1698
302.125	0.1628
302.3371	0.1672
302.5491	0.1698
302.7612	0.1725
302.9732	0.1725
303.1852	0.1715
303.3972	0.1558
303.6092	0.1681
303.8211	0.1523
304.0331	0.1627
304.245	0.1547
304.457	0.1496
304.6689	0.1599
304.8808	0.1757
305.0927	0.1578
305.3046	0.1599
305.5164	0.1621
305.7283	0.1503
305.9401	0.1549
306.152	0.1534
306.3638	0.1591
306.5756	0.1427
306.7874	0.1547
306.9992	0.1605
307.2109	0.1395
307.4227	0.1378
307.6344	0.152
307.8462	0.1413
308.0579	0.1341
308.2696	0.1495
308.4813	0.1394
308.693	0.127
308.9046	0.1375
309.1163	0.1293
309.328	0.1343
309.5396	0.1288
309.7512	0.1226
309.9628	0.1232
310.1744	0.1269
310.386	0.1234
310.5976	0.1204
310.8091	0.124
311.0207	0.1165
311.2322	0.1196
311.4437	0.1221
311.6552	0.1269
311.8667	0.1234
312.0782	0.1018
312.2897	0.1052
312.5012	0.1218
312.7126	0.1006
312.924	0.1076
313.1355	0.1187
313.3469	0.1028
313.5583	0.105
313.7696	0.122
313.981	0.1052
314.1924	0.1038
314.4037	0.1015
314.6151	0.1112
314.8264	0.0906
315.0377	0.1
315.249	0.1065
315.4603	0.1076
315.6716	0.1065
315.8828	0.0895
316.0941	0.0955
316.3053	0.0967
316.5165	0.0891
316.7277	0.0915
316.9389	0.0951
317.1501	0.0961
317.3613	0.1008
317.5724	0.1011
317.7836	0.1045
317.9947	0.101
318.2058	0.0939
318.417	0.0939
318.6281	0.0921
318.8391	0.095
319.0502	0.0924
319.2613	0.1013
319.4723	0.1068
319.6834	0.1105
319.8944	0.1032
320.1054	0.0993
320.3164	0.0987
320.5274	0.0942
320.7383	0.0989
320.9493	0.0971
321.1602	0.1051
321.3712	0.0974
321.5821	0.1008
321.793	0.1064
322.0039	0.1068
322.2148	0.0954
322.4257	0.0982
322.6365	0.1018
322.8474	0.1082
323.0582	0.0998
323.269	0.1101
323.4798	0.1114
323.6906	0.1057
323.9014	0.0993
324.1122	0.1029
324.3229	0.1003
324.5337	0.1016
324.7444	0.0944
324.9551	0.1067
325.1658	0.1138
325.3765	0.0989
325.5872	0.1091
325.7979	0.1
326.0085	0.1051
326.2192	0.1008
326.4298	0.1063
326.6404	0.0887
326.851	0.0984
327.0616	0.1003
327.2722	0.1052
327.4828	0.1114
327.6933	0.1042
327.9039	0.1079
328.1144	0.1063
328.3249	0.1036
328.5354	0.101
328.7459	0.1095
328.9564	0.1005
329.1669	0.1005
329.3773	0.1102
329.5878	0.0895
329.7982	0.1052
330.0086	0.1049
330.219	0.107
330.4294	0.0931
330.6398	0.105
330.8502	0.0948
331.0605	0.1135
331.2708	0.105
331.4812	0.0977
331.6915	0.1063
331.9018	0.1129
332.1121	0.0947
332.3224	0.1177
332.5326	0.1156
332.7429	0.1099
332.9531	0.1193
333.1633	0.1185
333.3735	0.106
333.5837	0.1078
333.7939	0.1026
334.0041	0.1108
334.2143	0.1087
334.4244	0.112
334.6346	0.0838
334.8447	0.1261
335.0548	0.1043
335.2649	0.1041
335.475	0.1081
335.685	0.1106
335.8951	0.1179
336.1051	0.0983
336.3152	0.1122
336.5252	0.0997
336.7352	0.1213
336.9452	0.1076
337.1552	0.1179
337.3652	0.1008
337.5751	0.1165
337.7851	0.1187
337.995	0.1063
338.2049	0.1211
338.4148	0.115
338.6247	0.1214
338.8346	0.118
339.0445	0.1054
339.2543	0.0988
339.4642	0.1228
339.674	0.1034
339.8838	0.1199
340.0936	0.1161
340.3034	0.1234
340.5132	0.1177
340.7229	0.1117
340.9327	0.1087
341.1424	0.1107
341.3522	0.1229
341.5619	0.1194
341.7716	0.1239
341.9813	0.1054
342.1909	0.1153
342.4006	0.1253
342.6102	0.1276
342.8199	0.1277
343.0295	0.123
343.2391	0.1171
343.4487	0.129
343.6583	0.1195
343.8679	0.1215
344.0774	0.1276
344.287	0.1332
344.4965	0.1191
344.706	0.1264
344.9155	0.1293
345.125	0.1257
345.3345	0.1455
345.544	0.1342
345.7534	0.1346
345.9629	0.1226
346.1723	0.1195
346.3817	0.1191
346.5911	0.1264
346.8005	0.1277
347.0099	0.1326
347.2193	0.14
347.4286	0.1446
347.638	0.1276
347.8473	0.1385
348.0566	0.1351
348.2659	0.141
348.4752	0.1426
348.6845	0.1271
348.8937	0.1237
349.103	0.1345
349.3122	0.1268
349.5214	0.1233
349.7306	0.1398
349.9398	0.1365
350.149	0.1409
350.3582	0.1365
350.5674	0.1691
350.7765	0.1446
350.9856	0.1319
351.1948	0.1412
351.4039	0.1271
351.613	0.129
351.822	0.1403
352.0311	0.1465
352.2402	0.1353
352.4492	0.1495
352.6582	0.1486
352.8672	0.1375
353.0762	0.1502
353.2852	0.1363
353.4942	0.1349
353.7032	0.1577
353.9121	0.1487
354.1211	0.154
354.33	0.1474
354.5389	0.1536
354.7478	0.1447
354.9567	0.1421
355.1655	0.1445
355.3744	0.1523
355.5833	0.1653
355.7921	0.1694
356.0009	0.1476
356.2097	0.165
356.4185	0.166
356.6273	0.1517
356.8361	0.1629
357.0448	0.1517
357.2536	0.1528
357.4623	0.1593
357.671	0.1651
357.8797	0.1547
358.0884	0.1582
358.2971	0.1647
358.5057	0.1613
358.7144	0.1618
358.923	0.1708
359.1316	0.1684
359.3402	0.1671
359.5488	0.1699
359.7574	0.1653
359.966	0.1713
360.1746	0.1752
360.3831	0.1796
360.5916	0.1683
360.8002	0.1609
361.0087	0.1867
361.2172	0.1656
361.4256	0.1697
361.6341	0.1874
361.8426	0.1885
362.051	0.1762
362.2594	0.1824
362.4678	0.1807
362.6762	0.1954
362.8846	0.1893
363.093	0.1702
363.3014	0.1814
363.5097	0.1656
363.718	0.1718
363.9264	0.1713
364.1347	0.1744
364.343	0.2019
364.5513	0.2054
364.7595	0.2025
364.9678	0.1881
365.176	0.1994
365.3842	0.1893
365.5925	0.1958
365.8007	0.21
366.0089	0.2035
366.217	0.1775
366.4252	0.2034
366.6333	0.2056
366.8415	0.1998
367.0496	0.182
367.2577	0.2054
367.4658	0.2164
367.6739	0.1986
367.882	0.2065
368.09	0.2004
368.2981	0.1986
368.5061	0.186
368.7141	0.1998
368.9221	0.2153
369.1301	0.2079
369.3381	0.217
369.5461	0.2249
369.754	0.2086
369.962	0.1978
370.1699	0.2182
370.3778	0.2214
370.5857	0.1979
370.7936	0.2182
371.0015	0.2182
371.2093	0.2245
371.4172	0.238
371.625	0.2159
371.8328	0.2204
372.0406	0.2293
372.2484	0.2269
372.4562	0.2273
372.664	0.2186
372.8717	0.2277
373.0795	0.195
373.2872	0.2256
373.4949	0.2183
373.7026	0.2229
373.9103	0.2228
374.118	0.222
374.3256	0.221
374.5333	0.2099
374.7409	0.2184
374.9485	0.2225
375.1561	0.2255
375.3637	0.245
375.5713	0.2453
375.7789	0.2273
375.9864	0.2374
376.194	0.2169
376.4015	0.2385
376.609	0.2381
376.8165	0.2318
377.024	0.232
377.2315	0.2428
377.4389	0.2383
377.6464	0.2643
377.8538	0.2306
378.0612	0.2371
378.2686	0.2265
378.476	0.2567
378.6834	0.2398
378.8908	0.2507
379.0981	0.2456
379.3055	0.2482
379.5128	0.2366
379.7201	0.2447
379.9274	0.2429
380.1347	0.2471
380.342	0.2551
380.5492	0.2452
380.7565	0.2736
380.9637	0.247
381.1709	0.2543
381.3781	0.2405
381.5853	0.2605
381.7925	0.2642
381.9997	0.2704
382.2068	0.2678
382.4139	0.2589
382.6211	0.2566
382.8282	0.2518
383.0353	0.2559
383.2424	0.2536
383.4494	0.2694
383.6565	0.2526
383.8635	0.259
384.0706	0.263
384.2776	0.2516
384.4846	0.2391
384.6916	0.2656
384.8986	0.2557
385.1055	0.2422
385.3125	0.2573
385.5194	0.2565
385.7263	0.2638
385.9333	0.2551
386.1402	0.2561
386.347	0.2566
386.5539	0.2595
386.7608	0.2674
386.9676	0.2409
387.1744	0.2382
387.3813	0.2481
387.5881	0.2442
387.7948	0.2368
388.0016	0.2663
388.2084	0.2615
388.4151	0.2334
388.6219	0.2551
388.8286	0.2622
389.0353	0.2771
389.242	0.2502
389.4487	0.2275
389.6553	0.2397
389.862	0.2234
390.0686	0.2462
390.2753	0.2336
390.4819	0.2539
390.6885	0.2393
390.8951	0.2346
391.1016	0.2519
391.3082	0.2242
391.5147	0.2407
391.7213	0.2403
391.9278	0.2448
392.1343	0.2252
392.3408	0.2399
392.5473	0.235
392.7537	0.2411
392.9602	0.2292
393.1666	0.2314
393.373	0.2365
393.5794	0.2381
393.7858	0.223
393.9922	0.2196
394.1986	0.2123
394.4049	0.2343
394.6113	0.2176
394.8176	0.2304
395.0239	0.2217
395.2302	0.2149
395.4365	0.2251
395.6428	0.2242
395.8491	0.1999
396.0553	0.2212
396.2615	0.2212
396.4678	0.218
396.674	0.192
396.8802	0.2198
397.0863	0.2222
397.2925	0.2157
397.4987	0.2179
397.7048	0.22
397.9109	0.208
398.117	0.1974
398.3231	0.2099
398.5292	0.2228
398.7353	0.2149
398.9413	0.2085
399.1474	0.2155
399.3534	0.2057
399.5594	0.1962
399.7654	0.2298
399.9714	0.2208
400.1774	0.1989
400.3833	0.2135
400.5893	0.2084
400.7952	0.2174
401.0011	0.2081
401.207	0.2219
401.4129	0.2124
401.6188	0.2075
401.8247	0.2326
402.0305	0.2183
402.2364	0.2007
402.4422	0.2148
402.648	0.2112
402.8538	0.2243
403.0596	0.2044
403.2654	0.2122
403.4711	0.1934
403.6768	0.2206
403.8826	0.2303
404.0883	0.2125
404.294	0.2162
404.4997	0.2105
404.7054	0.2142
404.911	0.2116
405.1167	0.2072
405.3223	0.2148
405.5279	0.2158
405.7335	0.2214
405.9391	0.2231
406.1447	0.2162
406.3502	0.2344
406.5558	0.2061
406.7613	0.2315
406.9668	0.2184
407.1724	0.2019
407.3778	0.1996
407.5833	0.2136
407.7888	0.2149
407.9942	0.2268
408.1997	0.2082
408.4051	0.2181
408.6105	0.2158
408.8159	0.1953
409.0213	0.1993
409.2267	0.2255
409.432	0.1967
409.6374	0.2257
409.8427	0.2129
410.048	0.2044
410.2533	0.2002
410.4586	0.2126
410.6639	0.2045
410.8691	0.1917
411.0744	0.1988
411.2796	0.1821
411.4848	0.2082
411.69	0.2134
411.8952	0.2197
412.1004	0.19
412.3056	0.2078
412.5107	0.1831
412.7158	0.2135
412.921	0.2033
413.1261	0.197
413.3312	0.2014
413.5362	0.223
413.7413	0.2007
413.9464	0.2042
414.1514	0.1869
414.3564	0.2237
414.5614	0.1882
414.7664	0.2089
414.9714	0.2023
415.1764	0.2151
415.3813	0.2128
415.5863	0.2085
415.7912	0.2007
415.9961	0.2047
416.201	0.199
416.4059	0.2252
416.6108	0.2133
416.8156	0.2034
417.0205	0.1771
417.2253	0.1887
417.4301	0.2066
417.6349	0.1855
417.8397	0.1925
418.0445	0.2159
418.2492	0.2061
418.454	0.2087
418.6587	0.1938
418.8634	0.2031
419.0681	0.1877
419.2728	0.1771
419.4775	0.1832
419.6822	0.192
419.8868	0.1896
420.0915	0.2072
420.2961	0.1662
420.5007	0.1857
420.7053	0.1866
420.9099	0.1987
421.1144	0.1887
421.319	0.1948
421.5235	0.1923
421.728	0.1898
421.9325	0.1852
422.137	0.2084
422.3415	0.1844
422.546	0.1957
422.7504	0.1646
422.9549	0.1848
423.1593	0.1851
423.3637	0.1918
423.5681	0.1787
423.7725	0.1625
423.9769	0.1764
424.1812	0.1841
424.3856	0.1836
424.5899	0.187
424.7942	0.1864
424.9985	0.1784
425.2028	0.1809
425.4071	0.1858
425.6113	0.161
425.8156	0.1554
426.0198	0.1819
426.224	0.1607
426.4282	0.1768
