Data from MonoPyChalIsomerACN10uM380nmA_Absorbance_13-38-30-549.txt Node
Date: Fri Jul 05 13:38:30 BST 2024
User: LASERRRRR
Spectrometer: FLMT03099
Trigger mode: 0
Integration Time (sec): 1.000000E-1
Scans to average: 1
Electric dark correction enabled: true
Nonlinearity correction enabled: false
Boxcar width: 0
XAxis mode: Wavelengths
Number of Pixels in Spectrum: 3648
>>>>>Begin Spectral Data<<<<<
179.3399	-0.1695
179.5586	-0.1695
179.7771	-0.1695
179.9957	0.129
180.2143	0.6077
180.4329	-0.1654
180.6514	0.8379
180.8699	-0
181.0885	0.0407
181.307	0.142
181.5255	-0
181.744	-0
181.9625	-0
182.181	-0.6103
182.3994	-0
182.6179	-0
182.8363	-0.0408
183.0547	0.2137
183.2732	-0.0892
183.4916	0.0104
183.71	0.0645
183.9284	0.2385
184.1467	0.0241
184.3651	-0.0262
184.5835	0.0061
184.8018	-0.1261
185.0201	0.2192
185.2385	0.0988
185.4568	0.294
185.6751	0.0446
185.8934	0.231
186.1117	0.0746
186.3299	0.0354
186.5482	0.0439
186.7664	-0.1002
186.9847	-0.0816
187.2029	0.0386
187.4211	0.0734
187.6393	0.1165
187.8575	-0.0379
188.0757	0.3715
188.2939	0.0286
188.512	0.3387
188.7302	0.0933
188.9483	0.0945
189.1665	0.2399
189.3846	0.1945
189.6027	0.1427
189.8208	0.1717
190.0389	0.1251
190.257	0.1086
190.475	0.0462
190.6931	0.3092
190.9111	0.6472
191.1292	0.2604
191.3472	0.3893
191.5652	0.2221
191.7832	0.2618
192.0012	0.367
192.2192	0.2883
192.4371	0.4675
192.6551	0.3456
192.873	0.4931
193.091	0.3497
193.3089	0.5166
193.5268	0.3661
193.7447	0.478
193.9626	0.5471
194.1805	0.562
194.3984	0.659
194.6162	0.4418
194.8341	0.6067
195.0519	0.6282
195.2697	0.7695
195.4875	0.6042
195.7054	0.8148
195.9231	0.5453
196.1409	0.7238
196.3587	0.741
196.5765	0.6328
196.7942	0.6193
197.012	0.7382
197.2297	0.7317
197.4474	1.1092
197.6651	0.6882
197.8828	0.6914
198.1005	0.7368
198.3182	0.7537
198.5358	0.838
198.7535	0.6859
198.9711	0.6381
199.1888	0.7404
199.4064	1.1156
199.624	0.7164
199.8416	0.7278
200.0592	0.9468
200.2767	0.7603
200.4943	0.9054
200.7119	0.9631
200.9294	0.9903
201.1469	0.7858
201.3645	0.8113
201.582	0.7323
201.7995	0.8075
202.017	0.8409
202.2344	0.686
202.4519	0.8057
202.6694	0.7706
202.8868	0.8584
203.1042	1.1278
203.3217	0.8363
203.5391	0.8709
203.7565	0.6985
203.9739	0.7064
204.1913	0.6942
204.4086	0.9196
204.626	1.0409
204.8433	0.8718
205.0607	0.6864
205.278	0.8298
205.4953	0.7307
205.7126	0.92
205.9299	0.9667
206.1472	0.9545
206.3644	0.7391
206.5817	0.8499
206.7989	0.8288
207.0162	0.7406
207.2334	0.9342
207.4506	0.7502
207.6678	0.841
207.885	0.871
208.1022	0.8741
208.3194	0.809
208.5365	0.7457
208.7537	0.7556
208.9708	0.6851
209.1879	0.8338
209.405	0.7733
209.6222	0.8285
209.8392	0.8001
210.0563	0.8065
210.2734	0.8829
210.4905	0.84
210.7075	0.8445
210.9245	0.7131
211.1416	0.8344
211.3586	0.749
211.5756	0.7349
211.7926	0.7705
212.0096	0.8079
212.2265	0.8184
212.4435	0.7695
212.6604	0.8915
212.8774	0.7604
213.0943	0.7596
213.3112	0.7648
213.5281	0.7869
213.745	0.7257
213.9619	0.7076
214.1788	0.7586
214.3956	0.7003
214.6125	0.6812
214.8293	0.6242
215.0461	0.7064
215.2629	0.6737
215.4798	0.7387
215.6965	0.6533
215.9133	0.7098
216.1301	0.6158
216.3469	0.648
216.5636	0.6452
216.7803	0.6298
216.9971	0.6369
217.2138	0.6263
217.4305	0.6503
217.6472	0.5727
217.8639	0.6088
218.0805	0.6076
218.2972	0.5843
218.5138	0.5258
218.7305	0.5749
218.9471	0.5725
219.1637	0.5464
219.3803	0.5119
219.5969	0.5254
219.8135	0.5539
220.0301	0.5556
220.2466	0.5634
220.4632	0.5328
220.6797	0.5288
220.8962	0.5016
221.1127	0.5286
221.3292	0.6036
221.5457	0.5073
221.7622	0.5236
221.9787	0.5539
222.1951	0.4912
222.4116	0.5294
222.628	0.5375
222.8444	0.533
223.0608	0.5266
223.2772	0.5524
223.4936	0.5612
223.71	0.5059
223.9264	0.5818
224.1427	0.5226
224.3591	0.5212
224.5754	0.5422
224.7917	0.5456
225.008	0.5587
225.2243	0.5107
225.4406	0.5473
225.6569	0.5254
225.8732	0.4971
226.0894	0.5252
226.3057	0.5426
226.5219	0.5462
226.7381	0.535
226.9543	0.5277
227.1705	0.5642
227.3867	0.5136
227.6029	0.5164
227.8191	0.5559
228.0352	0.5553
228.2513	0.5476
228.4675	0.5627
228.6836	0.5514
228.8997	0.5193
229.1158	0.5625
229.3319	0.567
229.548	0.5705
229.764	0.5848
229.9801	0.5557
230.1961	0.5557
230.4121	0.5573
230.6282	0.5475
230.8442	0.5528
231.0602	0.5686
231.2761	0.5821
231.4921	0.5595
231.7081	0.5585
231.924	0.542
232.14	0.5658
232.3559	0.541
232.5718	0.5807
232.7877	0.554
233.0036	0.5454
233.2195	0.5584
233.4353	0.5446
233.6512	0.5405
233.867	0.5705
234.0829	0.5538
234.2987	0.5471
234.5145	0.5703
234.7303	0.5574
234.9461	0.5677
235.1619	0.5572
235.3776	0.547
235.5934	0.5454
235.8091	0.5175
236.0249	0.5267
236.2406	0.5314
236.4563	0.5261
236.672	0.5619
236.8877	0.5399
237.1034	0.546
237.319	0.5308
237.5347	0.545
237.7503	0.532
237.966	0.5423
238.1816	0.5478
238.3972	0.5419
238.6128	0.5225
238.8284	0.537
239.0439	0.5273
239.2595	0.5246
239.475	0.5311
239.6906	0.5277
239.9061	0.522
240.1216	0.5143
240.3371	0.5285
240.5526	0.4991
240.7681	0.5327
240.9836	0.4738
241.199	0.4923
241.4145	0.4963
241.6299	0.4956
241.8453	0.4913
242.0607	0.4854
242.2761	0.4429
242.4915	0.4666
242.7069	0.4762
242.9223	0.4307
243.1376	0.4354
243.353	0.432
243.5683	0.4306
243.7836	0.4041
243.9989	0.4034
244.2142	0.3947
244.4295	0.4003
244.6448	0.3752
244.86	0.3675
245.0753	0.3645
245.2905	0.3529
245.5057	0.3543
245.721	0.3593
245.9362	0.3268
246.1514	0.3465
246.3665	0.3248
246.5817	0.3162
246.7969	0.3202
247.012	0.3182
247.2271	0.3015
247.4423	0.3126
247.6574	0.3045
247.8725	0.2874
248.0876	0.2762
248.3026	0.2845
248.5177	0.2762
248.7328	0.2733
248.9478	0.2546
249.1628	0.265
249.3779	0.261
249.5929	0.259
249.8079	0.2532
250.0228	0.2505
250.2378	0.2492
250.4528	0.2495
250.6677	0.2346
250.8827	0.2375
251.0976	0.2299
251.3125	0.2381
251.5274	0.2192
251.7423	0.211
251.9572	0.2373
252.172	0.2166
252.3869	0.2211
252.6017	0.2103
252.8166	0.1952
253.0314	0.2011
253.2462	0.1989
253.461	0.2146
253.6758	0.1952
253.8906	0.2032
254.1053	0.2044
254.3201	0.2077
254.5348	0.202
254.7496	0.211
254.9643	0.1936
255.179	0.1905
255.3937	0.1905
255.6083	0.1973
255.823	0.192
256.0377	0.1839
256.2523	0.1891
256.467	0.1814
256.6816	0.1956
256.8962	0.1991
257.1108	0.1773
257.3254	0.1989
257.54	0.1891
257.7545	0.1913
257.9691	0.2048
258.1836	0.1894
258.3981	0.1997
258.6127	0.2001
258.8272	0.1869
259.0417	0.1865
259.2561	0.1806
259.4706	0.1728
259.6851	0.1828
259.8995	0.1849
260.114	0.1755
260.3284	0.1777
260.5428	0.1828
260.7572	0.1928
260.9716	0.1969
261.186	0.1871
261.4003	0.1881
261.6147	0.1915
261.829	0.1889
262.0433	0.1868
262.2577	0.1778
262.472	0.1885
262.6863	0.1874
262.9005	0.1966
263.1148	0.1883
263.3291	0.1812
263.5433	0.1845
263.7576	0.1828
263.9718	0.184
264.186	0.1717
264.4002	0.1779
264.6144	0.1831
264.8286	0.1859
265.0427	0.1797
265.2569	0.1749
265.471	0.1819
265.6851	0.1808
265.8993	0.1689
266.1134	0.1692
266.3275	0.1691
266.5415	0.1671
266.7556	0.1934
266.9697	0.1768
267.1837	0.1859
267.3978	0.1831
267.6118	0.193
267.8258	0.1974
268.0398	0.1778
268.2538	0.1889
268.4677	0.1838
268.6817	0.1715
268.8957	0.1957
269.1096	0.1798
269.3235	0.1842
269.5374	0.1728
269.7514	0.1771
269.9652	0.1718
270.1791	0.1822
270.393	0.1763
270.6068	0.1791
270.8207	0.1637
271.0345	0.1682
271.2483	0.1798
271.4622	0.1664
271.676	0.1789
271.8897	0.1602
272.1035	0.161
272.3173	0.1629
272.531	0.1617
272.7448	0.1585
272.9585	0.1634
273.1722	0.1723
273.3859	0.1668
273.5996	0.1612
273.8133	0.1715
274.0269	0.1596
274.2406	0.1627
274.4542	0.1633
274.6679	0.1612
274.8815	0.1634
275.0951	0.1722
275.3087	0.1759
275.5223	0.1631
275.7358	0.1814
275.9494	0.1644
276.1629	0.1571
276.3765	0.1586
276.59	0.1609
276.8035	0.1712
277.017	0.163
277.2305	0.1641
277.444	0.1691
277.6574	0.1596
277.8709	0.1754
278.0843	0.1565
278.2978	0.1631
278.5112	0.1659
278.7246	0.1706
278.938	0.1599
279.1513	0.168
279.3647	0.1831
279.5781	0.1657
279.7914	0.1578
280.0047	0.1751
280.2181	0.171
280.4314	0.1757
280.6447	0.1761
280.8579	0.1834
281.0712	0.1713
281.2845	0.1787
281.4977	0.164
281.711	0.1564
281.9242	0.1703
282.1374	0.1761
282.3506	0.1672
282.5638	0.1838
282.7769	0.1775
282.9901	0.1723
283.2033	0.1865
283.4164	0.1828
283.6295	0.1643
283.8426	0.1606
284.0557	0.1634
284.2688	0.1782
284.4819	0.171
284.695	0.1717
284.908	0.1886
285.1211	0.1795
285.3341	0.1715
285.5471	0.1719
285.7601	0.1766
285.9731	0.1708
286.1861	0.17
286.3991	0.1858
286.612	0.179
286.825	0.1786
287.0379	0.1776
287.2508	0.1842
287.4637	0.1924
287.6766	0.1872
287.8895	0.169
288.1024	0.1896
288.3152	0.1772
288.5281	0.1768
288.7409	0.1849
288.9538	0.1813
289.1666	0.1956
289.3794	0.1865
289.5922	0.1688
289.8049	0.1776
290.0177	0.1753
290.2304	0.1845
290.4432	0.1823
290.6559	0.1663
290.8686	0.1793
291.0813	0.1839
291.294	0.1844
291.5067	0.1846
291.7194	0.1796
291.932	0.1859
292.1447	0.1867
292.3573	0.1684
292.5699	0.1777
292.7825	0.1669
292.9951	0.182
293.2077	0.1882
293.4203	0.1759
293.6328	0.169
293.8454	0.1849
294.0579	0.1718
294.2704	0.1763
294.4829	0.1741
294.6954	0.1819
294.9079	0.1761
295.1204	0.1922
295.3328	0.175
295.5453	0.1818
295.7577	0.1846
295.9701	0.1694
296.1825	0.173
296.3949	0.1708
296.6073	0.1702
296.8197	0.1651
297.0321	0.1811
297.2444	0.1689
297.4567	0.1737
297.6691	0.1806
297.8814	0.173
298.0937	0.1664
298.306	0.1698
298.5182	0.1736
298.7305	0.181
298.9428	0.1616
299.155	0.1817
299.3672	0.1714
299.5794	0.1721
299.7916	0.1744
300.0038	0.1725
300.216	0.1729
300.4282	0.1699
300.6403	0.1598
300.8525	0.1665
301.0646	0.1616
301.2767	0.1722
301.4888	0.1685
301.7009	0.1661
301.913	0.1656
302.125	0.1711
302.3371	0.1691
302.5491	0.1662
302.7612	0.1692
302.9732	0.1727
303.1852	0.168
303.3972	0.1732
303.6092	0.1528
303.8211	0.1718
304.0331	0.1592
304.245	0.147
304.457	0.1555
304.6689	0.1597
304.8808	0.1707
305.0927	0.1612
305.3046	0.1607
305.5164	0.1625
305.7283	0.1531
305.9401	0.1464
306.152	0.1482
306.3638	0.1571
306.5756	0.1572
306.7874	0.1502
306.9992	0.1593
307.2109	0.1519
307.4227	0.1341
307.6344	0.1502
307.8462	0.1372
308.0579	0.1463
308.2696	0.1389
308.4813	0.1433
308.693	0.1368
308.9046	0.1446
309.1163	0.1375
309.328	0.1313
309.5396	0.136
309.7512	0.1248
309.9628	0.1222
310.1744	0.1247
310.386	0.1161
310.5976	0.1206
310.8091	0.1154
311.0207	0.119
311.2322	0.1308
311.4437	0.1206
311.6552	0.1097
311.8667	0.1159
312.0782	0.1088
312.2897	0.1185
312.5012	0.1206
312.7126	0.1032
312.924	0.1023
313.1355	0.121
313.3469	0.1101
313.5583	0.1189
313.7696	0.1085
313.981	0.1084
314.1924	0.1035
314.4037	0.0983
314.6151	0.1192
314.8264	0.0989
315.0377	0.108
315.249	0.1155
315.4603	0.1117
315.6716	0.1076
315.8828	0.0938
316.0941	0.1045
316.3053	0.1022
316.5165	0.1019
316.7277	0.095
316.9389	0.1057
317.1501	0.111
317.3613	0.0961
317.5724	0.0915
317.7836	0.1021
317.9947	0.0948
318.2058	0.0983
318.417	0.0931
318.6281	0.0921
318.8391	0.0905
319.0502	0.092
319.2613	0.1047
319.4723	0.1032
319.6834	0.1077
319.8944	0.0974
320.1054	0.1052
320.3164	0.0992
320.5274	0.1078
320.7383	0.0955
320.9493	0.1084
321.1602	0.1068
321.3712	0.0955
321.5821	0.0986
321.793	0.1144
322.0039	0.0933
322.2148	0.0969
322.4257	0.1067
322.6365	0.1044
322.8474	0.1089
323.0582	0.1047
323.269	0.1125
323.4798	0.113
323.6906	0.1087
323.9014	0.1144
324.1122	0.106
324.3229	0.1006
324.5337	0.101
324.7444	0.1027
324.9551	0.1162
325.1658	0.101
325.3765	0.1074
325.5872	0.1053
325.7979	0.091
326.0085	0.0944
326.2192	0.1052
326.4298	0.1195
326.6404	0.0936
326.851	0.1018
327.0616	0.1028
327.2722	0.0929
327.4828	0.1058
327.6933	0.0965
327.9039	0.114
328.1144	0.109
328.3249	0.1043
328.5354	0.0975
328.7459	0.1058
328.9564	0.0998
329.1669	0.1152
329.3773	0.1079
329.5878	0.1071
329.7982	0.1142
330.0086	0.1021
330.219	0.1071
330.4294	0.1081
330.6398	0.0994
330.8502	0.1045
331.0605	0.1016
331.2708	0.1128
331.4812	0.1181
331.6915	0.109
331.9018	0.118
332.1121	0.1012
332.3224	0.1032
332.5326	0.1162
332.7429	0.1085
332.9531	0.1186
333.1633	0.1111
333.3735	0.1017
333.5837	0.1024
333.7939	0.1028
334.0041	0.1118
334.2143	0.1158
334.4244	0.1088
334.6346	0.1087
334.8447	0.12
335.0548	0.1016
335.2649	0.0933
335.475	0.1099
335.685	0.1061
335.8951	0.1076
336.1051	0.1129
336.3152	0.1207
336.5252	0.1158
336.7352	0.1148
336.9452	0.1184
337.1552	0.1102
337.3652	0.1059
337.5751	0.1093
337.7851	0.1113
337.995	0.0952
338.2049	0.1172
338.4148	0.1032
338.6247	0.1109
338.8346	0.1083
339.0445	0.1091
339.2543	0.1137
339.4642	0.1191
339.674	0.1091
339.8838	0.1231
340.0936	0.1219
340.3034	0.1221
340.5132	0.129
340.7229	0.1163
340.9327	0.1244
341.1424	0.1232
341.3522	0.1222
341.5619	0.1116
341.7716	0.1223
341.9813	0.1204
342.1909	0.1134
342.4006	0.1182
342.6102	0.1245
342.8199	0.1229
343.0295	0.1318
343.2391	0.1231
343.4487	0.1277
343.6583	0.1196
343.8679	0.117
344.0774	0.1237
344.287	0.1326
344.4965	0.1274
344.706	0.1178
344.9155	0.1219
345.125	0.1259
345.3345	0.1311
345.544	0.1101
345.7534	0.1249
345.9629	0.1252
346.1723	0.1296
346.3817	0.1169
346.5911	0.1252
346.8005	0.1344
347.0099	0.1211
347.2193	0.128
347.4286	0.1239
347.638	0.1272
347.8473	0.1371
348.0566	0.1289
348.2659	0.1309
348.4752	0.1296
348.6845	0.1319
348.8937	0.1269
349.103	0.1483
349.3122	0.1251
349.5214	0.1413
349.7306	0.1342
349.9398	0.1441
350.149	0.1447
350.3582	0.1318
350.5674	0.1539
350.7765	0.1304
350.9856	0.1358
351.1948	0.1401
351.4039	0.1234
351.613	0.1305
351.822	0.1406
352.0311	0.1491
352.2402	0.1393
352.4492	0.1507
352.6582	0.1363
352.8672	0.1418
353.0762	0.1535
353.2852	0.1577
353.4942	0.1466
353.7032	0.1566
353.9121	0.1423
354.1211	0.1607
354.33	0.1494
354.5389	0.1473
354.7478	0.1575
354.9567	0.1618
355.1655	0.134
355.3744	0.1515
355.5833	0.148
355.7921	0.1609
356.0009	0.1546
356.2097	0.1737
356.4185	0.1721
356.6273	0.1587
356.8361	0.1757
357.0448	0.1546
357.2536	0.1422
357.4623	0.1482
357.671	0.1573
357.8797	0.1703
358.0884	0.1567
358.2971	0.1598
358.5057	0.1644
358.7144	0.1681
358.923	0.1672
359.1316	0.1675
359.3402	0.1648
359.5488	0.1763
359.7574	0.1692
359.966	0.1684
360.1746	0.1861
360.3831	0.1773
360.5916	0.1706
360.8002	0.1626
361.0087	0.1721
361.2172	0.1697
361.4256	0.1673
361.6341	0.1882
361.8426	0.1765
362.051	0.1819
362.2594	0.1802
362.4678	0.1795
362.6762	0.1932
362.8846	0.1966
363.093	0.1748
363.3014	0.1835
363.5097	0.1756
363.718	0.1867
363.9264	0.1937
364.1347	0.1773
364.343	0.1908
364.5513	0.1974
364.7595	0.1918
364.9678	0.2047
365.176	0.1857
365.3842	0.1904
365.5925	0.188
365.8007	0.1854
366.0089	0.1989
366.217	0.1863
366.4252	0.2233
366.6333	0.2233
366.8415	0.2014
367.0496	0.195
367.2577	0.2044
367.4658	0.2151
367.6739	0.2115
367.882	0.2143
368.09	0.1836
368.2981	0.2113
368.5061	0.1874
368.7141	0.2032
368.9221	0.2095
369.1301	0.207
369.3381	0.2063
369.5461	0.1972
369.754	0.2041
369.962	0.2061
370.1699	0.217
370.3778	0.2133
370.5857	0.2055
370.7936	0.2157
371.0015	0.2212
371.2093	0.2276
371.4172	0.2191
371.625	0.2043
371.8328	0.2044
372.0406	0.2044
372.2484	0.2107
372.4562	0.218
372.664	0.2159
372.8717	0.2254
373.0795	0.2093
373.2872	0.2152
373.4949	0.2187
373.7026	0.232
373.9103	0.2371
374.118	0.231
374.3256	0.2404
374.5333	0.2195
374.7409	0.2179
374.9485	0.2459
375.1561	0.2421
375.3637	0.2255
375.5713	0.2285
375.7789	0.2233
375.9864	0.2287
376.194	0.2369
376.4015	0.2369
376.609	0.2396
376.8165	0.251
377.024	0.2196
377.2315	0.2257
377.4389	0.233
377.6464	0.2425
377.8538	0.2433
378.0612	0.2296
378.2686	0.2348
378.476	0.2571
378.6834	0.2406
378.8908	0.2393
379.0981	0.2551
379.3055	0.2382
379.5128	0.2364
379.7201	0.243
379.9274	0.2411
380.1347	0.2405
380.342	0.265
380.5492	0.2396
380.7565	0.2426
380.9637	0.2598
381.1709	0.2345
381.3781	0.2361
381.5853	0.2609
381.7925	0.2741
381.9997	0.2346
382.2068	0.2645
382.4139	0.2356
382.6211	0.2411
382.8282	0.2439
383.0353	0.2519
383.2424	0.2471
383.4494	0.2609
383.6565	0.2372
383.8635	0.2532
384.0706	0.2664
384.2776	0.2657
384.4846	0.261
384.6916	0.2536
384.8986	0.2612
385.1055	0.2573
385.3125	0.2447
385.5194	0.2334
385.7263	0.2451
385.9333	0.2359
386.1402	0.2448
386.347	0.2589
386.5539	0.2453
386.7608	0.2547
386.9676	0.2251
387.1744	0.2511
387.3813	0.2384
387.5881	0.2591
387.7948	0.2457
388.0016	0.2548
388.2084	0.2296
388.4151	0.2417
388.6219	0.2399
388.8286	0.2381
389.0353	0.2702
389.242	0.2617
389.4487	0.2502
389.6553	0.2316
389.862	0.2254
390.0686	0.2422
390.2753	0.2512
390.4819	0.2463
390.6885	0.2368
390.8951	0.2498
391.1016	0.2201
391.3082	0.2284
391.5147	0.2505
391.7213	0.2401
391.9278	0.2179
392.1343	0.2417
392.3408	0.2355
392.5473	0.2369
392.7537	0.2345
392.9602	0.214
393.1666	0.2262
393.373	0.2252
393.5794	0.2504
393.7858	0.2339
393.9922	0.1973
394.1986	0.2352
394.4049	0.2491
394.6113	0.2195
394.8176	0.2075
395.0239	0.2246
395.2302	0.2088
395.4365	0.2193
395.6428	0.2228
395.8491	0.2294
396.0553	0.2214
396.2615	0.2009
396.4678	0.2242
396.674	0.1841
396.8802	0.2229
397.0863	0.2345
397.2925	0.2045
397.4987	0.1933
397.7048	0.2191
397.9109	0.2094
398.117	0.1974
398.3231	0.1884
398.5292	0.2177
398.7353	0.2246
398.9413	0.2035
399.1474	0.2054
399.3534	0.2124
399.5594	0.1885
399.7654	0.2187
399.9714	0.2353
400.1774	0.2034
400.3833	0.2021
400.5893	0.2105
400.7952	0.2134
401.0011	0.2101
401.207	0.22
401.4129	0.1998
401.6188	0.1955
401.8247	0.1941
402.0305	0.1905
402.2364	0.2105
402.4422	0.2177
402.648	0.2203
402.8538	0.2212
403.0596	0.2182
403.2654	0.2108
403.4711	0.2037
403.6768	0.2194
403.8826	0.2168
404.0883	0.2187
404.294	0.2058
404.4997	0.2165
404.7054	0.2195
404.911	0.2057
405.1167	0.224
405.3223	0.2332
405.5279	0.2227
405.7335	0.2064
405.9391	0.2184
406.1447	0.2008
406.3502	0.2451
406.5558	0.196
406.7613	0.2158
406.9668	0.2143
407.1724	0.2014
407.3778	0.2008
407.5833	0.2079
407.7888	0.2098
407.9942	0.2201
408.1997	0.206
408.4051	0.2131
408.6105	0.2098
408.8159	0.209
409.0213	0.1983
409.2267	0.2199
409.432	0.2053
409.6374	0.2144
409.8427	0.2134
410.048	0.2117
410.2533	0.2127
410.4586	0.2071
410.6639	0.1867
410.8691	0.2273
411.0744	0.219
411.2796	0.2004
411.4848	0.1956
411.69	0.1933
411.8952	0.2109
412.1004	0.1936
412.3056	0.2207
412.5107	0.2074
412.7158	0.2301
412.921	0.1986
413.1261	0.196
413.3312	0.2241
413.5362	0.1873
413.7413	0.1898
413.9464	0.1897
414.1514	0.2184
414.3564	0.2058
414.5614	0.183
414.7664	0.2201
414.9714	0.2103
415.1764	0.2277
415.3813	0.2203
415.5863	0.1916
415.7912	0.2113
415.9961	0.209
416.201	0.1994
416.4059	0.2041
416.6108	0.1959
416.8156	0.2036
417.0205	0.2031
417.2253	0.1966
417.4301	0.1958
417.6349	0.1949
417.8397	0.1972
418.0445	0.2027
418.2492	0.1946
418.454	0.1771
418.6587	0.1831
418.8634	0.2138
419.0681	0.1705
419.2728	0.2093
419.4775	0.1917
419.6822	0.1937
419.8868	0.1752
420.0915	0.2016
420.2961	0.1714
420.5007	0.206
420.7053	0.1859
420.9099	0.1911
421.1144	0.1799
421.319	0.182
421.5235	0.1947
421.728	0.1797
421.9325	0.1924
422.137	0.2101
422.3415	0.1932
422.546	0.1908
422.7504	0.1714
422.9549	0.1944
423.1593	0.181
423.3637	0.2009
423.5681	0.1871
423.7725	0.1762
423.9769	0.1703
424.1812	0.1729
424.3856	0.1938
424.5899	0.1787
424.7942	0.1616
424.9985	0.1624
425.2028	0.1522
425.4071	0.1849
425.6113	0.1717
425.8156	0.1877
426.0198	0.1858
426.224	0.1674
426.4282	0.1631
