Data from MonoPyChalIsomerACN10uM380nmA_Absorbance_13-38-29-549.txt Node
Date: Fri Jul 05 13:38:29 BST 2024
User: LASERRRRR
Spectrometer: FLMT03099
Trigger mode: 0
Integration Time (sec): 1.000000E-1
Scans to average: 1
Electric dark correction enabled: true
Nonlinearity correction enabled: false
Boxcar width: 0
XAxis mode: Wavelengths
Number of Pixels in Spectrum: 3648
>>>>>Begin Spectral Data<<<<<
179.3399	-0.3328
179.5586	-0.3328
179.7771	-0.3328
179.9957	0.0186
180.2143	-0
180.4329	-0.2467
180.6514	-0
180.8699	-0
181.0885	-0.1935
181.307	0.2828
181.5255	-0
181.744	-0.4573
181.9625	0.3217
182.181	-0.7582
182.3994	-0
182.6179	-0.0696
182.8363	0.1952
183.0547	-0.211
183.2732	0.0323
183.4916	0.0976
183.71	0.1516
183.9284	0.1656
184.1467	-0.0935
184.3651	-0.1315
184.5835	0.1416
184.8018	0.0595
185.0201	-0.0155
185.2385	0.0645
185.4568	0.2707
185.6751	0.2695
185.8934	0.6469
186.1117	0.022
186.3299	0.0177
186.5482	0.2518
186.7664	0.1247
186.9847	0.0841
187.2029	0.1098
187.4211	0.1311
187.6393	0.2036
187.8575	0.1448
188.0757	0.41
188.2939	0.2213
188.512	-0.0885
188.7302	-0.0186
188.9483	-0.0929
189.1665	0.151
189.3846	-0
189.6027	0.2919
189.8208	0.1776
190.0389	0.1114
190.257	0.1218
190.475	0.1601
190.6931	0.6445
190.9111	0.4408
191.1292	0.1294
191.3472	0.5545
191.5652	0.6086
191.7832	0.427
192.0012	0.434
192.2192	0.4266
192.4371	0.6236
192.6551	0.5712
192.873	0.5043
193.091	0.4278
193.3089	0.4079
193.5268	0.5963
193.7447	0.6586
193.9626	0.5334
194.1805	0.7953
194.3984	0.7623
194.6162	0.5629
194.8341	0.7463
195.0519	0.6208
195.2697	0.9042
195.4875	0.5355
195.7054	0.6425
195.9231	0.6761
196.1409	0.9703
196.3587	0.7212
196.5765	0.7204
196.7942	0.8134
197.012	0.6927
197.2297	0.7614
197.4474	1.3845
197.6651	0.699
197.8828	0.6674
198.1005	0.7242
198.3182	0.6497
198.5358	0.9189
198.7535	0.7149
198.9711	0.6929
199.1888	0.7779
199.4064	1.0029
199.624	0.8178
199.8416	0.8044
200.0592	0.9184
200.2767	0.9762
200.4943	0.9513
200.7119	0.9962
200.9294	0.9867
201.1469	0.7509
201.3645	0.6361
201.582	0.7337
201.7995	0.9308
202.017	0.748
202.2344	0.719
202.4519	0.9899
202.6694	0.9254
202.8868	0.7595
203.1042	1.0362
203.3217	0.9239
203.5391	0.7543
203.7565	0.6774
203.9739	0.8552
204.1913	0.7453
204.4086	0.6862
204.626	0.9425
204.8433	0.7808
205.0607	0.8119
205.278	0.744
205.4953	0.7723
205.7126	0.8549
205.9299	0.9316
206.1472	0.855
206.3644	0.7498
206.5817	0.96
206.7989	0.9794
207.0162	0.7458
207.2334	0.7854
207.4506	0.8208
207.6678	0.8033
207.885	0.8432
208.1022	0.7614
208.3194	0.8122
208.5365	0.8448
208.7537	0.8097
208.9708	0.7784
209.1879	0.8735
209.405	1.095
209.6222	0.9467
209.8392	0.8862
210.0563	0.8074
210.2734	0.8587
210.4905	0.7488
210.7075	0.7931
210.9245	0.6865
211.1416	0.9857
211.3586	0.9072
211.5756	0.8163
211.7926	0.8339
212.0096	0.8126
212.2265	0.7029
212.4435	0.8583
212.6604	0.9812
212.8774	0.7595
213.0943	0.7949
213.3112	0.7392
213.5281	0.7548
213.745	0.7012
213.9619	0.7508
214.1788	0.6865
214.3956	0.7653
214.6125	0.6735
214.8293	0.6859
215.0461	0.6861
215.2629	0.6895
215.4798	0.6985
215.6965	0.5792
215.9133	0.7027
216.1301	0.6346
216.3469	0.6712
216.5636	0.6157
216.7803	0.6549
216.9971	0.6363
217.2138	0.607
217.4305	0.6103
217.6472	0.5934
217.8639	0.6614
218.0805	0.6272
218.2972	0.5682
218.5138	0.5898
218.7305	0.6052
218.9471	0.5843
219.1637	0.5931
219.3803	0.5792
219.5969	0.538
219.8135	0.5291
220.0301	0.5623
220.2466	0.5951
220.4632	0.5277
220.6797	0.4688
220.8962	0.515
221.1127	0.5347
221.3292	0.5615
221.5457	0.5291
221.7622	0.5387
221.9787	0.5346
222.1951	0.5032
222.4116	0.518
222.628	0.522
222.8444	0.5517
223.0608	0.5321
223.2772	0.5225
223.4936	0.5311
223.71	0.5304
223.9264	0.5141
224.1427	0.509
224.3591	0.4819
224.5754	0.557
224.7917	0.5403
225.008	0.572
225.2243	0.495
225.4406	0.5541
225.6569	0.5098
225.8732	0.5302
226.0894	0.5151
226.3057	0.5495
226.5219	0.5459
226.7381	0.5264
226.9543	0.5048
227.1705	0.5485
227.3867	0.5163
227.6029	0.5626
227.8191	0.5521
228.0352	0.5621
228.2513	0.5525
228.4675	0.5585
228.6836	0.5343
228.8997	0.5062
229.1158	0.5473
229.3319	0.5912
229.548	0.5668
229.764	0.5523
229.9801	0.5888
230.1961	0.5651
230.4121	0.5612
230.6282	0.5538
230.8442	0.5563
231.0602	0.5919
231.2761	0.5794
231.4921	0.557
231.7081	0.5738
231.924	0.5664
232.14	0.562
232.3559	0.546
232.5718	0.5841
232.7877	0.5755
233.0036	0.5443
233.2195	0.5577
233.4353	0.5439
233.6512	0.5593
233.867	0.5549
234.0829	0.5394
234.2987	0.553
234.5145	0.5469
234.7303	0.5401
234.9461	0.5788
235.1619	0.5619
235.3776	0.5633
235.5934	0.5476
235.8091	0.5173
236.0249	0.5238
236.2406	0.5457
236.4563	0.53
236.672	0.5529
236.8877	0.5584
237.1034	0.5217
237.319	0.5427
237.5347	0.5707
237.7503	0.5422
237.966	0.5557
238.1816	0.5585
238.3972	0.5313
238.6128	0.5261
238.8284	0.5488
239.0439	0.5454
239.2595	0.5233
239.475	0.5135
239.6906	0.5403
239.9061	0.5084
240.1216	0.5266
240.3371	0.5286
240.5526	0.497
240.7681	0.5218
240.9836	0.4963
241.199	0.4936
241.4145	0.4951
241.6299	0.4833
241.8453	0.4789
242.0607	0.4843
242.2761	0.454
242.4915	0.4555
242.7069	0.4547
242.9223	0.4384
243.1376	0.4208
243.353	0.4196
243.5683	0.4216
243.7836	0.3983
243.9989	0.3983
244.2142	0.3806
244.4295	0.3898
244.6448	0.3877
244.86	0.3742
245.0753	0.3701
245.2905	0.3492
245.5057	0.3392
245.721	0.3426
245.9362	0.3311
246.1514	0.3409
246.3665	0.3213
246.5817	0.3149
246.7969	0.3154
247.012	0.3031
247.2271	0.2961
247.4423	0.2938
247.6574	0.298
247.8725	0.2951
248.0876	0.2868
248.3026	0.2818
248.5177	0.2827
248.7328	0.2619
248.9478	0.2557
249.1628	0.2513
249.3779	0.265
249.5929	0.2448
249.8079	0.2646
250.0228	0.2322
250.2378	0.2357
250.4528	0.2573
250.6677	0.2283
250.8827	0.2349
251.0976	0.2254
251.3125	0.2358
251.5274	0.2186
251.7423	0.2189
251.9572	0.216
252.172	0.2268
252.3869	0.2116
252.6017	0.2178
252.8166	0.2099
253.0314	0.1952
253.2462	0.2041
253.461	0.2099
253.6758	0.2057
253.8906	0.208
254.1053	0.1975
254.3201	0.2039
254.5348	0.2081
254.7496	0.2018
254.9643	0.1888
255.179	0.1927
255.3937	0.1903
255.6083	0.1934
255.823	0.2095
256.0377	0.1953
256.2523	0.1976
256.467	0.1732
256.6816	0.2039
256.8962	0.1932
257.1108	0.185
257.3254	0.191
257.54	0.1774
257.7545	0.2001
257.9691	0.1949
258.1836	0.1872
258.3981	0.2035
258.6127	0.2111
258.8272	0.1962
259.0417	0.1888
259.2561	0.1826
259.4706	0.1702
259.6851	0.1912
259.8995	0.1865
260.114	0.1854
260.3284	0.1859
260.5428	0.1714
260.7572	0.1863
260.9716	0.1921
261.186	0.1807
261.4003	0.1847
261.6147	0.1932
261.829	0.1808
262.0433	0.1949
262.2577	0.1839
262.472	0.188
262.6863	0.1836
262.9005	0.1849
263.1148	0.1906
263.3291	0.1697
263.5433	0.1865
263.7576	0.1755
263.9718	0.1832
264.186	0.177
264.4002	0.1719
264.6144	0.1724
264.8286	0.1907
265.0427	0.1855
265.2569	0.1915
265.471	0.1735
265.6851	0.18
265.8993	0.1865
266.1134	0.1761
266.3275	0.174
266.5415	0.1799
266.7556	0.1829
266.9697	0.1893
267.1837	0.1742
267.3978	0.1866
267.6118	0.1826
267.8258	0.189
268.0398	0.1784
268.2538	0.184
268.4677	0.1847
268.6817	0.1731
268.8957	0.1769
269.1096	0.1876
269.3235	0.1917
269.5374	0.17
269.7514	0.1766
269.9652	0.1678
270.1791	0.1754
270.393	0.1637
270.6068	0.1751
270.8207	0.1704
271.0345	0.1634
271.2483	0.1656
271.4622	0.1651
271.676	0.1626
271.8897	0.1554
272.1035	0.1552
272.3173	0.1596
272.531	0.1639
272.7448	0.1734
272.9585	0.1446
273.1722	0.1699
273.3859	0.1692
273.5996	0.1479
273.8133	0.1672
274.0269	0.1574
274.2406	0.1639
274.4542	0.1605
274.6679	0.1607
274.8815	0.1622
275.0951	0.1688
275.3087	0.1652
275.5223	0.1721
275.7358	0.1752
275.9494	0.1601
276.1629	0.1524
276.3765	0.1539
276.59	0.1702
276.8035	0.1651
277.017	0.1728
277.2305	0.1529
277.444	0.159
277.6574	0.1547
277.8709	0.1673
278.0843	0.1583
278.2978	0.1637
278.5112	0.1622
278.7246	0.1782
278.938	0.1709
279.1513	0.1622
279.3647	0.1712
279.5781	0.1604
279.7914	0.1604
280.0047	0.1792
280.2181	0.1646
280.4314	0.1718
280.6447	0.1696
280.8579	0.1668
281.0712	0.1716
281.2845	0.175
281.4977	0.1744
281.711	0.1602
281.9242	0.1698
282.1374	0.1785
282.3506	0.1613
282.5638	0.1674
282.7769	0.1726
282.9901	0.1634
283.2033	0.1828
283.4164	0.1785
283.6295	0.1624
283.8426	0.1697
284.0557	0.1745
284.2688	0.1811
284.4819	0.1773
284.695	0.1687
284.908	0.179
285.1211	0.1756
285.3341	0.1737
285.5471	0.1815
285.7601	0.1759
285.9731	0.1683
286.1861	0.1701
286.3991	0.1827
286.612	0.1807
286.825	0.1816
287.0379	0.1837
287.2508	0.168
287.4637	0.1884
287.6766	0.1686
287.8895	0.1834
288.1024	0.1812
288.3152	0.1916
288.5281	0.1618
288.7409	0.1866
288.9538	0.1775
289.1666	0.1768
289.3794	0.1763
289.5922	0.189
289.8049	0.1804
290.0177	0.1737
290.2304	0.1848
290.4432	0.1935
290.6559	0.1864
290.8686	0.1936
291.0813	0.1842
291.294	0.1834
291.5067	0.1981
291.7194	0.1823
291.932	0.1887
292.1447	0.19
292.3573	0.1723
292.5699	0.1867
292.7825	0.1803
292.9951	0.1783
293.2077	0.1875
293.4203	0.1775
293.6328	0.1677
293.8454	0.1937
294.0579	0.1847
294.2704	0.1981
294.4829	0.1697
294.6954	0.1816
294.9079	0.1868
295.1204	0.1754
295.3328	0.1655
295.5453	0.1759
295.7577	0.1813
295.9701	0.1723
296.1825	0.1757
296.3949	0.1767
296.6073	0.1799
296.8197	0.1645
297.0321	0.1976
297.2444	0.1575
297.4567	0.1834
297.6691	0.1872
297.8814	0.166
298.0937	0.1794
298.306	0.1841
298.5182	0.1727
298.7305	0.1931
298.9428	0.1794
299.155	0.1753
299.3672	0.1799
299.5794	0.173
299.7916	0.1722
300.0038	0.1807
300.216	0.1784
300.4282	0.1822
300.6403	0.1709
300.8525	0.1664
301.0646	0.172
301.2767	0.1755
301.4888	0.1762
301.7009	0.1742
301.913	0.1704
302.125	0.1869
302.3371	0.1722
302.5491	0.1651
302.7612	0.1718
302.9732	0.1719
303.1852	0.1807
303.3972	0.1698
303.6092	0.172
303.8211	0.1624
304.0331	0.1673
304.245	0.1604
304.457	0.154
304.6689	0.1588
304.8808	0.1718
305.0927	0.1616
305.3046	0.1622
305.5164	0.1709
305.7283	0.1536
305.9401	0.1624
306.152	0.1562
306.3638	0.1577
306.5756	0.1594
306.7874	0.1598
306.9992	0.1619
307.2109	0.1555
307.4227	0.1372
307.6344	0.1433
307.8462	0.1435
308.0579	0.1466
308.2696	0.1416
308.4813	0.1366
308.693	0.1329
308.9046	0.1516
309.1163	0.1332
309.328	0.1346
309.5396	0.1229
309.7512	0.1218
309.9628	0.1238
310.1744	0.1235
310.386	0.1275
310.5976	0.1211
310.8091	0.128
311.0207	0.1189
311.2322	0.1268
311.4437	0.117
311.6552	0.1077
311.8667	0.1248
312.0782	0.0957
312.2897	0.1078
312.5012	0.1202
312.7126	0.1114
312.924	0.1038
313.1355	0.1193
313.3469	0.1187
313.5583	0.116
313.7696	0.1077
313.981	0.1128
314.1924	0.105
314.4037	0.1045
314.6151	0.1135
314.8264	0.1032
315.0377	0.0952
315.249	0.1108
315.4603	0.1156
315.6716	0.1076
315.8828	0.0897
316.0941	0.1039
316.3053	0.0998
316.5165	0.0982
316.7277	0.0901
316.9389	0.1082
317.1501	0.0987
317.3613	0.0979
317.5724	0.0848
317.7836	0.1148
317.9947	0.1036
318.2058	0.0932
318.417	0.0925
318.6281	0.0852
318.8391	0.0919
319.0502	0.0936
319.2613	0.0958
319.4723	0.1049
319.6834	0.1004
319.8944	0.0965
320.1054	0.1014
320.3164	0.0968
320.5274	0.0965
320.7383	0.0952
320.9493	0.0866
321.1602	0.1015
321.3712	0.0845
321.5821	0.0986
321.793	0.0921
322.0039	0.0922
322.2148	0.0984
322.4257	0.1045
322.6365	0.1097
322.8474	0.1016
323.0582	0.0964
323.269	0.1004
323.4798	0.095
323.6906	0.0997
323.9014	0.0955
324.1122	0.1098
324.3229	0.0945
324.5337	0.0977
324.7444	0.0911
324.9551	0.1182
325.1658	0.1061
325.3765	0.1034
325.5872	0.1027
325.7979	0.085
326.0085	0.1006
326.2192	0.1086
326.4298	0.1013
326.6404	0.0838
326.851	0.1066
327.0616	0.1011
327.2722	0.0991
327.4828	0.1088
327.6933	0.1115
327.9039	0.1071
328.1144	0.1043
328.3249	0.1014
328.5354	0.0975
328.7459	0.1033
328.9564	0.1008
329.1669	0.0999
329.3773	0.0985
329.5878	0.1013
329.7982	0.1027
330.0086	0.1054
330.219	0.0984
330.4294	0.1082
330.6398	0.1093
330.8502	0.0924
331.0605	0.1064
331.2708	0.1084
331.4812	0.1128
331.6915	0.1071
331.9018	0.1112
332.1121	0.0974
332.3224	0.103
332.5326	0.0999
332.7429	0.0941
332.9531	0.1197
333.1633	0.1025
333.3735	0.1042
333.5837	0.1017
333.7939	0.1029
334.0041	0.12
334.2143	0.1179
334.4244	0.102
334.6346	0.0941
334.8447	0.1273
335.0548	0.1022
335.2649	0.0989
335.475	0.1097
335.685	0.0955
335.8951	0.1276
336.1051	0.1049
336.3152	0.1019
336.5252	0.0983
336.7352	0.1134
336.9452	0.1159
337.1552	0.1222
337.3652	0.0952
337.5751	0.1028
337.7851	0.1036
337.995	0.1044
338.2049	0.1043
338.4148	0.1203
338.6247	0.1258
338.8346	0.113
339.0445	0.114
339.2543	0.1087
339.4642	0.1074
339.674	0.0976
339.8838	0.1172
340.0936	0.111
340.3034	0.1136
340.5132	0.1125
340.7229	0.1205
340.9327	0.1103
341.1424	0.1018
341.3522	0.1299
341.5619	0.1206
341.7716	0.1202
341.9813	0.112
342.1909	0.1171
342.4006	0.1263
342.6102	0.1158
342.8199	0.1175
343.0295	0.1223
343.2391	0.1199
343.4487	0.1198
343.6583	0.1131
343.8679	0.1249
344.0774	0.1307
344.287	0.1215
344.4965	0.1147
344.706	0.1313
344.9155	0.122
345.125	0.1191
345.3345	0.1321
345.544	0.125
345.7534	0.1307
345.9629	0.1145
346.1723	0.1301
346.3817	0.1247
346.5911	0.1361
346.8005	0.1279
347.0099	0.1138
347.2193	0.1281
347.4286	0.1194
347.638	0.1413
347.8473	0.1289
348.0566	0.1457
348.2659	0.1407
348.4752	0.127
348.6845	0.1195
348.8937	0.1322
349.103	0.1506
349.3122	0.1299
349.5214	0.1302
349.7306	0.1389
349.9398	0.1286
350.149	0.1415
350.3582	0.1375
350.5674	0.1564
350.7765	0.1319
350.9856	0.136
351.1948	0.146
351.4039	0.119
351.613	0.1361
351.822	0.1474
352.0311	0.1408
352.2402	0.142
352.4492	0.1596
352.6582	0.1398
352.8672	0.1435
353.0762	0.1325
353.2852	0.1466
353.4942	0.1308
353.7032	0.1527
353.9121	0.1357
354.1211	0.1537
354.33	0.149
354.5389	0.1563
354.7478	0.1495
354.9567	0.1312
355.1655	0.1502
355.3744	0.1552
355.5833	0.1535
355.7921	0.17
356.0009	0.147
356.2097	0.1732
356.4185	0.1662
356.6273	0.1542
356.8361	0.1652
357.0448	0.1422
357.2536	0.1523
357.4623	0.1542
357.671	0.1658
357.8797	0.1675
358.0884	0.1432
358.2971	0.1556
358.5057	0.155
358.7144	0.153
358.923	0.165
359.1316	0.1642
359.3402	0.1618
359.5488	0.1785
359.7574	0.1574
359.966	0.1729
360.1746	0.1803
360.3831	0.174
360.5916	0.1736
360.8002	0.1632
361.0087	0.1901
361.2172	0.1775
361.4256	0.17
361.6341	0.1761
361.8426	0.1805
362.051	0.168
362.2594	0.1705
362.4678	0.1734
362.6762	0.1968
362.8846	0.2038
363.093	0.1851
363.3014	0.1902
363.5097	0.1803
363.718	0.1796
363.9264	0.1828
364.1347	0.1851
364.343	0.2055
364.5513	0.2027
364.7595	0.1999
364.9678	0.1879
365.176	0.1912
365.3842	0.1973
365.5925	0.1945
365.8007	0.1825
366.0089	0.1986
366.217	0.192
366.4252	0.2111
366.6333	0.2104
366.8415	0.2028
367.0496	0.1932
367.2577	0.2127
367.4658	0.218
367.6739	0.2033
367.882	0.2219
368.09	0.2018
368.2981	0.2064
368.5061	0.205
368.7141	0.2062
368.9221	0.2163
369.1301	0.204
369.3381	0.2137
369.5461	0.2068
369.754	0.2131
369.962	0.23
370.1699	0.2229
370.3778	0.2375
370.5857	0.2094
370.7936	0.2242
371.0015	0.2234
371.2093	0.2279
371.4172	0.2309
371.625	0.2174
371.8328	0.2202
372.0406	0.2186
372.2484	0.2142
372.4562	0.2228
372.664	0.2255
372.8717	0.2429
373.0795	0.213
373.2872	0.2355
373.4949	0.2359
373.7026	0.2248
373.9103	0.2412
374.118	0.246
374.3256	0.2342
374.5333	0.2262
374.7409	0.2231
374.9485	0.2557
375.1561	0.2361
375.3637	0.2406
375.5713	0.2388
375.7789	0.249
375.9864	0.2478
376.194	0.2251
376.4015	0.2381
376.609	0.2605
376.8165	0.2293
377.024	0.2398
377.2315	0.2366
377.4389	0.242
377.6464	0.253
377.8538	0.2552
378.0612	0.2548
378.2686	0.255
378.476	0.2687
378.6834	0.2469
378.8908	0.2764
379.0981	0.2518
379.3055	0.2455
379.5128	0.2594
379.7201	0.2567
379.9274	0.2507
380.1347	0.2502
380.342	0.28
380.5492	0.2499
380.7565	0.2541
380.9637	0.2578
381.1709	0.2497
381.3781	0.256
381.5853	0.2673
381.7925	0.2573
381.9997	0.2853
382.2068	0.2603
382.4139	0.2688
382.6211	0.2421
382.8282	0.2628
383.0353	0.2555
383.2424	0.2555
383.4494	0.2929
383.6565	0.2565
383.8635	0.261
384.0706	0.2545
384.2776	0.2915
384.4846	0.2477
384.6916	0.2597
384.8986	0.2712
385.1055	0.2693
385.3125	0.2657
385.5194	0.2502
385.7263	0.278
385.9333	0.2709
386.1402	0.272
386.347	0.2659
386.5539	0.2623
386.7608	0.2865
386.9676	0.2414
387.1744	0.2462
387.3813	0.2506
387.5881	0.2698
387.7948	0.2638
388.0016	0.2608
388.2084	0.2681
388.4151	0.2581
388.6219	0.2752
388.8286	0.2501
389.0353	0.2619
389.242	0.2651
389.4487	0.2539
389.6553	0.2718
389.862	0.2582
390.0686	0.2396
390.2753	0.2611
390.4819	0.2598
390.6885	0.2562
390.8951	0.2576
391.1016	0.2503
391.3082	0.2476
391.5147	0.255
391.7213	0.2418
391.9278	0.2408
392.1343	0.2523
392.3408	0.2473
392.5473	0.2462
392.7537	0.2461
392.9602	0.25
393.1666	0.2435
393.373	0.2374
393.5794	0.2533
393.7858	0.2304
393.9922	0.2224
394.1986	0.2494
394.4049	0.2494
394.6113	0.2194
394.8176	0.2264
395.0239	0.2229
395.2302	0.2212
395.4365	0.2279
395.6428	0.2274
395.8491	0.2338
396.0553	0.2089
396.2615	0.2166
396.4678	0.2287
396.674	0.2069
396.8802	0.2167
397.0863	0.2194
397.2925	0.2237
397.4987	0.2115
397.7048	0.2351
397.9109	0.2259
398.117	0.2301
398.3231	0.2167
398.5292	0.2396
398.7353	0.2288
398.9413	0.2219
399.1474	0.2236
399.3534	0.2301
399.5594	0.2229
399.7654	0.2265
399.9714	0.2358
400.1774	0.2276
400.3833	0.2165
400.5893	0.2171
400.7952	0.2378
401.0011	0.2228
401.207	0.2201
401.4129	0.2267
401.6188	0.2396
401.8247	0.2331
402.0305	0.2181
402.2364	0.2057
402.4422	0.2258
402.648	0.2351
402.8538	0.235
403.0596	0.2125
403.2654	0.2475
403.4711	0.2166
403.6768	0.2214
403.8826	0.2277
404.0883	0.2275
404.294	0.2334
404.4997	0.2101
404.7054	0.2134
404.911	0.2118
405.1167	0.214
405.3223	0.257
405.5279	0.226
405.7335	0.2375
405.9391	0.2336
406.1447	0.2332
406.3502	0.2452
406.5558	0.2345
406.7613	0.2263
406.9668	0.2344
407.1724	0.2173
407.3778	0.2146
407.5833	0.2174
407.7888	0.2277
407.9942	0.218
408.1997	0.221
408.4051	0.2147
408.6105	0.2334
408.8159	0.2001
409.0213	0.2173
409.2267	0.2388
409.432	0.2121
409.6374	0.2223
409.8427	0.2171
410.048	0.2317
410.2533	0.2266
410.4586	0.2131
410.6639	0.2046
410.8691	0.1982
411.0744	0.2338
411.2796	0.2053
411.4848	0.2151
411.69	0.2235
411.8952	0.2353
412.1004	0.2355
412.3056	0.2322
412.5107	0.2077
412.7158	0.2287
412.921	0.2218
413.1261	0.2185
413.3312	0.2101
413.5362	0.2293
413.7413	0.2051
413.9464	0.2229
414.1514	0.2074
414.3564	0.2179
414.5614	0.2014
414.7664	0.2312
414.9714	0.2084
415.1764	0.2127
415.3813	0.2193
415.5863	0.2353
415.7912	0.2106
415.9961	0.226
416.201	0.2084
416.4059	0.2207
416.6108	0.2083
416.8156	0.2185
417.0205	0.1726
417.2253	0.2143
417.4301	0.2087
417.6349	0.2156
417.8397	0.2054
418.0445	0.2152
418.2492	0.209
418.454	0.2124
418.6587	0.2009
418.8634	0.2165
419.0681	0.2012
419.2728	0.2229
419.4775	0.1995
419.6822	0.206
419.8868	0.1722
420.0915	0.2143
420.2961	0.1912
420.5007	0.195
420.7053	0.2115
420.9099	0.2114
421.1144	0.202
421.319	0.1919
421.5235	0.1854
421.728	0.1957
421.9325	0.2113
422.137	0.2168
422.3415	0.192
422.546	0.2034
422.7504	0.1833
422.9549	0.2014
423.1593	0.1975
423.3637	0.2025
423.5681	0.1949
423.7725	0.1685
423.9769	0.1824
424.1812	0.2005
424.3856	0.1759
424.5899	0.1937
424.7942	0.1858
424.9985	0.1802
425.2028	0.1724
425.4071	0.1984
425.6113	0.1723
425.8156	0.2016
426.0198	0.191
426.224	0.1812
426.4282	0.1858
426.6324	0.177
