Data from MonoPyChalIsomerACN10uM380nmA_Absorbance_13-38-32-748.txt Node
Date: Fri Jul 05 13:38:32 BST 2024
User: LASERRRRR
Spectrometer: FLMT03099
Trigger mode: 0
Integration Time (sec): 1.000000E-1
Scans to average: 1
Electric dark correction enabled: true
Nonlinearity correction enabled: false
Boxcar width: 0
XAxis mode: Wavelengths
Number of Pixels in Spectrum: 3648
>>>>>Begin Spectral Data<<<<<
179.3399	0.0552
179.5586	0.0552
179.7771	0.0552
179.9957	0.0639
180.2143	-0
180.4329	0.1396
180.6514	1.2517
180.8699	-0
181.0885	-0.1022
181.307	-0.0341
181.5255	-0
181.744	-0
181.9625	-0
182.181	-0
182.3994	0.9012
182.6179	-0
182.8363	-0.1761
183.0547	-0.3692
183.2732	0.0786
183.4916	0.1041
183.71	0.0717
183.9284	0.1072
184.1467	-0.1223
184.3651	-0.1056
184.5835	0.0575
184.8018	0.1018
185.0201	0.1924
185.2385	0.1801
185.4568	0.2383
185.6751	-0.0746
185.8934	0.4132
186.1117	0.1293
186.3299	0.1772
186.5482	0.0724
186.7664	0.2097
186.9847	-0.0226
187.2029	0.2716
187.4211	-0.0424
187.6393	0.4198
187.8575	-0.1007
188.0757	0.2163
188.2939	0.1483
188.512	0.8734
188.7302	-0.0396
188.9483	0.0536
189.1665	0.3657
189.3846	-0.2941
189.6027	0.0625
189.8208	0.2137
190.0389	0.1769
190.257	0.1638
190.475	0.0907
190.6931	0.3198
190.9111	0.6958
191.1292	0.13
191.3472	0.3685
191.5652	0.243
191.7832	0.0939
192.0012	0.3503
192.2192	0.2191
192.4371	0.6739
192.6551	0.397
192.873	0.3389
193.091	0.2671
193.3089	0.5735
193.5268	0.468
193.7447	0.5321
193.9626	0.5266
194.1805	0.5923
194.3984	1.0406
194.6162	0.6899
194.8341	0.6349
195.0519	0.617
195.2697	0.6382
195.4875	0.658
195.7054	0.9033
195.9231	0.5584
196.1409	0.5675
196.3587	0.8186
196.5765	0.7456
196.7942	0.685
197.012	0.5238
197.2297	0.8435
197.4474	1.1037
197.6651	0.832
197.8828	0.6974
198.1005	0.7601
198.3182	0.6579
198.5358	1.0012
198.7535	1.1634
198.9711	0.6738
199.1888	0.8461
199.4064	1.1721
199.624	0.6901
199.8416	0.7618
200.0592	0.8476
200.2767	0.7321
200.4943	0.7487
200.7119	0.7812
200.9294	0.8185
201.1469	0.788
201.3645	0.6193
201.582	0.7014
201.7995	0.758
202.017	0.8524
202.2344	0.8819
202.4519	0.8152
202.6694	1.0591
202.8868	0.7216
203.1042	1.2641
203.3217	1.0572
203.5391	0.8453
203.7565	0.7622
203.9739	0.8318
204.1913	0.7405
204.4086	0.7901
204.626	1.093
204.8433	0.8603
205.0607	0.7417
205.278	0.8122
205.4953	0.7931
205.7126	0.7672
205.9299	0.8065
206.1472	0.9099
206.3644	0.7626
206.5817	0.7746
206.7989	0.9132
207.0162	0.8296
207.2334	0.8895
207.4506	0.8088
207.6678	0.8398
207.885	0.8217
208.1022	0.7773
208.3194	0.788
208.5365	0.7841
208.7537	0.7449
208.9708	0.657
209.1879	0.8686
209.405	0.8725
209.6222	0.9095
209.8392	0.8241
210.0563	0.7522
210.2734	0.8102
210.4905	0.8413
210.7075	0.8201
210.9245	0.7078
211.1416	0.9582
211.3586	0.8052
211.5756	0.76
211.7926	0.8104
212.0096	0.792
212.2265	0.6713
212.4435	0.7167
212.6604	0.8478
212.8774	0.7766
213.0943	0.8928
213.3112	0.7321
213.5281	0.7102
213.745	0.6764
213.9619	0.7463
214.1788	0.7014
214.3956	0.6747
214.6125	0.6842
214.8293	0.6119
215.0461	0.6979
215.2629	0.6802
215.4798	0.6504
215.6965	0.6028
215.9133	0.6693
216.1301	0.6684
216.3469	0.6849
216.5636	0.613
216.7803	0.6507
216.9971	0.6794
217.2138	0.5519
217.4305	0.6219
217.6472	0.5666
217.8639	0.7354
218.0805	0.6138
218.2972	0.5915
218.5138	0.6053
218.7305	0.5611
218.9471	0.5534
219.1637	0.569
219.3803	0.5307
219.5969	0.5305
219.8135	0.5148
220.0301	0.5645
220.2466	0.54
220.4632	0.5158
220.6797	0.5265
220.8962	0.4827
221.1127	0.4801
221.3292	0.5152
221.5457	0.5196
221.7622	0.4687
221.9787	0.5322
222.1951	0.5125
222.4116	0.5158
222.628	0.4939
222.8444	0.5238
223.0608	0.5183
223.2772	0.4981
223.4936	0.55
223.71	0.4858
223.9264	0.5629
224.1427	0.5396
224.3591	0.5221
224.5754	0.5285
224.7917	0.5376
225.008	0.5346
225.2243	0.4717
225.4406	0.547
225.6569	0.5063
225.8732	0.5277
226.0894	0.5147
226.3057	0.5574
226.5219	0.5558
226.7381	0.513
226.9543	0.5216
227.1705	0.5363
227.3867	0.538
227.6029	0.5472
227.8191	0.5684
228.0352	0.5426
228.2513	0.5593
228.4675	0.5601
228.6836	0.5387
228.8997	0.5568
229.1158	0.5568
229.3319	0.5263
229.548	0.5242
229.764	0.55
229.9801	0.5604
230.1961	0.5691
230.4121	0.5594
230.6282	0.5548
230.8442	0.561
231.0602	0.5569
231.2761	0.5635
231.4921	0.5479
231.7081	0.5543
231.924	0.5358
232.14	0.5682
232.3559	0.5316
232.5718	0.5861
232.7877	0.5496
233.0036	0.5167
233.2195	0.5323
233.4353	0.5559
233.6512	0.5646
233.867	0.5376
234.0829	0.5554
234.2987	0.5301
234.5145	0.5637
234.7303	0.5523
234.9461	0.5529
235.1619	0.5624
235.3776	0.5421
235.5934	0.5502
235.8091	0.5044
236.0249	0.5254
236.2406	0.5557
236.4563	0.5285
236.672	0.5654
236.8877	0.5349
237.1034	0.5307
237.319	0.5365
237.5347	0.5426
237.7503	0.5278
237.966	0.5307
238.1816	0.5304
238.3972	0.5342
238.6128	0.5272
238.8284	0.5481
239.0439	0.5213
239.2595	0.531
239.475	0.526
239.6906	0.5466
239.9061	0.5312
240.1216	0.5096
240.3371	0.5276
240.5526	0.4957
240.7681	0.5336
240.9836	0.5093
241.199	0.5262
241.4145	0.486
241.6299	0.4948
241.8453	0.4801
242.0607	0.4825
242.2761	0.4804
242.4915	0.4485
242.7069	0.4631
242.9223	0.4536
243.1376	0.4216
243.353	0.4438
243.5683	0.4294
243.7836	0.4157
243.9989	0.4243
244.2142	0.3979
244.4295	0.4052
244.6448	0.3986
244.86	0.3768
245.0753	0.3662
245.2905	0.3703
245.5057	0.354
245.721	0.3517
245.9362	0.3532
246.1514	0.3648
246.3665	0.3367
246.5817	0.335
246.7969	0.3223
247.012	0.3172
247.2271	0.3014
247.4423	0.2938
247.6574	0.3198
247.8725	0.2929
248.0876	0.2761
248.3026	0.2909
248.5177	0.2838
248.7328	0.2751
248.9478	0.2585
249.1628	0.2617
249.3779	0.2691
249.5929	0.2539
249.8079	0.2733
250.0228	0.2591
250.2378	0.2519
250.4528	0.2499
250.6677	0.2428
250.8827	0.2432
251.0976	0.2464
251.3125	0.2307
251.5274	0.2185
251.7423	0.2301
251.9572	0.227
252.172	0.2216
252.3869	0.2187
252.6017	0.2146
252.8166	0.2081
253.0314	0.2088
253.2462	0.2087
253.461	0.2074
253.6758	0.2016
253.8906	0.1996
254.1053	0.2114
254.3201	0.2047
254.5348	0.2143
254.7496	0.2044
254.9643	0.1888
255.179	0.1959
255.3937	0.1912
255.6083	0.2056
255.823	0.1927
256.0377	0.1948
256.2523	0.1865
256.467	0.1807
256.6816	0.1976
256.8962	0.1901
257.1108	0.1894
257.3254	0.1959
257.54	0.2009
257.7545	0.1978
257.9691	0.2051
258.1836	0.1854
258.3981	0.1925
258.6127	0.1884
258.8272	0.182
259.0417	0.1907
259.2561	0.1892
259.4706	0.1754
259.6851	0.1891
259.8995	0.1876
260.114	0.1749
260.3284	0.1764
260.5428	0.1772
260.7572	0.1934
260.9716	0.1993
261.186	0.1892
261.4003	0.1906
261.6147	0.1985
261.829	0.1812
262.0433	0.1834
262.2577	0.1687
262.472	0.1906
262.6863	0.1925
262.9005	0.1799
263.1148	0.1792
263.3291	0.1716
263.5433	0.1783
263.7576	0.1905
263.9718	0.1755
264.186	0.1777
264.4002	0.1692
264.6144	0.1812
264.8286	0.1946
265.0427	0.1861
265.2569	0.1865
265.471	0.1866
265.6851	0.174
265.8993	0.1683
266.1134	0.1809
266.3275	0.1958
266.5415	0.1717
266.7556	0.1909
266.9697	0.1768
267.1837	0.195
267.3978	0.1851
267.6118	0.1896
267.8258	0.1907
268.0398	0.1822
268.2538	0.199
268.4677	0.1984
268.6817	0.1739
268.8957	0.1822
269.1096	0.1857
269.3235	0.187
269.5374	0.177
269.7514	0.1745
269.9652	0.1734
270.1791	0.1835
270.393	0.1778
270.6068	0.177
270.8207	0.1796
271.0345	0.1639
271.2483	0.1846
271.4622	0.1703
271.676	0.1933
271.8897	0.1693
272.1035	0.1727
272.3173	0.1794
272.531	0.1738
272.7448	0.1702
272.9585	0.1675
273.1722	0.1791
273.3859	0.184
273.5996	0.1613
273.8133	0.1773
274.0269	0.1698
274.2406	0.1712
274.4542	0.1659
274.6679	0.1635
274.8815	0.1796
275.0951	0.1834
275.3087	0.1739
275.5223	0.185
275.7358	0.1722
275.9494	0.1785
276.1629	0.1681
276.3765	0.1635
276.59	0.179
276.8035	0.1842
277.017	0.166
277.2305	0.1555
277.444	0.1767
277.6574	0.1689
277.8709	0.1769
278.0843	0.1741
278.2978	0.1823
278.5112	0.1763
278.7246	0.1802
278.938	0.1827
279.1513	0.1827
279.3647	0.1764
279.5781	0.1737
279.7914	0.1828
280.0047	0.1942
280.2181	0.1775
280.4314	0.1812
280.6447	0.1842
280.8579	0.1794
281.0712	0.1805
281.2845	0.1768
281.4977	0.1768
281.711	0.1692
281.9242	0.1776
282.1374	0.1823
282.3506	0.174
282.5638	0.1796
282.7769	0.1746
282.9901	0.1779
283.2033	0.1936
283.4164	0.1976
283.6295	0.1685
283.8426	0.1731
284.0557	0.1826
284.2688	0.1834
284.4819	0.1845
284.695	0.1682
284.908	0.1764
285.1211	0.1623
285.3341	0.1748
285.5471	0.1828
285.7601	0.1821
285.9731	0.1682
286.1861	0.1582
286.3991	0.1789
286.612	0.1813
286.825	0.183
287.0379	0.1762
287.2508	0.169
287.4637	0.1783
287.6766	0.1763
287.8895	0.1899
288.1024	0.2081
288.3152	0.1865
288.5281	0.1652
288.7409	0.1685
288.9538	0.1782
289.1666	0.1611
289.3794	0.1736
289.5922	0.1705
289.8049	0.181
290.0177	0.1645
290.2304	0.176
290.4432	0.1689
290.6559	0.1755
290.8686	0.1871
291.0813	0.1764
291.294	0.1841
291.5067	0.1736
291.7194	0.1752
291.932	0.179
292.1447	0.1698
292.3573	0.1646
292.5699	0.1769
292.7825	0.1726
292.9951	0.171
293.2077	0.1621
293.4203	0.1696
293.6328	0.1507
293.8454	0.1744
294.0579	0.1673
294.2704	0.1697
294.4829	0.1605
294.6954	0.162
294.9079	0.1617
295.1204	0.1712
295.3328	0.1652
295.5453	0.1619
295.7577	0.1656
295.9701	0.1511
296.1825	0.164
296.3949	0.173
296.6073	0.169
296.8197	0.1646
297.0321	0.1777
297.2444	0.1601
297.4567	0.1747
297.6691	0.1637
297.8814	0.1634
298.0937	0.1661
298.306	0.1751
298.5182	0.1698
298.7305	0.1706
298.9428	0.1735
299.155	0.1677
299.3672	0.1589
299.5794	0.1607
299.7916	0.1559
300.0038	0.1656
300.216	0.1621
300.4282	0.1644
300.6403	0.1614
300.8525	0.1775
301.0646	0.1608
301.2767	0.1701
301.4888	0.1572
301.7009	0.1682
301.913	0.1716
302.125	0.1674
302.3371	0.1639
302.5491	0.1626
302.7612	0.1823
302.9732	0.1705
303.1852	0.1731
303.3972	0.1536
303.6092	0.1546
303.8211	0.15
304.0331	0.1489
304.245	0.1578
304.457	0.1554
304.6689	0.1555
304.8808	0.167
305.0927	0.1518
305.3046	0.1559
305.5164	0.1553
305.7283	0.1453
305.9401	0.1579
306.152	0.1584
306.3638	0.1524
306.5756	0.1458
306.7874	0.156
306.9992	0.1442
307.2109	0.1484
307.4227	0.1312
307.6344	0.1371
307.8462	0.1448
308.0579	0.136
308.2696	0.1311
308.4813	0.1287
308.693	0.1363
308.9046	0.1327
309.1163	0.1289
309.328	0.1311
309.5396	0.1262
309.7512	0.1311
309.9628	0.1205
310.1744	0.1357
310.386	0.1216
310.5976	0.125
310.8091	0.1238
311.0207	0.1147
311.2322	0.1282
311.4437	0.12
311.6552	0.1304
311.8667	0.1173
312.0782	0.0997
312.2897	0.1027
312.5012	0.1179
312.7126	0.1121
312.924	0.1096
313.1355	0.1139
313.3469	0.1154
313.5583	0.1257
313.7696	0.1172
313.981	0.1102
314.1924	0.1079
314.4037	0.1086
314.6151	0.1141
314.8264	0.108
315.0377	0.1139
315.249	0.1169
315.4603	0.1102
315.6716	0.1101
315.8828	0.0944
316.0941	0.0996
316.3053	0.0997
316.5165	0.0942
316.7277	0.0948
316.9389	0.1184
317.1501	0.1087
317.3613	0.1058
317.5724	0.1017
317.7836	0.1082
317.9947	0.1063
318.2058	0.1067
318.417	0.0906
318.6281	0.1042
318.8391	0.1065
319.0502	0.1029
319.2613	0.0971
319.4723	0.1088
319.6834	0.1182
319.8944	0.0892
320.1054	0.108
320.3164	0.0985
320.5274	0.1032
320.7383	0.1085
320.9493	0.105
321.1602	0.1115
321.3712	0.0893
321.5821	0.1069
321.793	0.0991
322.0039	0.1021
322.2148	0.1005
322.4257	0.0996
322.6365	0.1089
322.8474	0.1143
323.0582	0.0996
323.269	0.1034
323.4798	0.1155
323.6906	0.1072
323.9014	0.1142
324.1122	0.1083
324.3229	0.0999
324.5337	0.1123
324.7444	0.1014
324.9551	0.1081
325.1658	0.1215
325.3765	0.113
325.5872	0.1022
325.7979	0.1122
326.0085	0.1022
326.2192	0.1143
326.4298	0.108
326.6404	0.1043
326.851	0.0995
327.0616	0.1072
327.2722	0.1129
327.4828	0.1167
327.6933	0.1041
327.9039	0.1044
328.1144	0.1128
328.3249	0.1193
328.5354	0.1036
328.7459	0.1138
328.9564	0.0987
329.1669	0.1198
329.3773	0.1125
329.5878	0.1101
329.7982	0.1043
330.0086	0.1089
330.219	0.116
330.4294	0.1055
330.6398	0.1118
330.8502	0.1056
331.0605	0.1161
331.2708	0.1133
331.4812	0.1142
331.6915	0.1179
331.9018	0.1146
332.1121	0.1166
332.3224	0.1171
332.5326	0.1095
332.7429	0.1126
332.9531	0.1201
333.1633	0.1192
333.3735	0.1082
333.5837	0.1154
333.7939	0.1009
334.0041	0.1154
334.2143	0.1178
334.4244	0.1014
334.6346	0.0943
334.8447	0.1253
335.0548	0.1133
335.2649	0.1127
335.475	0.1196
335.685	0.0972
335.8951	0.1299
336.1051	0.1231
336.3152	0.1197
336.5252	0.1089
336.7352	0.1171
336.9452	0.1215
337.1552	0.1186
337.3652	0.117
337.5751	0.1103
337.7851	0.1163
337.995	0.1053
338.2049	0.1264
338.4148	0.1238
338.6247	0.1094
338.8346	0.1073
339.0445	0.1146
339.2543	0.1183
339.4642	0.1287
339.674	0.1067
339.8838	0.1291
340.0936	0.1073
340.3034	0.1321
340.5132	0.1219
340.7229	0.1249
340.9327	0.1195
341.1424	0.1136
341.3522	0.1239
341.5619	0.1325
341.7716	0.1148
341.9813	0.1381
342.1909	0.1233
342.4006	0.123
342.6102	0.1321
342.8199	0.1272
343.0295	0.1289
343.2391	0.1318
343.4487	0.1328
343.6583	0.1197
343.8679	0.1283
344.0774	0.1321
344.287	0.1343
344.4965	0.1268
344.706	0.1236
344.9155	0.1421
345.125	0.1214
345.3345	0.1302
345.544	0.132
345.7534	0.1369
345.9629	0.1304
346.1723	0.1311
346.3817	0.124
346.5911	0.1302
346.8005	0.1336
347.0099	0.1309
347.2193	0.1317
347.4286	0.1256
347.638	0.1321
347.8473	0.1407
348.0566	0.1448
348.2659	0.1361
348.4752	0.1485
348.6845	0.1415
348.8937	0.1345
349.103	0.1474
349.3122	0.1418
349.5214	0.1424
349.7306	0.1485
349.9398	0.1323
350.149	0.1529
350.3582	0.1348
350.5674	0.1555
350.7765	0.1432
350.9856	0.1407
351.1948	0.1469
351.4039	0.1318
351.613	0.1476
351.822	0.1321
352.0311	0.1396
352.2402	0.1332
352.4492	0.1514
352.6582	0.1504
352.8672	0.1445
353.0762	0.1531
353.2852	0.1497
353.4942	0.1334
353.7032	0.1442
353.9121	0.1623
354.1211	0.1518
354.33	0.1484
354.5389	0.1558
354.7478	0.1424
354.9567	0.1444
355.1655	0.168
355.3744	0.1492
355.5833	0.1557
355.7921	0.1641
356.0009	0.1418
356.2097	0.1726
356.4185	0.1661
356.6273	0.1707
356.8361	0.1679
357.0448	0.1552
357.2536	0.138
357.4623	0.159
357.671	0.1757
357.8797	0.1672
358.0884	0.1696
358.2971	0.1607
358.5057	0.163
358.7144	0.1748
358.923	0.1648
359.1316	0.1662
359.3402	0.1606
359.5488	0.1571
359.7574	0.1653
359.966	0.1707
360.1746	0.1671
360.3831	0.1768
360.5916	0.1661
360.8002	0.1622
361.0087	0.1721
361.2172	0.1731
361.4256	0.1667
361.6341	0.1754
361.8426	0.18
362.051	0.173
362.2594	0.1778
362.4678	0.1797
362.6762	0.2095
362.8846	0.1949
363.093	0.1697
363.3014	0.1785
363.5097	0.1751
363.718	0.1765
363.9264	0.1803
364.1347	0.1835
364.343	0.1873
364.5513	0.1825
364.7595	0.1906
364.9678	0.1934
365.176	0.1846
365.3842	0.1943
365.5925	0.191
365.8007	0.1897
366.0089	0.1857
366.217	0.1872
366.4252	0.1901
366.6333	0.2144
366.8415	0.196
367.0496	0.1811
367.2577	0.1978
367.4658	0.1967
367.6739	0.1856
367.882	0.2132
368.09	0.1947
368.2981	0.2038
368.5061	0.202
368.7141	0.1953
368.9221	0.2017
369.1301	0.1949
369.3381	0.1968
369.5461	0.2006
369.754	0.1987
369.962	0.1976
370.1699	0.2083
370.3778	0.214
370.5857	0.2042
370.7936	0.2002
371.0015	0.201
371.2093	0.2088
371.4172	0.2138
371.625	0.2115
371.8328	0.2027
372.0406	0.2138
372.2484	0.1922
372.4562	0.2238
372.664	0.2031
372.8717	0.228
373.0795	0.1854
373.2872	0.1984
373.4949	0.2171
373.7026	0.2199
373.9103	0.2256
374.118	0.2197
374.3256	0.211
374.5333	0.2207
374.7409	0.2004
374.9485	0.2358
375.1561	0.2215
375.3637	0.224
375.5713	0.2164
375.7789	0.2293
375.9864	0.2115
376.194	0.2151
376.4015	0.2332
376.609	0.2333
376.8165	0.2148
377.024	0.2276
377.2315	0.2348
377.4389	0.2226
377.6464	0.2488
377.8538	0.2258
378.0612	0.2175
378.2686	0.2343
378.476	0.2276
378.6834	0.2198
378.8908	0.2326
379.0981	0.2239
379.3055	0.2353
379.5128	0.2308
379.7201	0.2284
379.9274	0.2189
380.1347	0.2257
380.342	0.2361
380.5492	0.235
380.7565	0.2429
380.9637	0.2256
381.1709	0.2322
381.3781	0.2307
381.5853	0.2349
381.7925	0.2287
381.9997	0.2339
382.2068	0.238
382.4139	0.2572
382.6211	0.2222
382.8282	0.2463
383.0353	0.2488
383.2424	0.2278
383.4494	0.2336
383.6565	0.248
383.8635	0.2459
384.0706	0.2496
384.2776	0.2492
384.4846	0.2473
384.6916	0.2182
384.8986	0.2381
385.1055	0.2409
385.3125	0.2441
385.5194	0.2268
385.7263	0.2489
385.9333	0.2256
386.1402	0.2329
386.347	0.2348
386.5539	0.2148
386.7608	0.2541
386.9676	0.2149
387.1744	0.2322
387.3813	0.2283
387.5881	0.2466
387.7948	0.2314
388.0016	0.2359
388.2084	0.2483
388.4151	0.2242
388.6219	0.2287
388.8286	0.2237
389.0353	0.2356
389.242	0.2395
389.4487	0.2271
389.6553	0.2313
389.862	0.2102
390.0686	0.2032
390.2753	0.2287
390.4819	0.2232
390.6885	0.2076
390.8951	0.234
391.1016	0.2102
391.3082	0.2121
391.5147	0.2168
391.7213	0.2182
391.9278	0.2034
392.1343	0.2221
392.3408	0.1996
392.5473	0.2215
392.7537	0.202
392.9602	0.2006
393.1666	0.2113
393.373	0.2195
393.5794	0.2307
393.7858	0.2159
393.9922	0.1957
394.1986	0.2156
394.4049	0.211
394.6113	0.1962
394.8176	0.1881
395.0239	0.1939
395.2302	0.2034
395.4365	0.1995
395.6428	0.1998
395.8491	0.1918
396.0553	0.1884
396.2615	0.1977
396.4678	0.1945
396.674	0.1791
396.8802	0.2092
397.0863	0.2054
397.2925	0.1839
397.4987	0.1924
397.7048	0.1881
397.9109	0.205
398.117	0.1883
398.3231	0.1888
398.5292	0.204
398.7353	0.2018
398.9413	0.1878
399.1474	0.2073
399.3534	0.1929
399.5594	0.1752
399.7654	0.2011
399.9714	0.2017
400.1774	0.1732
400.3833	0.2005
400.5893	0.1943
400.7952	0.1828
401.0011	0.2133
401.207	0.1983
401.4129	0.207
401.6188	0.2015
401.8247	0.1826
402.0305	0.1787
402.2364	0.1875
402.4422	0.2027
402.648	0.1973
402.8538	0.1878
403.0596	0.1926
403.2654	0.1905
403.4711	0.2062
403.6768	0.2119
403.8826	0.2104
404.0883	0.1871
404.294	0.2005
404.4997	0.2024
404.7054	0.1891
404.911	0.1818
405.1167	0.1972
405.3223	0.207
405.5279	0.1899
405.7335	0.209
405.9391	0.1901
406.1447	0.1932
406.3502	0.2166
406.5558	0.2043
406.7613	0.1919
406.9668	0.2144
407.1724	0.1883
407.3778	0.1859
407.5833	0.2051
407.7888	0.1858
407.9942	0.2004
408.1997	0.1854
408.4051	0.2035
408.6105	0.1907
408.8159	0.1758
409.0213	0.1852
409.2267	0.1995
409.432	0.1906
409.6374	0.2049
409.8427	0.1741
410.048	0.1944
410.2533	0.1965
410.4586	0.1946
410.6639	0.1945
410.8691	0.1866
411.0744	0.2023
411.2796	0.1815
411.4848	0.1899
411.69	0.1863
411.8952	0.2142
412.1004	0.1523
412.3056	0.1992
412.5107	0.1899
412.7158	0.1863
412.921	0.1694
413.1261	0.1836
413.3312	0.1859
413.5362	0.1723
413.7413	0.1869
413.9464	0.1991
414.1514	0.1748
414.3564	0.171
414.5614	0.1665
414.7664	0.1864
414.9714	0.1949
415.1764	0.1847
415.3813	0.2036
415.5863	0.1813
415.7912	0.1741
415.9961	0.1764
416.201	0.1943
416.4059	0.2028
416.6108	0.1557
416.8156	0.1974
417.0205	0.1889
417.2253	0.1883
417.4301	0.1842
417.6349	0.1688
417.8397	0.1798
418.0445	0.1865
418.2492	0.1827
418.454	0.1809
418.6587	0.187
418.8634	0.1886
419.0681	0.1558
419.2728	0.157
419.4775	0.1721
419.6822	0.1671
419.8868	0.1571
420.0915	0.1752
420.2961	0.1663
420.5007	0.1433
420.7053	0.1911
420.9099	0.1661
421.1144	0.177
421.319	0.1718
421.5235	0.1704
421.728	0.1685
421.9325	0.1709
422.137	0.1828
422.3415	0.16
422.546	0.1671
422.7504	0.1506
422.9549	0.1568
423.1593	0.1748
423.3637	0.1624
423.5681	0.1522
423.7725	0.1529
423.9769	0.1627
424.1812	0.1527
424.3856	0.1432
424.5899	0.1763
424.7942	0.1419
424.9985	0.1704
425.2028	0.1504
425.4071	0.1821
425.6113	0.1443
425.8156	0.1626
426.0198	0.1612
426.224	0.1513
426.4282	0.1452
