Data from MonoPyChalIsomerACN10uM380nmA_Absorbance_13-38-29-449.txt Node
Date: Fri Jul 05 13:38:29 BST 2024
User: LASERRRRR
Spectrometer: FLMT03099
Trigger mode: 0
Integration Time (sec): 1.000000E-1
Scans to average: 1
Electric dark correction enabled: true
Nonlinearity correction enabled: false
Boxcar width: 0
XAxis mode: Wavelengths
Number of Pixels in Spectrum: 3648
>>>>>Begin Spectral Data<<<<<
179.3399	-0.1085
179.5586	-0.1085
179.7771	-0.1085
179.9957	1.4078
180.2143	-0
180.4329	-0.437
180.6514	-0
180.8699	-0
181.0885	-0
181.307	0.2157
181.5255	-0.9281
181.744	-0
181.9625	-0
182.181	-0.1165
182.3994	0.2732
182.6179	-0.334
182.8363	-0.4209
183.0547	0.324
183.2732	0.0178
183.4916	0.0634
183.71	0.0052
183.9284	0.4005
184.1467	-0.0089
184.3651	-0.0307
184.5835	-0.077
184.8018	-0.0364
185.0201	0.0535
185.2385	-0.0084
185.4568	0.1022
185.6751	0.1138
185.8934	0.1559
186.1117	-0.0135
186.3299	0.2321
186.5482	0.2646
186.7664	-0.1732
186.9847	-0.074
187.2029	0.1039
187.4211	0.138
187.6393	0.0769
187.8575	0.0661
188.0757	0.3924
188.2939	0.0802
188.512	0.102
188.7302	0.072
188.9483	0.1025
189.1665	0.2242
189.3846	0.4605
189.6027	0.0602
189.8208	0.2443
190.0389	0.1212
190.257	0.1527
190.475	0.2897
190.6931	0.3655
190.9111	0.8375
191.1292	0.2705
191.3472	0.4987
191.5652	0.3472
191.7832	0.5007
192.0012	0.8458
192.2192	0.434
192.4371	0.6521
192.6551	0.4259
192.873	0.5571
193.091	0.4213
193.3089	0.6563
193.5268	0.5445
193.7447	0.7506
193.9626	0.567
194.1805	1.4071
194.3984	0.9794
194.6162	1.1468
194.8341	0.556
195.0519	0.7862
195.2697	-0
195.4875	0.6942
195.7054	0.9712
195.9231	0.7477
196.1409	0.8283
196.3587	0.6731
196.5765	0.9345
196.7942	0.6822
197.012	0.5668
197.2297	0.7883
197.4474	1.4542
197.6651	0.7875
197.8828	0.6952
198.1005	0.6518
198.3182	0.9651
198.5358	0.9615
198.7535	0.7877
198.9711	0.5959
199.1888	0.756
199.4064	1.7037
199.624	0.8544
199.8416	0.7513
200.0592	0.8549
200.2767	0.9931
200.4943	0.8518
200.7119	1.1895
200.9294	0.8558
201.1469	0.716
201.3645	0.7858
201.582	0.8855
201.7995	0.7634
202.017	0.9072
202.2344	0.6537
202.4519	0.8764
202.6694	0.954
202.8868	0.7583
203.1042	0.8612
203.3217	1.0166
203.5391	0.9095
203.7565	0.7634
203.9739	0.7738
204.1913	0.8069
204.4086	0.9496
204.626	0.8397
204.8433	0.9226
205.0607	0.8592
205.278	0.965
205.4953	0.8688
205.7126	0.9808
205.9299	1.067
206.1472	0.8448
206.3644	0.9701
206.5817	0.9042
206.7989	0.7572
207.0162	0.7449
207.2334	0.7329
207.4506	0.8172
207.6678	0.7782
207.885	0.8392
208.1022	0.8943
208.3194	0.8228
208.5365	0.8208
208.7537	0.8088
208.9708	0.6672
209.1879	0.9116
209.405	0.8385
209.6222	0.9168
209.8392	0.9742
210.0563	0.8371
210.2734	0.8156
210.4905	0.8243
210.7075	0.7534
210.9245	0.7932
211.1416	0.8436
211.3586	0.9061
211.5756	0.777
211.7926	0.7617
212.0096	0.7676
212.2265	0.7398
212.4435	0.8267
212.6604	0.7665
212.8774	0.7878
213.0943	0.7942
213.3112	0.6919
213.5281	0.7065
213.745	0.7019
213.9619	0.7253
214.1788	0.6641
214.3956	0.6727
214.6125	0.698
214.8293	0.649
215.0461	0.7227
215.2629	0.7
215.4798	0.6968
215.6965	0.6588
215.9133	0.701
216.1301	0.6666
216.3469	0.673
216.5636	0.6201
216.7803	0.6174
216.9971	0.6535
217.2138	0.6304
217.4305	0.6381
217.6472	0.593
217.8639	0.6756
218.0805	0.6152
218.2972	0.6119
218.5138	0.598
218.7305	0.5765
218.9471	0.5758
219.1637	0.5834
219.3803	0.5631
219.5969	0.5461
219.8135	0.5274
220.0301	0.5699
220.2466	0.5792
220.4632	0.5096
220.6797	0.5058
220.8962	0.5097
221.1127	0.5109
221.3292	0.5705
221.5457	0.5148
221.7622	0.5118
221.9787	0.5091
222.1951	0.5139
222.4116	0.5511
222.628	0.5328
222.8444	0.5526
223.0608	0.522
223.2772	0.5598
223.4936	0.5291
223.71	0.4866
223.9264	0.5238
224.1427	0.5701
224.3591	0.5246
224.5754	0.5772
224.7917	0.5161
225.008	0.5546
225.2243	0.5179
225.4406	0.5392
225.6569	0.5161
225.8732	0.5284
226.0894	0.5205
226.3057	0.5176
226.5219	0.5355
226.7381	0.5524
226.9543	0.5337
227.1705	0.5724
227.3867	0.5704
227.6029	0.554
227.8191	0.5599
228.0352	0.5553
228.2513	0.5448
228.4675	0.5452
228.6836	0.5446
228.8997	0.551
229.1158	0.5676
229.3319	0.5716
229.548	0.5735
229.764	0.5652
229.9801	0.5543
230.1961	0.56
230.4121	0.5306
230.6282	0.565
230.8442	0.5382
231.0602	0.5514
231.2761	0.5898
231.4921	0.5814
231.7081	0.5617
231.924	0.5508
232.14	0.5855
232.3559	0.5498
232.5718	0.5849
232.7877	0.5587
233.0036	0.5412
233.2195	0.5654
233.4353	0.5662
233.6512	0.5505
233.867	0.5394
234.0829	0.5434
234.2987	0.5454
234.5145	0.5588
234.7303	0.5624
234.9461	0.5632
235.1619	0.5621
235.3776	0.555
235.5934	0.5516
235.8091	0.5297
236.0249	0.5332
236.2406	0.5532
236.4563	0.5358
236.672	0.5635
236.8877	0.5606
237.1034	0.559
237.319	0.5614
237.5347	0.5536
237.7503	0.5298
237.966	0.5448
238.1816	0.5549
238.3972	0.5543
238.6128	0.5446
238.8284	0.541
239.0439	0.5785
239.2595	0.5332
239.475	0.5557
239.6906	0.5314
239.9061	0.5223
240.1216	0.5237
240.3371	0.5278
240.5526	0.4965
240.7681	0.5131
240.9836	0.4921
241.199	0.498
241.4145	0.4979
241.6299	0.4754
241.8453	0.4697
242.0607	0.4784
242.2761	0.4519
242.4915	0.4652
242.7069	0.4505
242.9223	0.45
243.1376	0.4227
243.353	0.4216
243.5683	0.4477
243.7836	0.423
243.9989	0.4152
244.2142	0.3922
244.4295	0.3963
244.6448	0.3775
244.86	0.3699
245.0753	0.3584
245.2905	0.3662
245.5057	0.3503
245.721	0.3401
245.9362	0.339
246.1514	0.3441
246.3665	0.3258
246.5817	0.3252
246.7969	0.3246
247.012	0.2956
247.2271	0.2968
247.4423	0.3086
247.6574	0.3084
247.8725	0.2766
248.0876	0.2683
248.3026	0.269
248.5177	0.269
248.7328	0.2648
248.9478	0.2502
249.1628	0.2673
249.3779	0.2608
249.5929	0.2431
249.8079	0.2626
250.0228	0.2487
250.2378	0.2412
250.4528	0.24
250.6677	0.2279
250.8827	0.2294
251.0976	0.2271
251.3125	0.2386
251.5274	0.2195
251.7423	0.2289
251.9572	0.2274
252.172	0.224
252.3869	0.2309
252.6017	0.2077
252.8166	0.2129
253.0314	0.1941
253.2462	0.1937
253.461	0.2166
253.6758	0.2105
253.8906	0.2025
254.1053	0.2045
254.3201	0.2006
254.5348	0.2185
254.7496	0.2127
254.9643	0.1908
255.179	0.1846
255.3937	0.2004
255.6083	0.1931
255.823	0.1883
256.0377	0.1999
256.2523	0.1886
256.467	0.1759
256.6816	0.1999
256.8962	0.203
257.1108	0.1821
257.3254	0.1974
257.54	0.1798
257.7545	0.1861
257.9691	0.2028
258.1836	0.1811
258.3981	0.1943
258.6127	0.1984
258.8272	0.1883
259.0417	0.1806
259.2561	0.18
259.4706	0.1866
259.6851	0.1889
259.8995	0.1839
260.114	0.1777
260.3284	0.1821
260.5428	0.1833
260.7572	0.1895
260.9716	0.19
261.186	0.1813
261.4003	0.1837
261.6147	0.1744
261.829	0.1741
262.0433	0.1789
262.2577	0.1829
262.472	0.1929
262.6863	0.1823
262.9005	0.1857
263.1148	0.1813
263.3291	0.1614
263.5433	0.1813
263.7576	0.1831
263.9718	0.1829
264.186	0.1889
264.4002	0.196
264.6144	0.1879
264.8286	0.188
265.0427	0.1758
265.2569	0.1871
265.471	0.1892
265.6851	0.1791
265.8993	0.1754
266.1134	0.1744
266.3275	0.1792
266.5415	0.1776
266.7556	0.178
266.9697	0.1834
267.1837	0.186
267.3978	0.1747
267.6118	0.1897
267.8258	0.1906
268.0398	0.1758
268.2538	0.1939
268.4677	0.1687
268.6817	0.1804
268.8957	0.1693
269.1096	0.1714
269.3235	0.1747
269.5374	0.1662
269.7514	0.1723
269.9652	0.1658
270.1791	0.1708
270.393	0.166
270.6068	0.179
270.8207	0.1666
271.0345	0.159
271.2483	0.1809
271.4622	0.1622
271.676	0.173
271.8897	0.1598
272.1035	0.1634
272.3173	0.1639
272.531	0.1646
272.7448	0.1608
272.9585	0.1603
273.1722	0.1575
273.3859	0.1611
273.5996	0.1523
273.8133	0.1607
274.0269	0.1629
274.2406	0.1566
274.4542	0.1552
274.6679	0.1493
274.8815	0.159
275.0951	0.1723
275.3087	0.1677
275.5223	0.1739
275.7358	0.1556
275.9494	0.1638
276.1629	0.1594
276.3765	0.1601
276.59	0.172
276.8035	0.1579
277.017	0.1599
277.2305	0.1585
277.444	0.1722
277.6574	0.1571
277.8709	0.1703
278.0843	0.1638
278.2978	0.1575
278.5112	0.1487
278.7246	0.1638
278.938	0.1608
279.1513	0.1702
279.3647	0.1745
279.5781	0.1549
279.7914	0.1732
280.0047	0.1627
280.2181	0.1782
280.4314	0.1666
280.6447	0.1673
280.8579	0.1698
281.0712	0.1658
281.2845	0.1836
281.4977	0.1577
281.711	0.1639
281.9242	0.1635
282.1374	0.1733
282.3506	0.1605
282.5638	0.1693
282.7769	0.1798
282.9901	0.1791
283.2033	0.1813
283.4164	0.175
283.6295	0.1637
283.8426	0.1674
284.0557	0.1809
284.2688	0.187
284.4819	0.1796
284.695	0.178
284.908	0.1836
285.1211	0.1628
285.3341	0.1841
285.5471	0.192
285.7601	0.1809
285.9731	0.1628
286.1861	0.1678
286.3991	0.1818
286.612	0.183
286.825	0.1843
287.0379	0.1784
287.2508	0.1776
287.4637	0.1818
287.6766	0.1661
287.8895	0.1884
288.1024	0.1995
288.3152	0.1901
288.5281	0.1746
288.7409	0.17
288.9538	0.1718
289.1666	0.1804
289.3794	0.1825
289.5922	0.1738
289.8049	0.18
290.0177	0.1864
290.2304	0.1894
290.4432	0.1933
290.6559	0.1852
290.8686	0.1954
291.0813	0.1919
291.294	0.1823
291.5067	0.1818
291.7194	0.1724
291.932	0.1963
292.1447	0.1788
292.3573	0.1714
292.5699	0.1828
292.7825	0.1878
292.9951	0.1836
293.2077	0.1771
293.4203	0.1811
293.6328	0.1795
293.8454	0.1841
294.0579	0.1858
294.2704	0.1806
294.4829	0.1747
294.6954	0.1878
294.9079	0.1749
295.1204	0.189
295.3328	0.1708
295.5453	0.1757
295.7577	0.1756
295.9701	0.1753
296.1825	0.1843
296.3949	0.1788
296.6073	0.1795
296.8197	0.1687
297.0321	0.1811
297.2444	0.1708
297.4567	0.1812
297.6691	0.1825
297.8814	0.1616
298.0937	0.1756
298.306	0.1854
298.5182	0.1774
298.7305	0.1788
298.9428	0.1729
299.155	0.1731
299.3672	0.1747
299.5794	0.1656
299.7916	0.1742
300.0038	0.1834
300.216	0.1768
300.4282	0.1792
300.6403	0.1686
300.8525	0.1661
301.0646	0.1678
301.2767	0.1796
301.4888	0.1732
301.7009	0.1779
301.913	0.1693
302.125	0.1779
302.3371	0.1732
302.5491	0.1814
302.7612	0.1794
302.9732	0.1813
303.1852	0.1693
303.3972	0.183
303.6092	0.1655
303.8211	0.1704
304.0331	0.163
304.245	0.1716
304.457	0.1602
304.6689	0.1652
304.8808	0.18
305.0927	0.1582
305.3046	0.1656
305.5164	0.1762
305.7283	0.1559
305.9401	0.162
306.152	0.1573
306.3638	0.1564
306.5756	0.1499
306.7874	0.1461
306.9992	0.1525
307.2109	0.1558
307.4227	0.1452
307.6344	0.1529
307.8462	0.1482
308.0579	0.149
308.2696	0.1396
308.4813	0.142
308.693	0.1438
308.9046	0.1381
309.1163	0.1379
309.328	0.1307
309.5396	0.1295
309.7512	0.1341
309.9628	0.135
310.1744	0.1266
310.386	0.1265
310.5976	0.1347
310.8091	0.1266
311.0207	0.1298
311.2322	0.1143
311.4437	0.1134
311.6552	0.1217
311.8667	0.1196
312.0782	0.1089
312.2897	0.1086
312.5012	0.1121
312.7126	0.1028
312.924	0.1014
313.1355	0.1091
313.3469	0.1122
313.5583	0.1083
313.7696	0.1192
313.981	0.1124
314.1924	0.1054
314.4037	0.0986
314.6151	0.1108
314.8264	0.0977
315.0377	0.1023
315.249	0.0995
315.4603	0.1129
315.6716	0.1019
315.8828	0.0981
316.0941	0.0958
316.3053	0.0918
316.5165	0.1004
316.7277	0.0975
316.9389	0.1105
317.1501	0.1025
317.3613	0.0962
317.5724	0.0885
317.7836	0.1042
317.9947	0.0885
318.2058	0.1045
318.417	0.0871
318.6281	0.09
318.8391	0.0968
319.0502	0.1024
319.2613	0.1077
319.4723	0.1056
319.6834	0.1083
319.8944	0.0859
320.1054	0.1002
320.3164	0.0971
320.5274	0.0955
320.7383	0.1057
320.9493	0.0919
321.1602	0.1008
321.3712	0.0955
321.5821	0.0982
321.793	0.0965
322.0039	0.1079
322.2148	0.0954
322.4257	0.1011
322.6365	0.1127
322.8474	0.1138
323.0582	0.095
323.269	0.0904
323.4798	0.1113
323.6906	0.1075
323.9014	0.0955
324.1122	0.0986
324.3229	0.0938
324.5337	0.1017
324.7444	0.0861
324.9551	0.117
325.1658	0.1027
325.3765	0.1004
325.5872	0.0961
325.7979	0.0986
326.0085	0.1036
326.2192	0.1022
326.4298	0.1005
326.6404	0.0948
326.851	0.0924
327.0616	0.105
327.2722	0.1054
327.4828	0.1097
327.6933	0.1045
327.9039	0.1134
328.1144	0.1196
328.3249	0.1053
328.5354	0.0871
328.7459	0.1024
328.9564	0.0885
329.1669	0.1028
329.3773	0.0986
329.5878	0.1081
329.7982	0.0992
330.0086	0.0976
330.219	0.1042
330.4294	0.1011
330.6398	0.1139
330.8502	0.1028
331.0605	0.1047
331.2708	0.099
331.4812	0.1096
331.6915	0.0999
331.9018	0.1015
332.1121	0.1031
332.3224	0.1049
332.5326	0.1139
332.7429	0.097
332.9531	0.1191
333.1633	0.1179
333.3735	0.1024
333.5837	0.1001
333.7939	0.1019
334.0041	0.1145
334.2143	0.1144
334.4244	0.0991
334.6346	0.0854
334.8447	0.1218
335.0548	0.0982
335.2649	0.1059
335.475	0.1094
335.685	0.0999
335.8951	0.1139
336.1051	0.1082
336.3152	0.1172
336.5252	0.1083
336.7352	0.1247
336.9452	0.1124
337.1552	0.1106
337.3652	0.1092
337.5751	0.1084
337.7851	0.1158
337.995	0.0879
338.2049	0.1109
338.4148	0.1087
338.6247	0.1083
338.8346	0.1144
339.0445	0.1028
339.2543	0.1143
339.4642	0.1146
339.674	0.1102
339.8838	0.1084
340.0936	0.1111
340.3034	0.1258
340.5132	0.13
340.7229	0.1075
340.9327	0.1052
341.1424	0.1034
341.3522	0.1296
341.5619	0.1133
341.7716	0.1141
341.9813	0.1196
342.1909	0.11
342.4006	0.113
342.6102	0.1282
342.8199	0.132
343.0295	0.1165
343.2391	0.1284
343.4487	0.125
343.6583	0.1239
343.8679	0.1186
344.0774	0.124
344.287	0.1348
344.4965	0.1207
344.706	0.1221
344.9155	0.1094
345.125	0.114
345.3345	0.132
345.544	0.1225
345.7534	0.1265
345.9629	0.1086
346.1723	0.1144
346.3817	0.119
346.5911	0.121
346.8005	0.1292
347.0099	0.1275
347.2193	0.134
347.4286	0.1234
347.638	0.1396
347.8473	0.1241
348.0566	0.1178
348.2659	0.1357
348.4752	0.1373
348.6845	0.1286
348.8937	0.1198
349.103	0.1343
349.3122	0.134
349.5214	0.1286
349.7306	0.1361
349.9398	0.1444
350.149	0.1245
350.3582	0.1294
350.5674	0.1453
350.7765	0.1489
350.9856	0.1366
351.1948	0.1398
351.4039	0.1237
351.613	0.1262
351.822	0.1428
352.0311	0.1629
352.2402	0.1474
352.4492	0.1487
352.6582	0.1432
352.8672	0.1468
353.0762	0.1391
353.2852	0.1472
353.4942	0.1384
353.7032	0.1601
353.9121	0.1472
354.1211	0.153
354.33	0.1502
354.5389	0.146
354.7478	0.1365
354.9567	0.1481
355.1655	0.1346
355.3744	0.1449
355.5833	0.1646
355.7921	0.1668
356.0009	0.1409
356.2097	0.1801
356.4185	0.172
356.6273	0.1751
356.8361	0.1622
357.0448	0.1644
357.2536	0.1539
357.4623	0.1591
357.671	0.156
357.8797	0.1665
358.0884	0.1712
358.2971	0.1689
358.5057	0.1686
358.7144	0.1758
358.923	0.1607
359.1316	0.1654
359.3402	0.1681
359.5488	0.1609
359.7574	0.155
359.966	0.1902
360.1746	0.1761
360.3831	0.1899
360.5916	0.1635
360.8002	0.1703
361.0087	0.1843
361.2172	0.1668
361.4256	0.1795
361.6341	0.183
361.8426	0.1807
362.051	0.1911
362.2594	0.1716
362.4678	0.1837
362.6762	0.195
362.8846	0.1963
363.093	0.1913
363.3014	0.1793
363.5097	0.1686
363.718	0.1958
363.9264	0.1869
364.1347	0.184
364.343	0.1915
364.5513	0.1901
364.7595	0.216
364.9678	0.1903
365.176	0.1779
365.3842	0.1961
365.5925	0.1827
365.8007	0.2121
366.0089	0.2011
366.217	0.2059
366.4252	0.2045
366.6333	0.2156
366.8415	0.2147
367.0496	0.2077
367.2577	0.2153
367.4658	0.2155
367.6739	0.2188
367.882	0.2131
368.09	0.1995
368.2981	0.2239
368.5061	0.2116
368.7141	0.2228
368.9221	0.2127
369.1301	0.2145
369.3381	0.2161
369.5461	0.2034
369.754	0.2175
369.962	0.2178
370.1699	0.2192
370.3778	0.2197
370.5857	0.2067
370.7936	0.2205
371.0015	0.2167
371.2093	0.2327
371.4172	0.2289
371.625	0.2289
371.8328	0.2254
372.0406	0.2376
372.2484	0.2283
372.4562	0.243
372.664	0.2352
372.8717	0.2341
373.0795	0.2177
373.2872	0.238
373.4949	0.2296
373.7026	0.2314
373.9103	0.2416
374.118	0.24
374.3256	0.2337
374.5333	0.2392
374.7409	0.2234
374.9485	0.2459
375.1561	0.2468
375.3637	0.2463
375.5713	0.2503
375.7789	0.2347
375.9864	0.2484
376.194	0.2398
376.4015	0.2514
376.609	0.2526
376.8165	0.2439
377.024	0.2456
377.2315	0.2454
377.4389	0.2481
377.6464	0.2538
377.8538	0.2629
378.0612	0.2426
378.2686	0.2663
378.476	0.2502
378.6834	0.2593
378.8908	0.2656
379.0981	0.266
379.3055	0.2763
379.5128	0.2513
379.7201	0.2525
379.9274	0.2367
380.1347	0.2593
380.342	0.2634
380.5492	0.2414
380.7565	0.2606
380.9637	0.2552
381.1709	0.2547
381.3781	0.2531
381.5853	0.2712
381.7925	0.2724
381.9997	0.2585
382.2068	0.2666
382.4139	0.2731
382.6211	0.2568
382.8282	0.2513
383.0353	0.2572
383.2424	0.2654
383.4494	0.2762
383.6565	0.2527
383.8635	0.2587
384.0706	0.2584
384.2776	0.2747
384.4846	0.2566
384.6916	0.2774
384.8986	0.2623
385.1055	0.2726
385.3125	0.2668
385.5194	0.2469
385.7263	0.2771
385.9333	0.2766
386.1402	0.2546
386.347	0.2535
386.5539	0.2624
386.7608	0.2822
386.9676	0.2802
387.1744	0.2623
387.3813	0.2541
387.5881	0.2722
387.7948	0.2689
388.0016	0.265
388.2084	0.2635
388.4151	0.2452
388.6219	0.291
388.8286	0.2561
389.0353	0.3034
389.242	0.2715
389.4487	0.2543
389.6553	0.2608
389.862	0.2298
390.0686	0.2581
390.2753	0.2605
390.4819	0.2474
390.6885	0.2588
390.8951	0.2482
391.1016	0.241
391.3082	0.2499
391.5147	0.2453
391.7213	0.2628
391.9278	0.2403
392.1343	0.2337
392.3408	0.2451
392.5473	0.2299
392.7537	0.2421
392.9602	0.2443
393.1666	0.2551
393.373	0.2424
393.5794	0.2398
393.7858	0.2433
393.9922	0.2293
394.1986	0.2465
394.4049	0.2463
394.6113	0.2331
394.8176	0.2294
395.0239	0.2196
395.2302	0.2295
395.4365	0.2485
395.6428	0.2361
395.8491	0.2265
396.0553	0.235
396.2615	0.239
396.4678	0.2283
396.674	0.2
396.8802	0.217
397.0863	0.2327
397.2925	0.2152
397.4987	0.2133
397.7048	0.2246
397.9109	0.2331
398.117	0.2224
398.3231	0.212
398.5292	0.225
398.7353	0.2239
398.9413	0.2222
399.1474	0.2288
399.3534	0.2143
399.5594	0.2083
399.7654	0.2357
399.9714	0.2486
400.1774	0.2152
400.3833	0.2159
400.5893	0.2292
400.7952	0.2159
401.0011	0.2168
401.207	0.2283
401.4129	0.2261
401.6188	0.2244
401.8247	0.2426
402.0305	0.2203
402.2364	0.2209
402.4422	0.2461
402.648	0.2056
402.8538	0.2261
403.0596	0.2132
403.2654	0.2311
403.4711	0.2276
403.6768	0.2435
403.8826	0.22
404.0883	0.229
404.294	0.2291
404.4997	0.2235
404.7054	0.2239
404.911	0.2196
405.1167	0.2249
405.3223	0.2487
405.5279	0.2331
405.7335	0.243
405.9391	0.2416
406.1447	0.2321
406.3502	0.2469
406.5558	0.2179
406.7613	0.2294
406.9668	0.2197
407.1724	0.2194
407.3778	0.2184
407.5833	0.2178
407.7888	0.224
407.9942	0.216
408.1997	0.2271
408.4051	0.2178
408.6105	0.204
408.8159	0.1975
409.0213	0.202
409.2267	0.2274
409.432	0.2115
409.6374	0.2236
409.8427	0.2233
410.048	0.2087
410.2533	0.2205
410.4586	0.2265
410.6639	0.2034
410.8691	0.2235
411.0744	0.2104
411.2796	0.2232
411.4848	0.2252
411.69	0.2139
411.8952	0.25
412.1004	0.2201
412.3056	0.2281
412.5107	0.2229
412.7158	0.2298
412.921	0.2173
413.1261	0.2124
413.3312	0.2115
413.5362	0.2182
413.7413	0.2124
413.9464	0.2142
414.1514	0.2036
414.3564	0.2063
414.5614	0.2187
414.7664	0.2068
414.9714	0.2339
415.1764	0.2207
415.3813	0.2227
415.5863	0.2221
415.7912	0.219
415.9961	0.2178
416.201	0.2073
416.4059	0.2296
416.6108	0.2066
416.8156	0.2039
417.0205	0.2174
417.2253	0.1927
417.4301	0.2232
417.6349	0.2064
417.8397	0.2226
418.0445	0.2158
418.2492	0.213
418.454	0.2067
418.6587	0.2023
418.8634	0.2177
419.0681	0.1897
419.2728	0.2162
419.4775	0.219
419.6822	0.2169
419.8868	0.203
420.0915	0.2013
420.2961	0.1831
420.5007	0.2023
420.7053	0.2016
420.9099	0.1998
421.1144	0.2143
421.319	0.1911
421.5235	0.215
421.728	0.2015
421.9325	0.2034
422.137	0.2124
422.3415	0.1928
422.546	0.1986
422.7504	0.2009
422.9549	0.1898
423.1593	0.2067
423.3637	0.2135
423.5681	0.1905
423.7725	0.1825
423.9769	0.1803
424.1812	0.1664
424.3856	0.1831
424.5899	0.1885
424.7942	0.1875
424.9985	0.1874
425.2028	0.1824
425.4071	0.2139
425.6113	0.1717
425.8156	0.191
426.0198	0.1928
426.224	0.1719
426.4282	0.1768
426.6324	0.1743
426.8366	0.1683
