Data from MonoPyChalIsomerACN10uM400nmA_Absorbance_12-08-42-129.txt Node
Date: Fri Jul 05 12:08:42 BST 2024
User: LASERRRRR
Spectrometer: FLMT03099
Trigger mode: 0
Integration Time (sec): 1.000000E-1
Scans to average: 1
Electric dark correction enabled: true
Nonlinearity correction enabled: false
Boxcar width: 0
XAxis mode: Wavelengths
Number of Pixels in Spectrum: 3648
>>>>>Begin Spectral Data<<<<<
179.3399	0.4016
179.5586	0.4016
179.7771	0.4016
179.9957	0.8228
180.2143	0.1235
180.4329	-0
180.6514	-0.7746
180.8699	0.1632
181.0885	-0.0987
181.307	-0.1601
181.5255	-0.4628
181.744	0.0303
181.9625	-0.3558
182.181	-0
182.3994	-0.5346
182.6179	-0.26
182.8363	-0.0477
183.0547	0.0313
183.2732	0.1546
183.4916	0.1345
183.71	0.1209
183.9284	0.1535
184.1467	0.03
184.3651	0.0139
184.5835	0.0722
184.8018	-0.0382
185.0201	0.356
185.2385	-0.0202
185.4568	0.1727
185.6751	0.0168
185.8934	0.0887
186.1117	0.1098
186.3299	-0.0424
186.5482	-0.0447
186.7664	0.3656
186.9847	0.0215
187.2029	0.1702
187.4211	-0.2451
187.6393	-0.1487
187.8575	-0.0288
188.0757	0.0867
188.2939	0.0841
188.512	0.0169
188.7302	-0.0987
188.9483	0.075
189.1665	0.1166
189.3846	0.5144
189.6027	0.1621
189.8208	0.124
190.0389	0.1906
190.257	0.3196
190.475	0.1032
190.6931	0.2115
190.9111	0.2336
191.1292	0.635
191.3472	0.3957
191.5652	0.2138
191.7832	0.4133
192.0012	0.447
192.2192	0.7174
192.4371	0.3622
192.6551	0.3279
192.873	0.5112
193.091	0.37
193.3089	0.4348
193.5268	0.605
193.7447	0.4003
193.9626	0.5669
194.1805	0.3761
194.3984	0.3159
194.6162	0.4623
194.8341	0.66
195.0519	0.6786
195.2697	0.6169
195.4875	0.5786
195.7054	0.5952
195.9231	0.5533
196.1409	0.5392
196.3587	0.4655
196.5765	0.7729
196.7942	0.6963
197.012	0.7777
197.2297	0.8091
197.4474	0.6572
197.6651	0.5751
197.8828	0.6175
198.1005	0.6629
198.3182	0.7521
198.5358	0.8218
198.7535	0.6012
198.9711	0.5754
199.1888	0.7414
199.4064	0.6935
199.624	0.7095
199.8416	0.7049
200.0592	0.7904
200.2767	0.741
200.4943	0.6928
200.7119	0.7518
200.9294	0.8205
201.1469	0.9519
201.3645	0.6869
201.582	0.6566
201.7995	1.3025
202.017	0.8657
202.2344	0.519
202.4519	0.8257
202.6694	0.9845
202.8868	0.881
203.1042	0.74
203.3217	0.7487
203.5391	0.7803
203.7565	0.7529
203.9739	0.7449
204.1913	0.7947
204.4086	0.8486
204.626	0.6986
204.8433	0.945
205.0607	0.7088
205.278	0.8145
205.4953	0.768
205.7126	0.6205
205.9299	0.7836
206.1472	0.7136
206.3644	0.6824
206.5817	0.7833
206.7989	0.7219
207.0162	0.8061
207.2334	0.8353
207.4506	0.6952
207.6678	0.81
207.885	0.6972
208.1022	0.7459
208.3194	0.7179
208.5365	0.7736
208.7537	0.7544
208.9708	0.7399
209.1879	0.8558
209.405	0.6717
209.6222	0.9437
209.8392	0.7719
210.0563	0.7517
210.2734	0.7684
210.4905	0.7592
210.7075	0.7336
210.9245	0.7648
211.1416	0.7146
211.3586	0.7731
211.5756	0.7167
211.7926	0.7449
212.0096	0.6726
212.2265	0.7168
212.4435	0.697
212.6604	0.796
212.8774	0.7918
213.0943	0.7691
213.3112	0.7034
213.5281	0.71
213.745	0.7037
213.9619	0.7162
214.1788	0.7176
214.3956	0.66
214.6125	0.6565
214.8293	0.7084
215.0461	0.7046
215.2629	0.6256
215.4798	0.6913
215.6965	0.7239
215.9133	0.6834
216.1301	0.6222
216.3469	0.6568
216.5636	0.6553
216.7803	0.6411
216.9971	0.6351
217.2138	0.7198
217.4305	0.6289
217.6472	0.6116
217.8639	0.6007
218.0805	0.5975
218.2972	0.6075
218.5138	0.6128
218.7305	0.5668
218.9471	0.5539
219.1637	0.5675
219.3803	0.5258
219.5969	0.5791
219.8135	0.5974
220.0301	0.5582
220.2466	0.5527
220.4632	0.5712
220.6797	0.5683
220.8962	0.5182
221.1127	0.5248
221.3292	0.5864
221.5457	0.6009
221.7622	0.5781
221.9787	0.5235
222.1951	0.5271
222.4116	0.5485
222.628	0.5993
222.8444	0.5353
223.0608	0.5376
223.2772	0.5319
223.4936	0.5621
223.71	0.5863
223.9264	0.5386
224.1427	0.5572
224.3591	0.5522
224.5754	0.5738
224.7917	0.5532
225.008	0.565
225.2243	0.5345
225.4406	0.5575
225.6569	0.5561
225.8732	0.6049
226.0894	0.5432
226.3057	0.5786
226.5219	0.5361
226.7381	0.5996
226.9543	0.5744
227.1705	0.5624
227.3867	0.5556
227.6029	0.5718
227.8191	0.5721
228.0352	0.5667
228.2513	0.5705
228.4675	0.5663
228.6836	0.6007
228.8997	0.5657
229.1158	0.5592
229.3319	0.5826
229.548	0.6198
229.764	0.5862
229.9801	0.5933
230.1961	0.5565
230.4121	0.5877
230.6282	0.583
230.8442	0.5628
231.0602	0.5591
231.2761	0.5862
231.4921	0.5845
231.7081	0.5571
231.924	0.6086
232.14	0.6114
232.3559	0.5926
232.5718	0.5694
232.7877	0.5834
233.0036	0.579
233.2195	0.5857
233.4353	0.6143
233.6512	0.5812
233.867	0.5813
234.0829	0.5551
234.2987	0.5884
234.5145	0.5219
234.7303	0.5625
234.9461	0.5375
235.1619	0.5802
235.3776	0.5835
235.5934	0.5605
235.8091	0.5555
236.0249	0.5431
236.2406	0.5588
236.4563	0.568
236.672	0.5523
236.8877	0.5456
237.1034	0.5484
237.319	0.5389
237.5347	0.5572
237.7503	0.5353
237.966	0.5323
238.1816	0.5554
238.3972	0.5515
238.6128	0.5115
238.8284	0.5228
239.0439	0.5428
239.2595	0.5425
239.475	0.5352
239.6906	0.5504
239.9061	0.5121
240.1216	0.5114
240.3371	0.5163
240.5526	0.538
240.7681	0.5286
240.9836	0.5122
241.199	0.4982
241.4145	0.5012
241.6299	0.5022
241.8453	0.4848
242.0607	0.4911
242.2761	0.4868
242.4915	0.4638
242.7069	0.45
242.9223	0.464
243.1376	0.4345
243.353	0.4355
243.5683	0.43
243.7836	0.3977
243.9989	0.4295
244.2142	0.401
244.4295	0.3751
244.6448	0.4004
244.86	0.383
245.0753	0.3589
245.2905	0.3891
245.5057	0.3656
245.721	0.3589
245.9362	0.325
246.1514	0.3339
246.3665	0.3306
246.5817	0.3238
246.7969	0.3287
247.012	0.3177
247.2271	0.3217
247.4423	0.3007
247.6574	0.3002
247.8725	0.2943
248.0876	0.3048
248.3026	0.2717
248.5177	0.2889
248.7328	0.2779
248.9478	0.2734
249.1628	0.2635
249.3779	0.2651
249.5929	0.2673
249.8079	0.249
250.0228	0.2597
250.2378	0.2586
250.4528	0.2415
250.6677	0.222
250.8827	0.2423
251.0976	0.2416
251.3125	0.2561
251.5274	0.226
251.7423	0.2344
251.9572	0.2321
252.172	0.2158
252.3869	0.2209
252.6017	0.2289
252.8166	0.2087
253.0314	0.1952
253.2462	0.2162
253.461	0.223
253.6758	0.2063
253.8906	0.209
254.1053	0.2015
254.3201	0.2082
254.5348	0.2064
254.7496	0.2064
254.9643	0.201
255.179	0.1921
255.3937	0.2085
255.6083	0.1975
255.823	0.1951
256.0377	0.1813
256.2523	0.197
256.467	0.1988
256.6816	0.1935
256.8962	0.1987
257.1108	0.1892
257.3254	0.1895
257.54	0.187
257.7545	0.1983
257.9691	0.2025
258.1836	0.189
258.3981	0.1976
258.6127	0.1881
258.8272	0.1981
259.0417	0.1774
259.2561	0.1808
259.4706	0.2023
259.6851	0.1856
259.8995	0.1868
260.114	0.1863
260.3284	0.1798
260.5428	0.1892
260.7572	0.2092
260.9716	0.1903
261.186	0.1824
261.4003	0.186
261.6147	0.1985
261.829	0.1866
262.0433	0.1743
262.2577	0.186
262.472	0.1778
262.6863	0.1865
262.9005	0.1942
263.1148	0.1834
263.3291	0.1826
263.5433	0.1836
263.7576	0.1879
263.9718	0.1819
264.186	0.1851
264.4002	0.1986
264.6144	0.184
264.8286	0.1907
265.0427	0.1899
265.2569	0.1912
265.471	0.1755
265.6851	0.173
265.8993	0.1712
266.1134	0.1749
266.3275	0.1868
266.5415	0.1935
266.7556	0.192
266.9697	0.1879
267.1837	0.179
267.3978	0.1872
267.6118	0.1957
267.8258	0.1921
268.0398	0.1823
268.2538	0.1918
268.4677	0.1853
268.6817	0.1898
268.8957	0.194
269.1096	0.1817
269.3235	0.1864
269.5374	0.1776
269.7514	0.1678
269.9652	0.1764
270.1791	0.1723
270.393	0.1739
270.6068	0.1853
270.8207	0.1841
271.0345	0.1681
271.2483	0.1834
271.4622	0.1704
271.676	0.1767
271.8897	0.1842
272.1035	0.1693
272.3173	0.1749
272.531	0.1619
272.7448	0.1692
272.9585	0.174
273.1722	0.1701
273.3859	0.159
273.5996	0.1714
273.8133	0.1638
274.0269	0.1722
274.2406	0.1721
274.4542	0.1829
274.6679	0.173
274.8815	0.1719
275.0951	0.1781
275.3087	0.172
275.5223	0.1683
275.7358	0.1783
275.9494	0.161
276.1629	0.1687
276.3765	0.1735
276.59	0.1768
276.8035	0.1702
277.017	0.1656
277.2305	0.1758
277.444	0.173
277.6574	0.1707
277.8709	0.1637
278.0843	0.1738
278.2978	0.177
278.5112	0.1783
278.7246	0.1765
278.938	0.1746
279.1513	0.1762
279.3647	0.1709
279.5781	0.1696
279.7914	0.1819
280.0047	0.1788
280.2181	0.1677
280.4314	0.1829
280.6447	0.1874
280.8579	0.1884
281.0712	0.1885
281.2845	0.1785
281.4977	0.181
281.711	0.1727
281.9242	0.1804
282.1374	0.1685
282.3506	0.1751
282.5638	0.1868
282.7769	0.1802
282.9901	0.1908
283.2033	0.1815
283.4164	0.1664
283.6295	0.1781
283.8426	0.1811
284.0557	0.181
284.2688	0.1779
284.4819	0.1781
284.695	0.1865
284.908	0.1809
285.1211	0.185
285.3341	0.1856
285.5471	0.1977
285.7601	0.181
285.9731	0.1916
286.1861	0.1943
286.3991	0.1675
286.612	0.1883
286.825	0.1805
287.0379	0.1813
287.2508	0.1788
287.4637	0.1937
287.6766	0.1786
287.8895	0.1907
288.1024	0.1876
288.3152	0.1861
288.5281	0.1824
288.7409	0.1711
288.9538	0.1761
289.1666	0.1865
289.3794	0.187
289.5922	0.1759
289.8049	0.1844
290.0177	0.1735
290.2304	0.1748
290.4432	0.1761
290.6559	0.1883
290.8686	0.1843
291.0813	0.1858
291.294	0.1859
291.5067	0.1889
291.7194	0.1784
291.932	0.1914
292.1447	0.1916
292.3573	0.1888
292.5699	0.1906
292.7825	0.1834
292.9951	0.1926
293.2077	0.1882
293.4203	0.1885
293.6328	0.1936
293.8454	0.1791
294.0579	0.1978
294.2704	0.1778
294.4829	0.1836
294.6954	0.1892
294.9079	0.1897
295.1204	0.1933
295.3328	0.1624
295.5453	0.1682
295.7577	0.1708
295.9701	0.1865
296.1825	0.1793
296.3949	0.1829
296.6073	0.1773
296.8197	0.1769
297.0321	0.1705
297.2444	0.178
297.4567	0.1835
297.6691	0.1763
297.8814	0.1876
298.0937	0.181
298.306	0.1781
298.5182	0.1778
298.7305	0.1854
298.9428	0.1866
299.155	0.1797
299.3672	0.1632
299.5794	0.1742
299.7916	0.1716
300.0038	0.1801
300.216	0.1724
300.4282	0.174
300.6403	0.1769
300.8525	0.1769
301.0646	0.1776
301.2767	0.1838
301.4888	0.1744
301.7009	0.1734
301.913	0.1832
302.125	0.1822
302.3371	0.178
302.5491	0.1671
302.7612	0.1753
302.9732	0.1788
303.1852	0.176
303.3972	0.1767
303.6092	0.1779
303.8211	0.1805
304.0331	0.1645
304.245	0.1701
304.457	0.1742
304.6689	0.1692
304.8808	0.1664
305.0927	0.1616
305.3046	0.1655
305.5164	0.1703
305.7283	0.1683
305.9401	0.1715
306.152	0.156
306.3638	0.1591
306.5756	0.1646
306.7874	0.1624
306.9992	0.1415
307.2109	0.1499
307.4227	0.1639
307.6344	0.1447
307.8462	0.144
308.0579	0.1512
308.2696	0.1511
308.4813	0.1357
308.693	0.1459
308.9046	0.1385
309.1163	0.1383
309.328	0.1358
309.5396	0.1359
309.7512	0.1266
309.9628	0.1298
310.1744	0.1251
310.386	0.1145
310.5976	0.1238
310.8091	0.123
311.0207	0.1329
311.2322	0.1212
311.4437	0.1296
311.6552	0.1285
311.8667	0.1265
312.0782	0.1184
312.2897	0.1084
312.5012	0.1171
312.7126	0.1257
312.924	0.1207
313.1355	0.1311
313.3469	0.1205
313.5583	0.1033
313.7696	0.1168
313.981	0.1297
314.1924	0.11
314.4037	0.1109
314.6151	0.1129
314.8264	0.1068
315.0377	0.1121
315.249	0.0979
315.4603	0.1088
315.6716	0.1056
315.8828	0.1046
316.0941	0.1036
316.3053	0.1054
316.5165	0.1014
316.7277	0.0921
316.9389	0.1098
317.1501	0.1125
317.3613	0.0885
317.5724	0.1125
317.7836	0.1063
317.9947	0.1099
318.2058	0.1195
318.417	0.1193
318.6281	0.1105
318.8391	0.1068
319.0502	0.1
319.2613	0.1065
319.4723	0.1031
319.6834	0.1046
319.8944	0.11
320.1054	0.0911
320.3164	0.1117
320.5274	0.0921
320.7383	0.1056
320.9493	0.0941
321.1602	0.1134
321.3712	0.0941
321.5821	0.0953
321.793	0.1039
322.0039	0.1027
322.2148	0.1174
322.4257	0.0989
322.6365	0.1129
322.8474	0.0885
323.0582	0.1064
323.269	0.1068
323.4798	0.1116
323.6906	0.0929
323.9014	0.1093
324.1122	0.1035
324.3229	0.1072
324.5337	0.1065
324.7444	0.1023
324.9551	0.1064
325.1658	0.1054
325.3765	0.1038
325.5872	0.1049
325.7979	0.1096
326.0085	0.1025
326.2192	0.085
326.4298	0.1131
326.6404	0.1215
326.851	0.1095
327.0616	0.1134
327.2722	0.1144
327.4828	0.115
327.6933	0.1144
327.9039	0.093
328.1144	0.1121
328.3249	0.1026
328.5354	0.0943
328.7459	0.11
328.9564	0.1103
329.1669	0.1161
329.3773	0.108
329.5878	0.1069
329.7982	0.1119
330.0086	0.116
330.219	0.1078
330.4294	0.1136
330.6398	0.1109
330.8502	0.1181
331.0605	0.121
331.2708	0.1044
331.4812	0.1024
331.6915	0.1018
331.9018	0.1075
332.1121	0.1064
332.3224	0.1106
332.5326	0.1088
332.7429	0.1015
332.9531	0.1031
333.1633	0.117
333.3735	0.1093
333.5837	0.1077
333.7939	0.1015
334.0041	0.1155
334.2143	0.0999
334.4244	0.1152
334.6346	0.0992
334.8447	0.1141
335.0548	0.1159
335.2649	0.1217
335.475	0.1017
335.685	0.104
335.8951	0.117
336.1051	0.1029
336.3152	0.1147
336.5252	0.1174
336.7352	0.1213
336.9452	0.1102
337.1552	0.1121
337.3652	0.1139
337.5751	0.1125
337.7851	0.1093
337.995	0.1163
338.2049	0.1007
338.4148	0.1276
338.6247	0.1032
338.8346	0.1248
339.0445	0.1041
339.2543	0.1186
339.4642	0.1261
339.674	0.1141
339.8838	0.1177
340.0936	0.1219
340.3034	0.1257
340.5132	0.1125
340.7229	0.1177
340.9327	0.1133
341.1424	0.1138
341.3522	0.1109
341.5619	0.1067
341.7716	0.1239
341.9813	0.1207
342.1909	0.1197
342.4006	0.1208
342.6102	0.11
342.8199	0.1114
343.0295	0.1164
343.2391	0.1257
343.4487	0.1189
343.6583	0.1178
343.8679	0.1377
344.0774	0.1349
344.287	0.1157
344.4965	0.1229
344.706	0.1351
344.9155	0.1294
345.125	0.1154
345.3345	0.1324
345.544	0.1329
345.7534	0.1377
345.9629	0.1247
346.1723	0.1295
346.3817	0.1298
346.5911	0.1283
346.8005	0.1212
347.0099	0.1254
347.2193	0.1316
347.4286	0.133
347.638	0.13
347.8473	0.1283
348.0566	0.1433
348.2659	0.1276
348.4752	0.1498
348.6845	0.1478
348.8937	0.1336
349.103	0.1249
349.3122	0.1386
349.5214	0.1404
349.7306	0.1343
349.9398	0.1309
350.149	0.1435
350.3582	0.1335
350.5674	0.1545
350.7765	0.144
350.9856	0.1504
351.1948	0.1397
351.4039	0.1454
351.613	0.1455
351.822	0.1439
352.0311	0.1407
352.2402	0.1362
352.4492	0.1465
352.6582	0.1286
352.8672	0.1305
353.0762	0.1463
353.2852	0.1536
353.4942	0.1498
353.7032	0.1505
353.9121	0.1339
354.1211	0.1476
354.33	0.1594
354.5389	0.1573
354.7478	0.1489
354.9567	0.1542
355.1655	0.1603
355.3744	0.1503
355.5833	0.1767
355.7921	0.1686
356.0009	0.1683
356.2097	0.1623
356.4185	0.1509
356.6273	0.1595
356.8361	0.1508
357.0448	0.1545
357.2536	0.1476
357.4623	0.1604
357.671	0.1734
357.8797	0.1523
358.0884	0.1727
358.2971	0.1767
358.5057	0.184
358.7144	0.165
358.923	0.1737
359.1316	0.153
359.3402	0.1858
359.5488	0.1717
359.7574	0.1912
359.966	0.1656
360.1746	0.1631
360.3831	0.1705
360.5916	0.164
360.8002	0.1778
361.0087	0.1868
361.2172	0.1655
361.4256	0.18
361.6341	0.1831
361.8426	0.1759
362.051	0.1775
362.2594	0.1883
362.4678	0.1829
362.6762	0.188
362.8846	0.1808
363.093	0.1704
363.3014	0.1867
363.5097	0.1773
363.718	0.1931
363.9264	0.2031
364.1347	0.179
364.343	0.1836
364.5513	0.1887
364.7595	0.1859
364.9678	0.1966
365.176	0.1926
365.3842	0.1831
365.5925	0.1928
365.8007	0.1957
366.0089	0.2153
366.217	0.2005
366.4252	0.2021
366.6333	0.1989
366.8415	0.1895
367.0496	0.2072
367.2577	0.2108
367.4658	0.2165
367.6739	0.2129
367.882	0.21
368.09	0.2182
368.2981	0.2073
368.5061	0.1956
368.7141	0.2052
368.9221	0.2044
369.1301	0.2072
369.3381	0.2078
369.5461	0.2214
369.754	0.2051
369.962	0.2119
370.1699	0.2105
370.3778	0.219
370.5857	0.2242
370.7936	0.206
371.0015	0.2253
371.2093	0.2311
371.4172	0.2154
371.625	0.2154
371.8328	0.214
372.0406	0.2169
372.2484	0.2042
372.4562	0.2292
372.664	0.223
372.8717	0.2025
373.0795	0.2194
373.2872	0.2347
373.4949	0.2079
373.7026	0.2274
373.9103	0.2256
374.118	0.2164
374.3256	0.2338
374.5333	0.2278
374.7409	0.2115
374.9485	0.2263
375.1561	0.2299
375.3637	0.2167
375.5713	0.2188
375.7789	0.2314
375.9864	0.2371
376.194	0.2432
376.4015	0.2303
376.609	0.2329
376.8165	0.2231
377.024	0.2243
377.2315	0.2392
377.4389	0.2305
377.6464	0.2308
377.8538	0.2274
378.0612	0.2405
378.2686	0.2699
378.476	0.2278
378.6834	0.2464
378.8908	0.2332
379.0981	0.2389
379.3055	0.2563
379.5128	0.2493
379.7201	0.243
379.9274	0.228
380.1347	0.2422
380.342	0.2295
380.5492	0.2469
380.7565	0.2506
380.9637	0.2501
381.1709	0.2519
381.3781	0.2542
381.5853	0.2344
381.7925	0.253
381.9997	0.2421
382.2068	0.2638
382.4139	0.2507
382.6211	0.2571
382.8282	0.2614
383.0353	0.2511
383.2424	0.2492
383.4494	0.2486
383.6565	0.252
383.8635	0.2589
384.0706	0.2713
384.2776	0.2526
384.4846	0.2555
384.6916	0.2662
384.8986	0.2472
385.1055	0.2524
385.3125	0.2467
385.5194	0.2523
385.7263	0.2381
385.9333	0.2434
386.1402	0.2456
386.347	0.2596
386.5539	0.2468
386.7608	0.2472
386.9676	0.2508
387.1744	0.2532
387.3813	0.2414
387.5881	0.2536
387.7948	0.2584
388.0016	0.2588
388.2084	0.2547
388.4151	0.254
388.6219	0.2475
388.8286	0.2213
389.0353	0.2423
389.242	0.2677
389.4487	0.2595
389.6553	0.2288
389.862	0.2459
390.0686	0.258
390.2753	0.2555
390.4819	0.258
390.6885	0.2453
390.8951	0.2377
391.1016	0.2507
391.3082	0.2411
391.5147	0.2257
391.7213	0.2303
391.9278	0.2439
392.1343	0.2295
392.3408	0.2434
392.5473	0.2225
392.7537	0.2199
392.9602	0.2425
393.1666	0.2219
393.373	0.221
393.5794	0.2287
393.7858	0.2194
393.9922	0.246
394.1986	0.2371
394.4049	0.2099
394.6113	0.2094
394.8176	0.2197
395.0239	0.2255
395.2302	0.2327
395.4365	0.2167
395.6428	0.2157
395.8491	0.2207
396.0553	0.2336
396.2615	0.2264
396.4678	0.2171
396.674	0.2144
396.8802	0.2144
397.0863	0.2145
397.2925	0.2272
397.4987	0.2229
397.7048	0.2205
397.9109	0.2195
398.117	0.2019
398.3231	0.2166
398.5292	0.2216
398.7353	0.2115
398.9413	0.2092
399.1474	0.2037
399.3534	0.2061
399.5594	0.2133
399.7654	0.2173
399.9714	0.2022
400.1774	0.2066
400.3833	0.2306
400.5893	0.1916
400.7952	0.231
401.0011	0.2257
401.207	0.2082
401.4129	0.2083
401.6188	0.2111
401.8247	0.2112
402.0305	0.2084
402.2364	0.2094
402.4422	0.2154
402.648	0.2133
402.8538	0.2004
403.0596	0.1952
403.2654	0.2222
403.4711	0.2096
403.6768	0.2071
403.8826	0.2373
404.0883	0.1855
404.294	0.2139
404.4997	0.1934
404.7054	0.2055
404.911	0.2086
405.1167	0.2018
405.3223	0.2166
405.5279	0.2155
405.7335	0.2198
405.9391	0.2209
406.1447	0.2281
406.3502	0.2128
406.5558	0.2142
406.7613	0.2255
406.9668	0.1974
407.1724	0.2035
407.3778	0.2237
407.5833	0.2233
407.7888	0.2027
407.9942	0.2078
408.1997	0.2086
408.4051	0.2022
408.6105	0.2005
408.8159	0.2185
409.0213	0.2059
409.2267	0.2044
409.432	0.2124
409.6374	0.211
409.8427	0.2019
410.048	0.2149
410.2533	0.2208
410.4586	0.1811
410.6639	0.2084
410.8691	0.191
411.0744	0.2249
411.2796	0.1881
411.4848	0.2066
411.69	0.1899
411.8952	0.2053
412.1004	0.2003
412.3056	0.1987
412.5107	0.189
412.7158	0.1944
412.921	0.2393
413.1261	0.1942
413.3312	0.2087
413.5362	0.2102
413.7413	0.2098
413.9464	0.2209
414.1514	0.2187
414.3564	0.1939
414.5614	0.1882
414.7664	0.2045
414.9714	0.2159
415.1764	0.2061
415.3813	0.1847
415.5863	0.1944
415.7912	0.2049
415.9961	0.2164
416.201	0.208
416.4059	0.2002
416.6108	0.2189
416.8156	0.2234
417.0205	0.2009
417.2253	0.2036
417.4301	0.2078
417.6349	0.1993
417.8397	0.1738
418.0445	0.2125
418.2492	0.1901
418.454	0.2029
418.6587	0.2051
418.8634	0.2189
419.0681	0.2009
419.2728	0.1751
419.4775	0.2065
419.6822	0.218
419.8868	0.2088
420.0915	0.1793
420.2961	0.197
420.5007	0.1961
420.7053	0.187
420.9099	0.166
421.1144	0.2035
421.319	0.1913
421.5235	0.2201
421.728	0.166
421.9325	0.1973
422.137	0.1869
422.3415	0.1867
422.546	0.1929
422.7504	0.1912
422.9549	0.1803
423.1593	0.1812
423.3637	0.1982
423.5681	0.185
423.7725	0.1581
423.9769	0.1937
424.1812	0.1774
424.3856	0.1681
424.5899	0.1891
424.7942	0.18
424.9985	0.1917
425.2028	0.1665
425.4071	0.1759
425.6113	0.1753
425.8156	0.1671
426.0198	0.1951
426.224	0.1682
426.4282	0.1772
