Data from MonoPyChalIsomerACN10uM400nmA_Absorbance_12-08-42-429.txt Node
Date: Fri Jul 05 12:08:42 BST 2024
User: LASERRRRR
Spectrometer: FLMT03099
Trigger mode: 0
Integration Time (sec): 1.000000E-1
Scans to average: 1
Electric dark correction enabled: true
Nonlinearity correction enabled: false
Boxcar width: 0
XAxis mode: Wavelengths
Number of Pixels in Spectrum: 3648
>>>>>Begin Spectral Data<<<<<
179.3399	0.0544
179.5586	0.0544
179.7771	0.0544
179.9957	0.5523
180.2143	-0
180.4329	-0
180.6514	-0
180.8699	-0
181.0885	0.1239
181.307	-0.1824
181.5255	-0.0368
181.744	-0
181.9625	-0.1951
182.181	-0
182.3994	-0.5244
182.6179	0.7763
182.8363	-0.2722
183.0547	0.2006
183.2732	0.3968
183.4916	0.0938
183.71	0.3204
183.9284	0.0113
184.1467	0.0349
184.3651	0.054
184.5835	0.2176
184.8018	0.0409
185.0201	0.5326
185.2385	-0.1274
185.4568	0.1722
185.6751	0.1314
185.8934	-0.0008
186.1117	0.0986
186.3299	-0.0602
186.5482	-0.0006
186.7664	0.0544
186.9847	0.4416
187.2029	0.0521
187.4211	-0.1338
187.6393	-0.1366
187.8575	0.0402
188.0757	-0.0249
188.2939	-0.0156
188.512	-0.1249
188.7302	-0.095
188.9483	0.1508
189.1665	0.1633
189.3846	0.0677
189.6027	0.1524
189.8208	0.0382
190.0389	0.0846
190.257	0.1803
190.475	0.1718
190.6931	0.2725
190.9111	0.1452
191.1292	0.4059
191.3472	0.2495
191.5652	0.1913
191.7832	0.9018
192.0012	0.2852
192.2192	0.196
192.4371	0.4512
192.6551	0.4026
192.873	0.544
193.091	0.3188
193.3089	0.4041
193.5268	0.6233
193.7447	0.3757
193.9626	0.4661
194.1805	0.4323
194.3984	0.3658
194.6162	0.4855
194.8341	0.5369
195.0519	0.6302
195.2697	0.5982
195.4875	0.6343
195.7054	0.5905
195.9231	0.4313
196.1409	0.5509
196.3587	0.544
196.5765	0.6529
196.7942	0.5564
197.012	0.7898
197.2297	0.5618
197.4474	0.6193
197.6651	0.6755
197.8828	0.5412
198.1005	0.6482
198.3182	0.9011
198.5358	0.7113
198.7535	0.7379
198.9711	0.65
199.1888	0.5941
199.4064	1.0074
199.624	0.6501
199.8416	0.7083
200.0592	0.8057
200.2767	0.5989
200.4943	0.6926
200.7119	0.8113
200.9294	0.7292
201.1469	0.9049
201.3645	0.6144
201.582	0.58
201.7995	0.8636
202.017	0.87
202.2344	0.6798
202.4519	0.7425
202.6694	0.7473
202.8868	0.7084
203.1042	0.7138
203.3217	0.7581
203.5391	0.7555
203.7565	0.7136
203.9739	0.6013
204.1913	0.9196
204.4086	0.9019
204.626	0.706
204.8433	0.8565
205.0607	0.7408
205.278	0.8017
205.4953	0.7898
205.7126	0.721
205.9299	0.8548
206.1472	0.6845
206.3644	0.6822
206.5817	0.7277
206.7989	0.6163
207.0162	0.7432
207.2334	0.7624
207.4506	0.8048
207.6678	0.8701
207.885	0.697
208.1022	0.7585
208.3194	0.6481
208.5365	0.7402
208.7537	0.8035
208.9708	0.7228
209.1879	0.7554
209.405	0.7007
209.6222	0.8387
209.8392	0.652
210.0563	0.7516
210.2734	0.692
210.4905	0.8438
210.7075	0.7412
210.9245	0.7425
211.1416	0.7033
211.3586	0.8094
211.5756	0.7688
211.7926	0.7327
212.0096	0.6617
212.2265	0.6995
212.4435	0.6728
212.6604	0.7683
212.8774	0.6709
213.0943	0.6967
213.3112	0.7195
213.5281	0.7099
213.745	0.6963
213.9619	0.6098
214.1788	0.6758
214.3956	0.6751
214.6125	0.6706
214.8293	0.6721
215.0461	0.6477
215.2629	0.6053
215.4798	0.6486
215.6965	0.6239
215.9133	0.7075
216.1301	0.5638
216.3469	0.6916
216.5636	0.6105
216.7803	0.6497
216.9971	0.633
217.2138	0.5752
217.4305	0.5745
217.6472	0.5881
217.8639	0.5822
218.0805	0.5858
218.2972	0.5901
218.5138	0.6155
218.7305	0.548
218.9471	0.5773
219.1637	0.5839
219.3803	0.5302
219.5969	0.5683
219.8135	0.5651
220.0301	0.549
220.2466	0.5413
220.4632	0.5536
220.6797	0.5618
220.8962	0.5404
221.1127	0.5261
221.3292	0.5241
221.5457	0.5869
221.7622	0.5495
221.9787	0.5435
222.1951	0.5332
222.4116	0.5211
222.628	0.5323
222.8444	0.545
223.0608	0.5127
223.2772	0.525
223.4936	0.5928
223.71	0.5531
223.9264	0.5446
224.1427	0.5342
224.3591	0.5314
224.5754	0.5605
224.7917	0.5435
225.008	0.5728
225.2243	0.5406
225.4406	0.5511
225.6569	0.5527
225.8732	0.6029
226.0894	0.5284
226.3057	0.5533
226.5219	0.5549
226.7381	0.5721
226.9543	0.5195
227.1705	0.5799
227.3867	0.5572
227.6029	0.5588
227.8191	0.5672
228.0352	0.5734
228.2513	0.578
228.4675	0.5811
228.6836	0.5663
228.8997	0.5603
229.1158	0.5647
229.3319	0.6023
229.548	0.5705
229.764	0.5677
229.9801	0.5916
230.1961	0.5671
230.4121	0.5814
230.6282	0.5461
230.8442	0.5594
231.0602	0.569
231.2761	0.5611
231.4921	0.5889
231.7081	0.5764
231.924	0.5925
232.14	0.5631
232.3559	0.5749
232.5718	0.5717
232.7877	0.5662
233.0036	0.5703
233.2195	0.5484
233.4353	0.5736
233.6512	0.5963
233.867	0.5785
234.0829	0.548
234.2987	0.5539
234.5145	0.5558
234.7303	0.5782
234.9461	0.5662
235.1619	0.5574
235.3776	0.5643
235.5934	0.5631
235.8091	0.5564
236.0249	0.5337
236.2406	0.5526
236.4563	0.5589
236.672	0.5649
236.8877	0.5699
237.1034	0.5447
237.319	0.5393
237.5347	0.5771
237.7503	0.5469
237.966	0.5405
238.1816	0.547
238.3972	0.5496
238.6128	0.5422
238.8284	0.5199
239.0439	0.5484
239.2595	0.5345
239.475	0.5209
239.6906	0.5507
239.9061	0.4952
240.1216	0.5113
240.3371	0.4985
240.5526	0.5282
240.7681	0.5255
240.9836	0.5394
241.199	0.5039
241.4145	0.5061
241.6299	0.4774
241.8453	0.4614
242.0607	0.4869
242.2761	0.4914
242.4915	0.4656
242.7069	0.4455
242.9223	0.4545
243.1376	0.4379
243.353	0.436
243.5683	0.4239
243.7836	0.4254
243.9989	0.4279
244.2142	0.4101
244.4295	0.3883
244.6448	0.3986
244.86	0.391
245.0753	0.3639
245.2905	0.3691
245.5057	0.3734
245.721	0.3416
245.9362	0.3379
246.1514	0.3332
246.3665	0.3202
246.5817	0.3291
246.7969	0.3198
247.012	0.3259
247.2271	0.3207
247.4423	0.2949
247.6574	0.3052
247.8725	0.2857
248.0876	0.3065
248.3026	0.2748
248.5177	0.2928
248.7328	0.2843
248.9478	0.2548
249.1628	0.2611
249.3779	0.2705
249.5929	0.265
249.8079	0.254
250.0228	0.247
250.2378	0.2665
250.4528	0.2342
250.6677	0.2437
250.8827	0.2294
251.0976	0.2336
251.3125	0.2404
251.5274	0.2383
251.7423	0.2285
251.9572	0.2343
252.172	0.2251
252.3869	0.2222
252.6017	0.2141
252.8166	0.2075
253.0314	0.2054
253.2462	0.2119
253.461	0.2228
253.6758	0.2063
253.8906	0.2062
254.1053	0.1999
254.3201	0.2119
254.5348	0.2112
254.7496	0.2084
254.9643	0.2001
255.179	0.1902
255.3937	0.2051
255.6083	0.1847
255.823	0.1926
256.0377	0.1903
256.2523	0.1903
256.467	0.1885
256.6816	0.1869
256.8962	0.202
257.1108	0.2014
257.3254	0.1884
257.54	0.1871
257.7545	0.1925
257.9691	0.2058
258.1836	0.1863
258.3981	0.1894
258.6127	0.1978
258.8272	0.1854
259.0417	0.184
259.2561	0.183
259.4706	0.182
259.6851	0.185
259.8995	0.1868
260.114	0.1818
260.3284	0.1897
260.5428	0.198
260.7572	0.1884
260.9716	0.1888
261.186	0.195
261.4003	0.187
261.6147	0.1935
261.829	0.1945
262.0433	0.1865
262.2577	0.1877
262.472	0.1899
262.6863	0.1958
262.9005	0.1752
263.1148	0.1812
263.3291	0.1875
263.5433	0.1876
263.7576	0.1999
263.9718	0.1814
264.186	0.1925
264.4002	0.1964
264.6144	0.188
264.8286	0.1864
265.0427	0.1988
265.2569	0.1947
265.471	0.1848
265.6851	0.1774
265.8993	0.1811
266.1134	0.1884
266.3275	0.186
266.5415	0.1765
266.7556	0.1914
266.9697	0.1861
267.1837	0.1844
267.3978	0.1903
267.6118	0.187
267.8258	0.2027
268.0398	0.1903
268.2538	0.1956
268.4677	0.1846
268.6817	0.1812
268.8957	0.1795
269.1096	0.1764
269.3235	0.1767
269.5374	0.1721
269.7514	0.1646
269.9652	0.1842
270.1791	0.1748
270.393	0.166
270.6068	0.1793
270.8207	0.1779
271.0345	0.1577
271.2483	0.186
271.4622	0.1742
271.676	0.1769
271.8897	0.1911
272.1035	0.1675
272.3173	0.1721
272.531	0.1628
272.7448	0.1682
272.9585	0.1715
273.1722	0.1799
273.3859	0.1741
273.5996	0.1695
273.8133	0.1629
274.0269	0.179
274.2406	0.1842
274.4542	0.1744
274.6679	0.1648
274.8815	0.1803
275.0951	0.1829
275.3087	0.1738
275.5223	0.1707
275.7358	0.1734
275.9494	0.1686
276.1629	0.1628
276.3765	0.1697
276.59	0.1817
276.8035	0.1683
277.017	0.1642
277.2305	0.1785
277.444	0.1898
277.6574	0.1779
277.8709	0.159
278.0843	0.1724
278.2978	0.1711
278.5112	0.1793
278.7246	0.1885
278.938	0.1747
279.1513	0.1755
279.3647	0.1728
279.5781	0.1715
279.7914	0.1868
280.0047	0.1795
280.2181	0.1781
280.4314	0.1741
280.6447	0.1854
280.8579	0.176
281.0712	0.1894
281.2845	0.1691
281.4977	0.1842
281.711	0.1811
281.9242	0.181
282.1374	0.1741
282.3506	0.1782
282.5638	0.189
282.7769	0.1801
282.9901	0.18
283.2033	0.1851
283.4164	0.186
283.6295	0.1691
283.8426	0.1773
284.0557	0.1705
284.2688	0.1705
284.4819	0.182
284.695	0.1809
284.908	0.1915
285.1211	0.1913
285.3341	0.1883
285.5471	0.1974
285.7601	0.1874
285.9731	0.1925
286.1861	0.1892
286.3991	0.1744
286.612	0.1847
286.825	0.1774
287.0379	0.1875
287.2508	0.1789
287.4637	0.1827
287.6766	0.1763
287.8895	0.1818
288.1024	0.183
288.3152	0.1842
288.5281	0.1807
288.7409	0.1835
288.9538	0.1967
289.1666	0.1764
289.3794	0.1831
289.5922	0.1717
289.8049	0.1809
290.0177	0.1838
290.2304	0.1797
290.4432	0.177
290.6559	0.1995
290.8686	0.1734
291.0813	0.1784
291.294	0.1803
291.5067	0.1849
291.7194	0.1859
291.932	0.2046
292.1447	0.1919
292.3573	0.1848
292.5699	0.19
292.7825	0.1689
292.9951	0.1976
293.2077	0.1855
293.4203	0.1912
293.6328	0.1996
293.8454	0.1764
294.0579	0.1792
294.2704	0.1857
294.4829	0.1902
294.6954	0.1842
294.9079	0.1894
295.1204	0.1973
295.3328	0.1728
295.5453	0.1778
295.7577	0.177
295.9701	0.1836
296.1825	0.1827
296.3949	0.1744
296.6073	0.1736
296.8197	0.1771
297.0321	0.1815
297.2444	0.1693
297.4567	0.169
297.6691	0.1843
297.8814	0.17
298.0937	0.1753
298.306	0.1773
298.5182	0.1731
298.7305	0.1793
298.9428	0.177
299.155	0.17
299.3672	0.166
299.5794	0.1791
299.7916	0.1662
300.0038	0.1727
300.216	0.179
300.4282	0.181
300.6403	0.1857
300.8525	0.1756
301.0646	0.1764
301.2767	0.1781
301.4888	0.1858
301.7009	0.1775
301.913	0.1789
302.125	0.1814
302.3371	0.1777
302.5491	0.1691
302.7612	0.1748
302.9732	0.1736
303.1852	0.1691
303.3972	0.1784
303.6092	0.1799
303.8211	0.1727
304.0331	0.1743
304.245	0.1608
304.457	0.1566
304.6689	0.1686
304.8808	0.1521
305.0927	0.1625
305.3046	0.1679
305.5164	0.1632
305.7283	0.1599
305.9401	0.1643
306.152	0.156
306.3638	0.155
306.5756	0.1512
306.7874	0.1475
306.9992	0.1517
307.2109	0.1539
307.4227	0.15
307.6344	0.1481
307.8462	0.1394
308.0579	0.1558
308.2696	0.1487
308.4813	0.1378
308.693	0.1405
308.9046	0.1271
309.1163	0.1349
309.328	0.1351
309.5396	0.1366
309.7512	0.1392
309.9628	0.1239
310.1744	0.1358
310.386	0.1314
310.5976	0.129
310.8091	0.1285
311.0207	0.1299
311.2322	0.1099
311.4437	0.1268
311.6552	0.1289
311.8667	0.1178
312.0782	0.1152
312.2897	0.1138
312.5012	0.103
312.7126	0.1212
312.924	0.1001
313.1355	0.1264
313.3469	0.1063
313.5583	0.1167
313.7696	0.1166
313.981	0.1183
314.1924	0.1095
314.4037	0.0961
314.6151	0.114
314.8264	0.1113
315.0377	0.1058
315.249	0.1044
315.4603	0.1069
315.6716	0.102
315.8828	0.1031
316.0941	0.0999
316.3053	0.0951
316.5165	0.1029
316.7277	0.1036
316.9389	0.1143
317.1501	0.1085
317.3613	0.0917
317.5724	0.1047
317.7836	0.104
317.9947	0.1062
318.2058	0.118
318.417	0.115
318.6281	0.1002
318.8391	0.1061
319.0502	0.0973
319.2613	0.0995
319.4723	0.1028
319.6834	0.1008
319.8944	0.0994
320.1054	0.0998
320.3164	0.1084
320.5274	0.0941
320.7383	0.1055
320.9493	0.093
321.1602	0.1149
321.3712	0.0923
321.5821	0.1106
321.793	0.1086
322.0039	0.0995
322.2148	0.1076
322.4257	0.0996
322.6365	0.0986
322.8474	0.0974
323.0582	0.1051
323.269	0.1086
323.4798	0.1115
323.6906	0.1063
323.9014	0.1144
324.1122	0.112
324.3229	0.1184
324.5337	0.1107
324.7444	0.1013
324.9551	0.1176
325.1658	0.1125
325.3765	0.1068
325.5872	0.1081
325.7979	0.1032
326.0085	0.1034
326.2192	0.0877
326.4298	0.1137
326.6404	0.1222
326.851	0.1074
327.0616	0.1184
327.2722	0.1099
327.4828	0.1109
327.6933	0.1007
327.9039	0.0975
328.1144	0.1025
328.3249	0.0959
328.5354	0.1083
328.7459	0.1159
328.9564	0.108
329.1669	0.1214
329.3773	0.1146
329.5878	0.1021
329.7982	0.1126
330.0086	0.111
330.219	0.0998
330.4294	0.1115
330.6398	0.1022
330.8502	0.1149
331.0605	0.1284
331.2708	0.1011
331.4812	0.1111
331.6915	0.1023
331.9018	0.1088
332.1121	0.1117
332.3224	0.1114
332.5326	0.1136
332.7429	0.107
332.9531	0.1073
333.1633	0.1051
333.3735	0.0979
333.5837	0.1023
333.7939	0.1118
334.0041	0.1221
334.2143	0.1023
334.4244	0.1206
334.6346	0.089
334.8447	0.1123
335.0548	0.1075
335.2649	0.1073
335.475	0.1109
335.685	0.1027
335.8951	0.1069
336.1051	0.1047
336.3152	0.118
336.5252	0.1029
336.7352	0.1283
336.9452	0.1182
337.1552	0.1306
337.3652	0.1132
337.5751	0.1184
337.7851	0.1037
337.995	0.1135
338.2049	0.101
338.4148	0.1235
338.6247	0.109
338.8346	0.1246
339.0445	0.1041
339.2543	0.1178
339.4642	0.1107
339.674	0.1298
339.8838	0.116
340.0936	0.1143
340.3034	0.1228
340.5132	0.1225
340.7229	0.1294
340.9327	0.1151
341.1424	0.125
341.3522	0.1154
341.5619	0.1098
341.7716	0.115
341.9813	0.1209
342.1909	0.1224
342.4006	0.1168
342.6102	0.1186
342.8199	0.1192
343.0295	0.1307
343.2391	0.1173
343.4487	0.1226
343.6583	0.1075
343.8679	0.1296
344.0774	0.1332
344.287	0.1252
344.4965	0.1301
344.706	0.1204
344.9155	0.1287
345.125	0.1266
345.3345	0.1329
345.544	0.1249
345.7534	0.1216
345.9629	0.1272
346.1723	0.116
346.3817	0.1364
346.5911	0.1363
346.8005	0.1276
347.0099	0.1279
347.2193	0.1143
347.4286	0.1358
347.638	0.1355
347.8473	0.1384
348.0566	0.1306
348.2659	0.139
348.4752	0.1343
348.6845	0.1435
348.8937	0.1186
349.103	0.1252
349.3122	0.1249
349.5214	0.1308
349.7306	0.145
349.9398	0.1345
350.149	0.1423
350.3582	0.1346
350.5674	0.1463
350.7765	0.1374
350.9856	0.1324
351.1948	0.14
351.4039	0.15
351.613	0.1416
351.822	0.1412
352.0311	0.1431
352.2402	0.1315
352.4492	0.138
352.6582	0.1322
352.8672	0.145
353.0762	0.1559
353.2852	0.1554
353.4942	0.1411
353.7032	0.1453
353.9121	0.1322
354.1211	0.1341
354.33	0.1552
354.5389	0.1433
354.7478	0.1729
354.9567	0.1649
355.1655	0.1483
355.3744	0.1557
355.5833	0.1726
355.7921	0.1563
356.0009	0.1627
356.2097	0.1385
356.4185	0.1508
356.6273	0.1546
356.8361	0.154
357.0448	0.1567
357.2536	0.15
357.4623	0.168
357.671	0.1669
357.8797	0.1502
358.0884	0.1619
358.2971	0.1568
358.5057	0.1707
358.7144	0.1704
358.923	0.1704
359.1316	0.1676
359.3402	0.1765
359.5488	0.1585
359.7574	0.1586
359.966	0.1658
360.1746	0.1648
360.3831	0.165
360.5916	0.1823
360.8002	0.1842
361.0087	0.1777
361.2172	0.1576
361.4256	0.1755
361.6341	0.1807
361.8426	0.1714
362.051	0.178
362.2594	0.1812
362.4678	0.1816
362.6762	0.1906
362.8846	0.1876
363.093	0.1729
363.3014	0.1817
363.5097	0.1756
363.718	0.1973
363.9264	0.2112
364.1347	0.1893
364.343	0.1782
364.5513	0.177
364.7595	0.194
364.9678	0.1996
365.176	0.1965
365.3842	0.1925
365.5925	0.1775
365.8007	0.1885
366.0089	0.1998
366.217	0.2017
366.4252	0.1995
366.6333	0.2041
366.8415	0.2062
367.0496	0.2009
367.2577	0.2041
367.4658	0.1933
367.6739	0.2057
367.882	0.2083
368.09	0.2203
368.2981	0.1999
368.5061	0.2128
368.7141	0.201
368.9221	0.2071
369.1301	0.2127
369.3381	0.2087
369.5461	0.2224
369.754	0.2112
369.962	0.1977
370.1699	0.194
370.3778	0.2248
370.5857	0.2169
370.7936	0.2169
371.0015	0.2213
371.2093	0.2063
371.4172	0.2196
371.625	0.2028
371.8328	0.227
372.0406	0.2051
372.2484	0.2106
372.4562	0.2254
372.664	0.2403
372.8717	0.2242
373.0795	0.2336
373.2872	0.2303
373.4949	0.2307
373.7026	0.2294
373.9103	0.2356
374.118	0.2163
374.3256	0.2381
374.5333	0.221
374.7409	0.2155
374.9485	0.2206
375.1561	0.2242
375.3637	0.2102
375.5713	0.2472
375.7789	0.2379
375.9864	0.2195
376.194	0.2272
376.4015	0.2153
376.609	0.2268
376.8165	0.2084
377.024	0.2501
377.2315	0.2191
377.4389	0.2222
377.6464	0.2413
377.8538	0.2397
378.0612	0.2305
378.2686	0.2372
378.476	0.2409
378.6834	0.2297
378.8908	0.2369
379.0981	0.2374
379.3055	0.2725
379.5128	0.2599
379.7201	0.2508
379.9274	0.2305
380.1347	0.2327
380.342	0.228
380.5492	0.2344
380.7565	0.2427
380.9637	0.2484
381.1709	0.2369
381.3781	0.2341
381.5853	0.2552
381.7925	0.2391
381.9997	0.2478
382.2068	0.2342
382.4139	0.2498
382.6211	0.2592
382.8282	0.2595
383.0353	0.2352
383.2424	0.2539
383.4494	0.2432
383.6565	0.239
383.8635	0.2516
384.0706	0.2557
384.2776	0.2547
384.4846	0.2501
384.6916	0.2718
384.8986	0.2521
385.1055	0.2375
385.3125	0.2464
385.5194	0.2506
385.7263	0.2462
385.9333	0.2307
386.1402	0.2516
386.347	0.2572
386.5539	0.2563
386.7608	0.25
386.9676	0.2319
387.1744	0.2393
387.3813	0.2393
387.5881	0.2565
387.7948	0.2419
388.0016	0.2388
388.2084	0.2472
388.4151	0.2426
388.6219	0.2634
388.8286	0.2418
389.0353	0.2235
389.242	0.2449
389.4487	0.2434
389.6553	0.227
389.862	0.2366
390.0686	0.2383
390.2753	0.2476
390.4819	0.2284
390.6885	0.237
390.8951	0.2248
391.1016	0.2462
391.3082	0.2353
391.5147	0.2236
391.7213	0.2192
391.9278	0.2457
392.1343	0.2205
392.3408	0.2195
392.5473	0.2249
392.7537	0.2321
392.9602	0.2311
393.1666	0.2198
393.373	0.2019
393.5794	0.2212
393.7858	0.2041
393.9922	0.2256
394.1986	0.231
394.4049	0.2194
394.6113	0.2123
394.8176	0.236
395.0239	0.231
395.2302	0.2002
395.4365	0.2274
395.6428	0.2237
395.8491	0.1889
396.0553	0.2147
396.2615	0.2151
396.4678	0.2106
396.674	0.2082
396.8802	0.2022
397.0863	0.2082
397.2925	0.195
397.4987	0.2166
397.7048	0.2211
397.9109	0.2111
398.117	0.1872
398.3231	0.2208
398.5292	0.2173
398.7353	0.2057
398.9413	0.2038
399.1474	0.2117
399.3534	0.1917
399.5594	0.2196
399.7654	0.2098
399.9714	0.2069
400.1774	0.1951
400.3833	0.2058
400.5893	0.2089
400.7952	0.2345
401.0011	0.2203
401.207	0.2037
401.4129	0.1909
401.6188	0.2031
401.8247	0.2051
402.0305	0.2218
402.2364	0.2124
402.4422	0.2217
402.648	0.2019
402.8538	0.2151
403.0596	0.2039
403.2654	0.2141
403.4711	0.2049
403.6768	0.1904
403.8826	0.2096
404.0883	0.1978
404.294	0.2163
404.4997	0.2007
404.7054	0.1991
404.911	0.2045
405.1167	0.185
405.3223	0.2023
405.5279	0.2161
405.7335	0.2161
405.9391	0.2072
406.1447	0.203
406.3502	0.219
406.5558	0.2175
406.7613	0.2189
406.9668	0.1974
407.1724	0.2171
407.3778	0.2214
407.5833	0.2065
407.7888	0.202
407.9942	0.2039
408.1997	0.1945
408.4051	0.1919
408.6105	0.1882
408.8159	0.2242
409.0213	0.1963
409.2267	0.2123
409.432	0.1965
409.6374	0.1971
409.8427	0.2091
410.048	0.2285
410.2533	0.1995
410.4586	0.201
410.6639	0.204
410.8691	0.1954
411.0744	0.1961
411.2796	0.2012
411.4848	0.1933
411.69	0.1943
411.8952	0.1922
412.1004	0.1995
412.3056	0.1974
412.5107	0.204
412.7158	0.196
412.921	0.2194
413.1261	0.2057
413.3312	0.1995
413.5362	0.1875
413.7413	0.2045
413.9464	0.2126
414.1514	0.2179
414.3564	0.214
414.5614	0.1754
414.7664	0.1881
414.9714	0.2051
415.1764	0.1925
415.3813	0.2028
415.5863	0.1903
415.7912	0.2066
415.9961	0.1985
416.201	0.207
416.4059	0.1826
416.6108	0.1907
416.8156	0.2049
417.0205	0.1904
417.2253	0.2043
417.4301	0.2083
417.6349	0.191
417.8397	0.1893
418.0445	0.1887
418.2492	0.1845
418.454	0.1888
418.6587	0.1969
418.8634	0.1964
419.0681	0.2214
419.2728	0.1773
419.4775	0.1935
419.6822	0.2037
419.8868	0.1959
420.0915	0.1783
420.2961	0.2001
420.5007	0.1998
420.7053	0.1776
420.9099	0.179
421.1144	0.1983
421.319	0.2045
421.5235	0.1889
421.728	0.1798
421.9325	0.1742
422.137	0.1724
422.3415	0.1999
422.546	0.1666
422.7504	0.1945
422.9549	0.177
423.1593	0.1694
423.3637	0.1801
423.5681	0.1585
423.7725	0.1831
423.9769	0.1821
424.1812	0.1808
424.3856	0.1681
424.5899	0.1772
424.7942	0.1771
424.9985	0.1743
425.2028	0.1459
425.4071	0.1759
425.6113	0.1784
425.8156	0.1772
426.0198	0.1669
426.224	0.1665
426.4282	0.1719
426.6324	0.1659
