Data from MonoPyChalIsomerACN10uM400nmA_Absorbance_12-08-42-728.txt Node
Date: Fri Jul 05 12:08:42 BST 2024
User: LASERRRRR
Spectrometer: FLMT03099
Trigger mode: 0
Integration Time (sec): 1.000000E-1
Scans to average: 1
Electric dark correction enabled: true
Nonlinearity correction enabled: false
Boxcar width: 0
XAxis mode: Wavelengths
Number of Pixels in Spectrum: 3648
>>>>>Begin Spectral Data<<<<<
179.3399	0.7451
179.5586	0.7451
179.7771	0.7451
179.9957	0.2184
180.2143	-0
180.4329	-0
180.6514	-0
180.8699	0.4379
181.0885	-0.0711
181.307	-0.0299
181.5255	-0.5186
181.744	-0
181.9625	-0.5736
182.181	-0
182.3994	-0.213
182.6179	-0.3658
182.8363	-0.2736
183.0547	0.0901
183.2732	0.3382
183.4916	0.1533
183.71	0.0312
183.9284	-0.0424
184.1467	-0.1891
184.3651	0.0274
184.5835	0.0602
184.8018	0.1226
185.0201	0.1251
185.2385	0.12
185.4568	0.1942
185.6751	-0.0011
185.8934	-0.0631
186.1117	0.4099
186.3299	0.2238
186.5482	-0.0153
186.7664	0.1623
186.9847	0.1265
187.2029	0.2138
187.4211	-0.3516
187.6393	-0.0729
187.8575	0.276
188.0757	0.0804
188.2939	0.106
188.512	0.2055
188.7302	0.4916
188.9483	0.0423
189.1665	-0.0721
189.3846	0.4878
189.6027	0.1516
189.8208	0.1108
190.0389	0.1933
190.257	0.1582
190.475	0.2381
190.6931	0.2519
190.9111	0.3423
191.1292	0.2945
191.3472	0.3789
191.5652	0.4164
191.7832	0.6751
192.0012	0.289
192.2192	0.3184
192.4371	0.2686
192.6551	0.4239
192.873	0.5864
193.091	0.3688
193.3089	0.3571
193.5268	0.5974
193.7447	0.4634
193.9626	0.3984
194.1805	0.423
194.3984	0.4914
194.6162	0.6046
194.8341	0.4792
195.0519	0.7097
195.2697	0.7519
195.4875	0.6673
195.7054	0.5134
195.9231	0.7072
196.1409	0.5422
196.3587	0.5398
196.5765	0.8395
196.7942	1.0163
197.012	0.9054
197.2297	0.7107
197.4474	0.5977
197.6651	0.8311
197.8828	0.6165
198.1005	0.7075
198.3182	0.7193
198.5358	0.9603
198.7535	0.6299
198.9711	0.6847
199.1888	0.6528
199.4064	0.6886
199.624	0.6305
199.8416	0.6933
200.0592	0.6811
200.2767	0.6282
200.4943	0.8308
200.7119	0.6006
200.9294	0.9956
201.1469	0.6908
201.3645	0.8489
201.582	0.7447
201.7995	0.8127
202.017	0.8421
202.2344	0.66
202.4519	0.6996
202.6694	0.916
202.8868	0.7889
203.1042	0.7701
203.3217	0.7082
203.5391	0.88
203.7565	0.7239
203.9739	0.8151
204.1913	1.0191
204.4086	0.8002
204.626	0.943
204.8433	0.7889
205.0607	0.6412
205.278	0.8074
205.4953	0.7727
205.7126	0.7438
205.9299	0.841
206.1472	0.8134
206.3644	0.6249
206.5817	0.819
206.7989	0.649
207.0162	0.8654
207.2334	0.8234
207.4506	0.7801
207.6678	0.7238
207.885	0.8552
208.1022	0.7496
208.3194	0.7611
208.5365	0.8259
208.7537	0.7451
208.9708	0.6962
209.1879	0.8081
209.405	0.6486
209.6222	0.771
209.8392	0.6852
210.0563	0.7025
210.2734	0.7539
210.4905	0.8387
210.7075	0.7778
210.9245	0.7315
211.1416	0.711
211.3586	0.7945
211.5756	0.8889
211.7926	0.6891
212.0096	0.6691
212.2265	0.6887
212.4435	0.7557
212.6604	0.7644
212.8774	0.7227
213.0943	0.7404
213.3112	0.7685
213.5281	0.6439
213.745	0.7525
213.9619	0.6797
214.1788	0.6755
214.3956	0.7239
214.6125	0.6976
214.8293	0.6756
215.0461	0.7071
215.2629	0.6511
215.4798	0.6086
215.6965	0.6364
215.9133	0.6475
216.1301	0.5554
216.3469	0.621
216.5636	0.6244
216.7803	0.6674
216.9971	0.6309
217.2138	0.7155
217.4305	0.6326
217.6472	0.5572
217.8639	0.5838
218.0805	0.6082
218.2972	0.5807
218.5138	0.5745
218.7305	0.6119
218.9471	0.5576
219.1637	0.5813
219.3803	0.5205
219.5969	0.575
219.8135	0.5839
220.0301	0.5702
220.2466	0.5907
220.4632	0.5809
220.6797	0.5454
220.8962	0.5508
221.1127	0.5199
221.3292	0.5288
221.5457	0.58
221.7622	0.5702
221.9787	0.5329
222.1951	0.5578
222.4116	0.5241
222.628	0.5998
222.8444	0.5597
223.0608	0.5326
223.2772	0.5476
223.4936	0.5877
223.71	0.5649
223.9264	0.5767
224.1427	0.5405
224.3591	0.5613
224.5754	0.553
224.7917	0.5513
225.008	0.5852
225.2243	0.5406
225.4406	0.562
225.6569	0.5583
225.8732	0.6079
226.0894	0.5618
226.3057	0.5645
226.5219	0.5671
226.7381	0.5592
226.9543	0.6103
227.1705	0.5434
227.3867	0.5931
227.6029	0.5283
227.8191	0.5764
228.0352	0.5839
228.2513	0.5561
228.4675	0.562
228.6836	0.5814
228.8997	0.5709
229.1158	0.5545
229.3319	0.6084
229.548	0.5895
229.764	0.6032
229.9801	0.5959
230.1961	0.5913
230.4121	0.5824
230.6282	0.5538
230.8442	0.5918
231.0602	0.553
231.2761	0.568
231.4921	0.5766
231.7081	0.5843
231.924	0.6048
232.14	0.5993
232.3559	0.6031
232.5718	0.5637
232.7877	0.5679
233.0036	0.5965
233.2195	0.5585
233.4353	0.5853
233.6512	0.566
233.867	0.5802
234.0829	0.5717
234.2987	0.5943
234.5145	0.5498
234.7303	0.583
234.9461	0.561
235.1619	0.564
235.3776	0.5625
235.5934	0.5099
235.8091	0.5722
236.0249	0.5361
236.2406	0.5633
236.4563	0.5547
236.672	0.5826
236.8877	0.5614
237.1034	0.5549
237.319	0.5523
237.5347	0.5468
237.7503	0.5512
237.966	0.5382
238.1816	0.5721
238.3972	0.5553
238.6128	0.5501
238.8284	0.5381
239.0439	0.5658
239.2595	0.5498
239.475	0.5442
239.6906	0.5235
239.9061	0.5376
240.1216	0.5255
240.3371	0.5372
240.5526	0.5253
240.7681	0.5488
240.9836	0.5186
241.199	0.5115
241.4145	0.4982
241.6299	0.4855
241.8453	0.5046
242.0607	0.5108
242.2761	0.4799
242.4915	0.4742
242.7069	0.4674
242.9223	0.4828
243.1376	0.4492
243.353	0.4475
243.5683	0.4302
243.7836	0.4287
243.9989	0.4276
244.2142	0.4132
244.4295	0.3856
244.6448	0.4037
244.86	0.3938
245.0753	0.3683
245.2905	0.3853
245.5057	0.3796
245.721	0.3437
245.9362	0.347
246.1514	0.3504
246.3665	0.3329
246.5817	0.3438
246.7969	0.3144
247.012	0.3177
247.2271	0.3181
247.4423	0.3002
247.6574	0.3136
247.8725	0.3035
248.0876	0.2902
248.3026	0.278
248.5177	0.2935
248.7328	0.285
248.9478	0.2931
249.1628	0.2761
249.3779	0.2681
249.5929	0.2593
249.8079	0.2571
250.0228	0.2589
250.2378	0.2499
250.4528	0.2413
250.6677	0.2471
250.8827	0.2322
251.0976	0.2347
251.3125	0.2392
251.5274	0.2349
251.7423	0.2259
251.9572	0.2207
252.172	0.2291
252.3869	0.2299
252.6017	0.2123
252.8166	0.2084
253.0314	0.2018
253.2462	0.2174
253.461	0.2143
253.6758	0.1993
253.8906	0.2214
254.1053	0.205
254.3201	0.2101
254.5348	0.2004
254.7496	0.2019
254.9643	0.1846
255.179	0.2035
255.3937	0.1889
255.6083	0.1838
255.823	0.1871
256.0377	0.1898
256.2523	0.1958
256.467	0.2044
256.6816	0.1929
256.8962	0.1999
257.1108	0.1948
257.3254	0.185
257.54	0.1866
257.7545	0.1949
257.9691	0.2065
258.1836	0.1887
258.3981	0.1846
258.6127	0.2015
258.8272	0.2122
259.0417	0.1842
259.2561	0.1891
259.4706	0.1828
259.6851	0.1832
259.8995	0.1919
260.114	0.1659
260.3284	0.1833
260.5428	0.1769
260.7572	0.1992
260.9716	0.1947
261.186	0.193
261.4003	0.1986
261.6147	0.2038
261.829	0.1932
262.0433	0.1686
262.2577	0.1978
262.472	0.1927
262.6863	0.1857
262.9005	0.1734
263.1148	0.1729
263.3291	0.1884
263.5433	0.1824
263.7576	0.1836
263.9718	0.177
264.186	0.1779
264.4002	0.1864
264.6144	0.1848
264.8286	0.1873
265.0427	0.1944
265.2569	0.1951
265.471	0.1825
265.6851	0.1671
265.8993	0.1945
266.1134	0.1859
266.3275	0.1877
266.5415	0.1973
266.7556	0.1809
266.9697	0.1975
267.1837	0.1913
267.3978	0.1929
267.6118	0.1924
267.8258	0.1951
268.0398	0.1932
268.2538	0.2025
268.4677	0.1836
268.6817	0.1927
268.8957	0.1916
269.1096	0.175
269.3235	0.1874
269.5374	0.1686
269.7514	0.1797
269.9652	0.1883
270.1791	0.1829
270.393	0.1781
270.6068	0.1727
270.8207	0.1832
271.0345	0.1642
271.2483	0.1774
271.4622	0.1729
271.676	0.1767
271.8897	0.1784
272.1035	0.1813
272.3173	0.1831
272.531	0.1684
272.7448	0.1684
272.9585	0.1699
273.1722	0.1931
273.3859	0.1814
273.5996	0.175
273.8133	0.1673
274.0269	0.1801
274.2406	0.1803
274.4542	0.1677
274.6679	0.1627
274.8815	0.1802
275.0951	0.1801
275.3087	0.1738
275.5223	0.1804
275.7358	0.1731
275.9494	0.1662
276.1629	0.1866
276.3765	0.1756
276.59	0.177
276.8035	0.1661
277.017	0.1719
277.2305	0.1775
277.444	0.1667
277.6574	0.1796
277.8709	0.1664
278.0843	0.1874
278.2978	0.1832
278.5112	0.1842
278.7246	0.1739
278.938	0.1805
279.1513	0.1913
279.3647	0.1787
279.5781	0.1904
279.7914	0.1814
280.0047	0.1742
280.2181	0.1691
280.4314	0.1749
280.6447	0.1939
280.8579	0.1893
281.0712	0.1828
281.2845	0.1753
281.4977	0.1733
281.711	0.1823
281.9242	0.1752
282.1374	0.188
282.3506	0.17
282.5638	0.1921
282.7769	0.1823
282.9901	0.2004
283.2033	0.1869
283.4164	0.1821
283.6295	0.178
283.8426	0.1812
284.0557	0.1837
284.2688	0.1778
284.4819	0.1811
284.695	0.1911
284.908	0.1915
285.1211	0.1823
285.3341	0.1984
285.5471	0.1957
285.7601	0.192
285.9731	0.1796
286.1861	0.1932
286.3991	0.1749
286.612	0.1851
286.825	0.1815
287.0379	0.1806
287.2508	0.1931
287.4637	0.2015
287.6766	0.1721
287.8895	0.1805
288.1024	0.194
288.3152	0.197
288.5281	0.1731
288.7409	0.1846
288.9538	0.1875
289.1666	0.1864
289.3794	0.1832
289.5922	0.1803
289.8049	0.1697
290.0177	0.1887
290.2304	0.1858
290.4432	0.1768
290.6559	0.1909
290.8686	0.1828
291.0813	0.1774
291.294	0.1805
291.5067	0.176
291.7194	0.174
291.932	0.1861
292.1447	0.1781
292.3573	0.1959
292.5699	0.1798
292.7825	0.1789
292.9951	0.1953
293.2077	0.1893
293.4203	0.1838
293.6328	0.1996
293.8454	0.1837
294.0579	0.1864
294.2704	0.1781
294.4829	0.189
294.6954	0.1892
294.9079	0.1836
295.1204	0.1866
295.3328	0.1707
295.5453	0.1803
295.7577	0.1755
295.9701	0.1835
296.1825	0.1761
296.3949	0.1699
296.6073	0.1823
296.8197	0.1886
297.0321	0.1748
297.2444	0.1663
297.4567	0.1743
297.6691	0.1719
297.8814	0.1804
298.0937	0.1864
298.306	0.1814
298.5182	0.1798
298.7305	0.1777
298.9428	0.1756
299.155	0.1776
299.3672	0.1606
299.5794	0.1816
299.7916	0.1676
300.0038	0.17
300.216	0.1726
300.4282	0.1774
300.6403	0.1801
300.8525	0.1804
301.0646	0.176
301.2767	0.1826
301.4888	0.1739
301.7009	0.1693
301.913	0.1877
302.125	0.1691
302.3371	0.1828
302.5491	0.1724
302.7612	0.1737
302.9732	0.1703
303.1852	0.1851
303.3972	0.1666
303.6092	0.1721
303.8211	0.174
304.0331	0.1624
304.245	0.1712
304.457	0.1671
304.6689	0.1593
304.8808	0.1511
305.0927	0.1593
305.3046	0.1618
305.5164	0.1693
305.7283	0.1717
305.9401	0.1657
306.152	0.1548
306.3638	0.1516
306.5756	0.1561
306.7874	0.1488
306.9992	0.157
307.2109	0.1589
307.4227	0.1604
307.6344	0.161
307.8462	0.1301
308.0579	0.155
308.2696	0.1508
308.4813	0.1479
308.693	0.1495
308.9046	0.1395
309.1163	0.1387
309.328	0.1379
309.5396	0.136
309.7512	0.1306
309.9628	0.1278
310.1744	0.1304
310.386	0.1182
310.5976	0.1237
310.8091	0.1237
311.0207	0.1313
311.2322	0.1141
311.4437	0.1312
311.6552	0.1324
311.8667	0.1122
312.0782	0.1289
312.2897	0.1083
312.5012	0.1203
312.7126	0.1263
312.924	0.1069
313.1355	0.124
313.3469	0.1117
313.5583	0.1149
313.7696	0.1139
313.981	0.1108
314.1924	0.1177
314.4037	0.1044
314.6151	0.1145
314.8264	0.1161
315.0377	0.1035
315.249	0.1075
315.4603	0.111
315.6716	0.1177
315.8828	0.1048
316.0941	0.093
316.3053	0.1079
316.5165	0.1069
316.7277	0.0997
316.9389	0.1085
317.1501	0.112
317.3613	0.0901
317.5724	0.0996
317.7836	0.1068
317.9947	0.1073
318.2058	0.1171
318.417	0.1047
318.6281	0.1071
318.8391	0.1016
319.0502	0.1011
319.2613	0.1058
319.4723	0.1078
319.6834	0.1017
319.8944	0.0962
320.1054	0.0947
320.3164	0.1121
320.5274	0.099
320.7383	0.1048
320.9493	0.1044
321.1602	0.1116
321.3712	0.0951
321.5821	0.1076
321.793	0.1083
322.0039	0.1038
322.2148	0.1063
322.4257	0.0974
322.6365	0.1059
322.8474	0.1009
323.0582	0.1112
323.269	0.1048
323.4798	0.1091
323.6906	0.1026
323.9014	0.1112
324.1122	0.1093
324.3229	0.1079
324.5337	0.1144
324.7444	0.1138
324.9551	0.1198
325.1658	0.1098
325.3765	0.1085
325.5872	0.1094
325.7979	0.121
326.0085	0.1026
326.2192	0.0964
326.4298	0.118
326.6404	0.1141
326.851	0.1051
327.0616	0.1082
327.2722	0.1058
327.4828	0.1015
327.6933	0.1062
327.9039	0.0987
328.1144	0.099
328.3249	0.1054
328.5354	0.0982
328.7459	0.122
328.9564	0.1135
329.1669	0.1181
329.3773	0.114
329.5878	0.1028
329.7982	0.1059
330.0086	0.1061
330.219	0.1072
330.4294	0.1148
330.6398	0.1079
330.8502	0.1042
331.0605	0.1184
331.2708	0.1092
331.4812	0.1113
331.6915	0.112
331.9018	0.1134
332.1121	0.1115
332.3224	0.1203
332.5326	0.1222
332.7429	0.1
332.9531	0.1031
333.1633	0.103
333.3735	0.1074
333.5837	0.0977
333.7939	0.1121
334.0041	0.1209
334.2143	0.1145
334.4244	0.1115
334.6346	0.0905
334.8447	0.1134
335.0548	0.1129
335.2649	0.1031
335.475	0.1059
335.685	0.1046
335.8951	0.1116
336.1051	0.1133
336.3152	0.113
336.5252	0.1039
336.7352	0.1135
336.9452	0.1176
337.1552	0.1288
337.3652	0.1165
337.5751	0.1217
337.7851	0.1148
337.995	0.1095
338.2049	0.1053
338.4148	0.122
338.6247	0.1083
338.8346	0.1183
339.0445	0.1023
339.2543	0.1218
339.4642	0.1278
339.674	0.1218
339.8838	0.123
340.0936	0.1152
340.3034	0.1262
340.5132	0.1298
340.7229	0.1344
340.9327	0.1316
341.1424	0.11
341.3522	0.1118
341.5619	0.1242
341.7716	0.1265
341.9813	0.1339
342.1909	0.1102
342.4006	0.1256
342.6102	0.1215
342.8199	0.1125
343.0295	0.1328
343.2391	0.1247
343.4487	0.1219
343.6583	0.1165
343.8679	0.1355
344.0774	0.1213
344.287	0.1328
344.4965	0.1262
344.706	0.1368
344.9155	0.127
345.125	0.1269
345.3345	0.1294
345.544	0.1458
345.7534	0.1241
345.9629	0.1199
346.1723	0.1304
346.3817	0.1199
346.5911	0.1477
346.8005	0.1344
347.0099	0.1313
347.2193	0.1507
347.4286	0.1447
347.638	0.1336
347.8473	0.1383
348.0566	0.1303
348.2659	0.1531
348.4752	0.1344
348.6845	0.1326
348.8937	0.1357
349.103	0.1282
349.3122	0.1325
349.5214	0.134
349.7306	0.1447
349.9398	0.1456
350.149	0.1391
350.3582	0.1386
350.5674	0.1415
350.7765	0.139
350.9856	0.1418
351.1948	0.1297
351.4039	0.1561
351.613	0.1285
351.822	0.1531
352.0311	0.1548
352.2402	0.1351
352.4492	0.138
352.6582	0.1388
352.8672	0.1382
353.0762	0.1381
353.2852	0.1622
353.4942	0.149
353.7032	0.164
353.9121	0.1579
354.1211	0.1452
354.33	0.1585
354.5389	0.1427
354.7478	0.1675
354.9567	0.1524
355.1655	0.1535
355.3744	0.1438
355.5833	0.1665
355.7921	0.1578
356.0009	0.1541
356.2097	0.1473
356.4185	0.1544
356.6273	0.1606
356.8361	0.1596
357.0448	0.1465
357.2536	0.1537
357.4623	0.1429
357.671	0.1481
357.8797	0.166
358.0884	0.1818
358.2971	0.1508
358.5057	0.1662
358.7144	0.1573
358.923	0.1692
359.1316	0.1697
359.3402	0.1895
359.5488	0.1641
359.7574	0.1723
359.966	0.1678
360.1746	0.1695
360.3831	0.1605
360.5916	0.1854
360.8002	0.1792
361.0087	0.1759
361.2172	0.1597
361.4256	0.1935
361.6341	0.187
361.8426	0.1932
362.051	0.1831
362.2594	0.1826
362.4678	0.187
362.6762	0.1761
362.8846	0.1901
363.093	0.1808
363.3014	0.1884
363.5097	0.1872
363.718	0.1894
363.9264	0.1945
364.1347	0.185
364.343	0.1888
364.5513	0.1854
364.7595	0.1975
364.9678	0.1918
365.176	0.2064
365.3842	0.2007
365.5925	0.1812
365.8007	0.2118
366.0089	0.1911
366.217	0.2106
366.4252	0.1965
366.6333	0.2064
366.8415	0.2155
367.0496	0.1917
367.2577	0.1986
367.4658	0.2165
367.6739	0.2016
367.882	0.2008
368.09	0.2092
368.2981	0.2062
368.5061	0.2063
368.7141	0.2076
368.9221	0.1982
369.1301	0.2141
369.3381	0.2164
369.5461	0.2155
369.754	0.1915
369.962	0.2055
370.1699	0.2058
370.3778	0.2112
370.5857	0.2229
370.7936	0.2109
371.0015	0.2259
371.2093	0.211
371.4172	0.226
371.625	0.2048
371.8328	0.218
372.0406	0.2189
372.2484	0.2047
372.4562	0.224
372.664	0.2049
372.8717	0.2081
373.0795	0.2169
373.2872	0.2228
373.4949	0.2158
373.7026	0.2246
373.9103	0.2355
374.118	0.2043
374.3256	0.2119
374.5333	0.2252
374.7409	0.214
374.9485	0.232
375.1561	0.2082
375.3637	0.2202
375.5713	0.2306
375.7789	0.237
375.9864	0.2287
376.194	0.2272
376.4015	0.2223
376.609	0.2266
376.8165	0.2195
377.024	0.2245
377.2315	0.2294
377.4389	0.2241
377.6464	0.2277
377.8538	0.2345
378.0612	0.2279
378.2686	0.2393
378.476	0.2329
378.6834	0.244
378.8908	0.2267
379.0981	0.2399
379.3055	0.2463
379.5128	0.2433
379.7201	0.2366
379.9274	0.2252
380.1347	0.2352
380.342	0.24
380.5492	0.2381
380.7565	0.2586
380.9637	0.2527
381.1709	0.2413
381.3781	0.2381
381.5853	0.2538
381.7925	0.2357
381.9997	0.2286
382.2068	0.2319
382.4139	0.2558
382.6211	0.269
382.8282	0.2368
383.0353	0.2477
383.2424	0.2329
383.4494	0.2406
383.6565	0.243
383.8635	0.2516
384.0706	0.2439
384.2776	0.2793
384.4846	0.2368
384.6916	0.28
384.8986	0.2455
385.1055	0.2324
385.3125	0.2488
385.5194	0.2426
385.7263	0.2454
385.9333	0.244
386.1402	0.2441
386.347	0.2508
386.5539	0.2395
386.7608	0.2452
386.9676	0.2594
387.1744	0.2472
387.3813	0.2432
387.5881	0.2492
387.7948	0.2473
388.0016	0.2477
388.2084	0.2465
388.4151	0.2478
388.6219	0.2457
388.8286	0.2365
389.0353	0.2495
389.242	0.2498
389.4487	0.2415
389.6553	0.228
389.862	0.2465
390.0686	0.2434
390.2753	0.2608
390.4819	0.2298
390.6885	0.2393
390.8951	0.2334
391.1016	0.2371
391.3082	0.236
391.5147	0.2053
391.7213	0.2275
391.9278	0.2285
392.1343	0.2166
392.3408	0.2346
392.5473	0.2194
392.7537	0.2141
392.9602	0.2276
393.1666	0.2287
393.373	0.2156
393.5794	0.2146
393.7858	0.2224
393.9922	0.2369
394.1986	0.2378
394.4049	0.2127
394.6113	0.2012
394.8176	0.2196
395.0239	0.214
395.2302	0.2046
395.4365	0.1998
395.6428	0.213
395.8491	0.1997
396.0553	0.2319
396.2615	0.2083
396.4678	0.2155
396.674	0.1961
396.8802	0.2123
397.0863	0.2022
397.2925	0.2061
397.4987	0.2159
397.7048	0.2028
397.9109	0.2239
398.117	0.1899
398.3231	0.2218
398.5292	0.2348
398.7353	0.2174
398.9413	0.2029
399.1474	0.2057
399.3534	0.2241
399.5594	0.221
399.7654	0.2153
399.9714	0.1928
400.1774	0.203
400.3833	0.2079
400.5893	0.2002
400.7952	0.1862
401.0011	0.2161
401.207	0.2054
401.4129	0.2006
401.6188	0.2136
401.8247	0.1991
402.0305	0.2131
402.2364	0.1919
402.4422	0.2205
402.648	0.1904
402.8538	0.2054
403.0596	0.2013
403.2654	0.2074
403.4711	0.207
403.6768	0.2058
403.8826	0.2051
404.0883	0.1966
404.294	0.2121
404.4997	0.1959
404.7054	0.2028
404.911	0.2128
405.1167	0.2009
405.3223	0.2043
405.5279	0.2027
405.7335	0.2206
405.9391	0.2203
406.1447	0.2065
406.3502	0.2009
406.5558	0.2158
406.7613	0.2179
406.9668	0.2069
407.1724	0.2083
407.3778	0.2151
407.5833	0.1998
407.7888	0.2229
407.9942	0.1967
408.1997	0.1898
408.4051	0.1975
408.6105	0.1858
408.8159	0.1858
409.0213	0.2091
409.2267	0.2192
409.432	0.2053
409.6374	0.2031
409.8427	0.2119
410.048	0.2156
410.2533	0.2
410.4586	0.184
410.6639	0.2128
410.8691	0.19
411.0744	0.1943
411.2796	0.1985
411.4848	0.2018
411.69	0.1977
411.8952	0.1838
412.1004	0.1869
412.3056	0.1957
412.5107	0.1964
412.7158	0.1953
412.921	0.2279
413.1261	0.1861
413.3312	0.1845
413.5362	0.1893
413.7413	0.1916
413.9464	0.2159
414.1514	0.2114
414.3564	0.1851
414.5614	0.18
414.7664	0.2055
414.9714	0.2043
415.1764	0.2084
415.3813	0.1866
415.5863	0.2059
415.7912	0.1998
415.9961	0.1877
416.201	0.2043
416.4059	0.2048
416.6108	0.1931
416.8156	0.1798
417.0205	0.186
417.2253	0.1974
417.4301	0.2062
417.6349	0.199
417.8397	0.1797
418.0445	0.1834
418.2492	0.174
418.454	0.1943
418.6587	0.1873
418.8634	0.2018
419.0681	0.2094
419.2728	0.1795
419.4775	0.204
419.6822	0.2109
419.8868	0.1903
420.0915	0.1795
420.2961	0.2069
420.5007	0.1811
420.7053	0.1858
420.9099	0.1904
421.1144	0.2065
421.319	0.1898
421.5235	0.2008
421.728	0.1777
421.9325	0.1951
422.137	0.1886
422.3415	0.1889
422.546	0.1693
422.7504	0.1956
422.9549	0.1792
423.1593	0.1651
423.3637	0.1863
423.5681	0.185
423.7725	0.1776
423.9769	0.1814
424.1812	0.1751
424.3856	0.173
424.5899	0.1755
424.7942	0.1663
424.9985	0.1855
425.2028	0.1727
425.4071	0.1607
425.6113	0.1621
425.8156	0.1882
426.0198	0.1644
426.224	0.1765
426.4282	0.1845
