Data from MonoPyChalIsomerACN10uM400nmA_Absorbance_12-08-42-629.txt Node
Date: Fri Jul 05 12:08:42 BST 2024
User: LASERRRRR
Spectrometer: FLMT03099
Trigger mode: 0
Integration Time (sec): 1.000000E-1
Scans to average: 1
Electric dark correction enabled: true
Nonlinearity correction enabled: false
Boxcar width: 0
XAxis mode: Wavelengths
Number of Pixels in Spectrum: 3648
>>>>>Begin Spectral Data<<<<<
179.3399	0.3961
179.5586	0.3961
179.7771	0.3961
179.9957	0.2674
180.2143	-0
180.4329	-0.3485
180.6514	-0.6151
180.8699	-0
181.0885	0.5549
181.307	-0.1219
181.5255	-0.1748
181.744	-0.0953
181.9625	-0.0252
182.181	-0
182.3994	-0.4536
182.6179	-0.0147
182.8363	-0.4322
183.0547	-0.0015
183.2732	0.288
183.4916	0.0467
183.71	0.0733
183.9284	0.0898
184.1467	-0.0651
184.3651	-0.0939
184.5835	0.3802
184.8018	0.0904
185.0201	0.052
185.2385	-0.0067
185.4568	0.1549
185.6751	0.0795
185.8934	-0.0909
186.1117	0.0924
186.3299	0.2076
186.5482	-0.039
186.7664	0.0664
186.9847	0.2293
187.2029	0.1449
187.4211	-0.2812
187.6393	-0.0583
187.8575	0.1284
188.0757	-0.0806
188.2939	0.243
188.512	0.043
188.7302	-0.1414
188.9483	-0.008
189.1665	0.1381
189.3846	0.175
189.6027	0.1123
189.8208	-0.0874
190.0389	0.2477
190.257	0.1666
190.475	0.3932
190.6931	0.2017
190.9111	0.1262
191.1292	0.184
191.3472	0.3221
191.5652	0.1367
191.7832	-0
192.0012	0.3682
192.2192	0.3611
192.4371	0.3184
192.6551	0.4718
192.873	0.4178
193.091	0.4526
193.3089	0.3812
193.5268	0.557
193.7447	0.6082
193.9626	0.4095
194.1805	0.4491
194.3984	0.3653
194.6162	0.4501
194.8341	0.4792
195.0519	0.4945
195.2697	0.6398
195.4875	0.7963
195.7054	0.6216
195.9231	0.5151
196.1409	0.4724
196.3587	0.5809
196.5765	0.5694
196.7942	0.6625
197.012	0.9881
197.2297	0.655
197.4474	0.5842
197.6651	0.64
197.8828	0.7038
198.1005	0.6474
198.3182	0.9562
198.5358	0.8848
198.7535	0.6473
198.9711	0.7699
199.1888	0.6134
199.4064	0.7214
199.624	0.7768
199.8416	0.7004
200.0592	0.6616
200.2767	0.5625
200.4943	0.7211
200.7119	0.7275
200.9294	0.6878
201.1469	0.8473
201.3645	0.6569
201.582	0.6803
201.7995	0.8775
202.017	0.7884
202.2344	0.7431
202.4519	0.9428
202.6694	0.819
202.8868	0.7313
203.1042	0.6968
203.3217	0.6458
203.5391	0.9329
203.7565	0.7983
203.9739	0.8594
204.1913	0.9363
204.4086	0.7721
204.626	0.7454
204.8433	0.9223
205.0607	0.7056
205.278	0.8169
205.4953	0.795
205.7126	0.6964
205.9299	0.7473
206.1472	0.6972
206.3644	0.6158
206.5817	0.7466
206.7989	0.6636
207.0162	0.7078
207.2334	0.6998
207.4506	0.7311
207.6678	0.8846
207.885	0.7102
208.1022	0.7625
208.3194	0.7388
208.5365	0.7034
208.7537	0.7606
208.9708	0.7002
209.1879	0.7988
209.405	0.7491
209.6222	0.8068
209.8392	0.7487
210.0563	0.7281
210.2734	0.6969
210.4905	0.7412
210.7075	0.8205
210.9245	0.7315
211.1416	0.734
211.3586	0.8976
211.5756	0.7951
211.7926	0.7807
212.0096	0.6524
212.2265	0.6887
212.4435	0.741
212.6604	0.827
212.8774	0.7393
213.0943	0.6695
213.3112	0.7162
213.5281	0.6451
213.745	0.7287
213.9619	0.7203
214.1788	0.6434
214.3956	0.6906
214.6125	0.6207
214.8293	0.6719
215.0461	0.723
215.2629	0.6773
215.4798	0.5951
215.6965	0.6802
215.9133	0.6831
216.1301	0.6177
216.3469	0.6406
216.5636	0.6143
216.7803	0.626
216.9971	0.6409
217.2138	0.6352
217.4305	0.619
217.6472	0.5925
217.8639	0.5942
218.0805	0.6082
218.2972	0.5765
218.5138	0.5745
218.7305	0.5579
218.9471	0.5756
219.1637	0.608
219.3803	0.5338
219.5969	0.5562
219.8135	0.5785
220.0301	0.5702
220.2466	0.528
220.4632	0.5331
220.6797	0.5581
220.8962	0.5839
221.1127	0.5179
221.3292	0.5302
221.5457	0.5771
221.7622	0.558
221.9787	0.5348
222.1951	0.5513
222.4116	0.562
222.628	0.564
222.8444	0.5332
223.0608	0.5368
223.2772	0.5438
223.4936	0.5715
223.71	0.5771
223.9264	0.5396
224.1427	0.5553
224.3591	0.6154
224.5754	0.553
224.7917	0.5137
225.008	0.5684
225.2243	0.5549
225.4406	0.5573
225.6569	0.5419
225.8732	0.5627
226.0894	0.5316
226.3057	0.5594
226.5219	0.5565
226.7381	0.587
226.9543	0.5378
227.1705	0.5695
227.3867	0.5258
227.6029	0.5323
227.8191	0.5469
228.0352	0.5645
228.2513	0.5768
228.4675	0.5741
228.6836	0.5704
228.8997	0.5437
229.1158	0.5555
229.3319	0.5835
229.548	0.6054
229.764	0.5993
229.9801	0.5695
230.1961	0.5357
230.4121	0.595
230.6282	0.5519
230.8442	0.5918
231.0602	0.5585
231.2761	0.563
231.4921	0.6123
231.7081	0.5848
231.924	0.6148
232.14	0.5759
232.3559	0.5724
232.5718	0.6019
232.7877	0.5739
233.0036	0.5874
233.2195	0.5675
233.4353	0.5872
233.6512	0.5711
233.867	0.5816
234.0829	0.5414
234.2987	0.5749
234.5145	0.5321
234.7303	0.5912
234.9461	0.5639
235.1619	0.5669
235.3776	0.5621
235.5934	0.5556
235.8091	0.5677
236.0249	0.5312
236.2406	0.5596
236.4563	0.5978
236.672	0.5703
236.8877	0.5532
237.1034	0.562
237.319	0.542
237.5347	0.5437
237.7503	0.558
237.966	0.5296
238.1816	0.5417
238.3972	0.5737
238.6128	0.5267
238.8284	0.5537
239.0439	0.5368
239.2595	0.5252
239.475	0.5282
239.6906	0.5126
239.9061	0.5148
240.1216	0.5196
240.3371	0.5115
240.5526	0.5186
240.7681	0.5203
240.9836	0.5474
241.199	0.507
241.4145	0.4927
241.6299	0.4689
241.8453	0.5046
242.0607	0.4881
242.2761	0.4721
242.4915	0.468
242.7069	0.4631
242.9223	0.4642
243.1376	0.421
243.353	0.4584
243.5683	0.4316
243.7836	0.42
243.9989	0.4199
244.2142	0.4006
244.4295	0.392
244.6448	0.3831
244.86	0.3811
245.0753	0.3727
245.2905	0.3832
245.5057	0.3722
245.721	0.3708
245.9362	0.3426
246.1514	0.339
246.3665	0.3233
246.5817	0.3385
246.7969	0.3009
247.012	0.3258
247.2271	0.3257
247.4423	0.2918
247.6574	0.2975
247.8725	0.2995
248.0876	0.3002
248.3026	0.2881
248.5177	0.2919
248.7328	0.2886
248.9478	0.2698
249.1628	0.2518
249.3779	0.2559
249.5929	0.2626
249.8079	0.2576
250.0228	0.256
250.2378	0.2565
250.4528	0.2393
250.6677	0.2398
250.8827	0.218
251.0976	0.2414
251.3125	0.2426
251.5274	0.2349
251.7423	0.2219
251.9572	0.2312
252.172	0.2288
252.3869	0.2193
252.6017	0.2217
252.8166	0.2088
253.0314	0.206
253.2462	0.2085
253.461	0.2257
253.6758	0.2052
253.8906	0.2079
254.1053	0.2059
254.3201	0.1941
254.5348	0.2063
254.7496	0.2079
254.9643	0.1963
255.179	0.2134
255.3937	0.2156
255.6083	0.1877
255.823	0.2
256.0377	0.1845
256.2523	0.1978
256.467	0.1791
256.6816	0.1929
256.8962	0.1888
257.1108	0.2054
257.3254	0.1929
257.54	0.1805
257.7545	0.2012
257.9691	0.1969
258.1836	0.1918
258.3981	0.1685
258.6127	0.1857
258.8272	0.2086
259.0417	0.1798
259.2561	0.1867
259.4706	0.1936
259.6851	0.1932
259.8995	0.1827
260.114	0.178
260.3284	0.1849
260.5428	0.1867
260.7572	0.1977
260.9716	0.1916
261.186	0.1984
261.4003	0.1893
261.6147	0.1913
261.829	0.1895
262.0433	0.1777
262.2577	0.1833
262.472	0.1851
262.6863	0.181
262.9005	0.1853
263.1148	0.1865
263.3291	0.1872
263.5433	0.1777
263.7576	0.1958
263.9718	0.1803
264.186	0.1991
264.4002	0.1914
264.6144	0.1893
264.8286	0.1919
265.0427	0.1796
265.2569	0.1928
265.471	0.1703
265.6851	0.1719
265.8993	0.1946
266.1134	0.1856
266.3275	0.178
266.5415	0.177
266.7556	0.186
266.9697	0.1878
267.1837	0.1942
267.3978	0.1925
267.6118	0.1957
267.8258	0.1961
268.0398	0.1971
268.2538	0.1869
268.4677	0.1914
268.6817	0.1835
268.8957	0.1906
269.1096	0.1804
269.3235	0.1845
269.5374	0.1817
269.7514	0.1714
269.9652	0.1776
270.1791	0.1729
270.393	0.1681
270.6068	0.1759
270.8207	0.1919
271.0345	0.1644
271.2483	0.1762
271.4622	0.1751
271.676	0.1682
271.8897	0.1711
272.1035	0.1736
272.3173	0.1663
272.531	0.1556
272.7448	0.1721
272.9585	0.1781
273.1722	0.1688
273.3859	0.1811
273.5996	0.1811
273.8133	0.1633
274.0269	0.1761
274.2406	0.1799
274.4542	0.1795
274.6679	0.1797
274.8815	0.175
275.0951	0.1773
275.3087	0.1743
275.5223	0.1755
275.7358	0.1704
275.9494	0.1725
276.1629	0.1749
276.3765	0.1693
276.59	0.1593
276.8035	0.1753
277.017	0.1647
277.2305	0.1771
277.444	0.174
277.6574	0.1678
277.8709	0.1505
278.0843	0.1769
278.2978	0.1787
278.5112	0.1942
278.7246	0.1722
278.938	0.1804
279.1513	0.1808
279.3647	0.1831
279.5781	0.1773
279.7914	0.1865
280.0047	0.1799
280.2181	0.1881
280.4314	0.1801
280.6447	0.1858
280.8579	0.1806
281.0712	0.1897
281.2845	0.1946
281.4977	0.1935
281.711	0.1885
281.9242	0.1677
282.1374	0.1798
282.3506	0.1819
282.5638	0.1917
282.7769	0.1856
282.9901	0.1777
283.2033	0.1828
283.4164	0.1791
283.6295	0.1718
283.8426	0.1933
284.0557	0.1833
284.2688	0.1799
284.4819	0.1892
284.695	0.1976
284.908	0.1702
285.1211	0.1849
285.3341	0.1803
285.5471	0.1983
285.7601	0.1899
285.9731	0.2
286.1861	0.193
286.3991	0.1826
286.612	0.1883
286.825	0.1808
287.0379	0.1855
287.2508	0.1791
287.4637	0.1863
287.6766	0.1748
287.8895	0.1774
288.1024	0.1861
288.3152	0.1755
288.5281	0.1871
288.7409	0.1831
288.9538	0.1941
289.1666	0.1771
289.3794	0.1865
289.5922	0.1832
289.8049	0.1823
290.0177	0.1864
290.2304	0.1864
290.4432	0.1687
290.6559	0.1924
290.8686	0.1912
291.0813	0.1753
291.294	0.1863
291.5067	0.1897
291.7194	0.1766
291.932	0.1943
292.1447	0.1836
292.3573	0.1968
292.5699	0.1907
292.7825	0.1769
292.9951	0.1828
293.2077	0.1876
293.4203	0.1916
293.6328	0.1903
293.8454	0.182
294.0579	0.1761
294.2704	0.1812
294.4829	0.1929
294.6954	0.1846
294.9079	0.1875
295.1204	0.1919
295.3328	0.1679
295.5453	0.1738
295.7577	0.1767
295.9701	0.1774
296.1825	0.1827
296.3949	0.1695
296.6073	0.178
296.8197	0.1799
297.0321	0.1845
297.2444	0.178
297.4567	0.1796
297.6691	0.174
297.8814	0.1808
298.0937	0.1809
298.306	0.181
298.5182	0.18
298.7305	0.1825
298.9428	0.1758
299.155	0.1802
299.3672	0.1692
299.5794	0.1718
299.7916	0.1703
300.0038	0.1745
300.216	0.1646
300.4282	0.1782
300.6403	0.1952
300.8525	0.1964
301.0646	0.1794
301.2767	0.1887
301.4888	0.1617
301.7009	0.1768
301.913	0.1862
302.125	0.1863
302.3371	0.1729
302.5491	0.1773
302.7612	0.1577
302.9732	0.1635
303.1852	0.1769
303.3972	0.1812
303.6092	0.1792
303.8211	0.1777
304.0331	0.1677
304.245	0.1732
304.457	0.1714
304.6689	0.1648
304.8808	0.1557
305.0927	0.1614
305.3046	0.1611
305.5164	0.1656
305.7283	0.1624
305.9401	0.1648
306.152	0.1499
306.3638	0.1476
306.5756	0.1518
306.7874	0.1577
306.9992	0.1414
307.2109	0.1505
307.4227	0.146
307.6344	0.1543
307.8462	0.1408
308.0579	0.1467
308.2696	0.1514
308.4813	0.1343
308.693	0.1525
308.9046	0.1357
309.1163	0.1404
309.328	0.1392
309.5396	0.1362
309.7512	0.1268
309.9628	0.1385
310.1744	0.1271
310.386	0.1206
310.5976	0.1379
310.8091	0.1219
311.0207	0.1205
311.2322	0.1211
311.4437	0.1323
311.6552	0.124
311.8667	0.1127
312.0782	0.1294
312.2897	0.1182
312.5012	0.1097
312.7126	0.1205
312.924	0.1019
313.1355	0.1322
313.3469	0.1173
313.5583	0.112
313.7696	0.1068
313.981	0.117
314.1924	0.1178
314.4037	0.11
314.6151	0.1086
314.8264	0.1183
315.0377	0.1155
315.249	0.0999
315.4603	0.1106
315.6716	0.1091
315.8828	0.0974
316.0941	0.0986
316.3053	0.1095
316.5165	0.1093
316.7277	0.0992
316.9389	0.1101
317.1501	0.1038
317.3613	0.0936
317.5724	0.1095
317.7836	0.0987
317.9947	0.1006
318.2058	0.1011
318.417	0.1035
318.6281	0.0955
318.8391	0.1005
319.0502	0.1015
319.2613	0.1096
319.4723	0.1061
319.6834	0.0962
319.8944	0.0964
320.1054	0.1079
320.3164	0.1106
320.5274	0.0958
320.7383	0.0995
320.9493	0.0929
321.1602	0.1035
321.3712	0.092
321.5821	0.1007
321.793	0.1124
322.0039	0.105
322.2148	0.113
322.4257	0.1014
322.6365	0.1029
322.8474	0.0947
323.0582	0.1174
323.269	0.1015
323.4798	0.1091
323.6906	0.0999
323.9014	0.1174
324.1122	0.1045
324.3229	0.1076
324.5337	0.1071
324.7444	0.1006
324.9551	0.1149
325.1658	0.1175
325.3765	0.1065
325.5872	0.1116
325.7979	0.1134
326.0085	0.0975
326.2192	0.0964
326.4298	0.108
326.6404	0.1036
326.851	0.1016
327.0616	0.1135
327.2722	0.1113
327.4828	0.1168
327.6933	0.1129
327.9039	0.1045
328.1144	0.1017
328.3249	0.0995
328.5354	0.1071
328.7459	0.1066
328.9564	0.1297
329.1669	0.1163
329.3773	0.1004
329.5878	0.1028
329.7982	0.0985
330.0086	0.0989
330.219	0.102
330.4294	0.1015
330.6398	0.1038
330.8502	0.1148
331.0605	0.125
331.2708	0.1011
331.4812	0.1104
331.6915	0.1071
331.9018	0.1071
332.1121	0.1092
332.3224	0.1023
332.5326	0.1152
332.7429	0.0938
332.9531	0.1063
333.1633	0.1084
333.3735	0.1003
333.5837	0.1082
333.7939	0.1
334.0041	0.1225
334.2143	0.1024
334.4244	0.1284
334.6346	0.0918
334.8447	0.1131
335.0548	0.1171
335.2649	0.1305
335.475	0.1197
335.685	0.1036
335.8951	0.1154
336.1051	0.1073
336.3152	0.1144
336.5252	0.1203
336.7352	0.1248
336.9452	0.1119
337.1552	0.1262
337.3652	0.1169
337.5751	0.118
337.7851	0.1077
337.995	0.1114
338.2049	0.1078
338.4148	0.1294
338.6247	0.1148
338.8346	0.1215
339.0445	0.1198
339.2543	0.1262
339.4642	0.1167
339.674	0.1208
339.8838	0.11
340.0936	0.1155
340.3034	0.1219
340.5132	0.1309
340.7229	0.1302
340.9327	0.1138
341.1424	0.1164
341.3522	0.1082
341.5619	0.1068
341.7716	0.1208
341.9813	0.1289
342.1909	0.1213
342.4006	0.1215
342.6102	0.1179
342.8199	0.1207
343.0295	0.1243
343.2391	0.1168
343.4487	0.1258
343.6583	0.116
343.8679	0.1389
344.0774	0.1317
344.287	0.1317
344.4965	0.1349
344.706	0.1292
344.9155	0.1213
345.125	0.1266
345.3345	0.1257
345.544	0.1372
345.7534	0.1227
345.9629	0.1286
346.1723	0.1284
346.3817	0.1221
346.5911	0.1383
346.8005	0.1292
347.0099	0.1448
347.2193	0.1317
347.4286	0.1209
347.638	0.1349
347.8473	0.132
348.0566	0.1379
348.2659	0.1397
348.4752	0.1434
348.6845	0.1415
348.8937	0.1406
349.103	0.1443
349.3122	0.1303
349.5214	0.133
349.7306	0.1291
349.9398	0.149
350.149	0.1485
350.3582	0.1343
350.5674	0.147
350.7765	0.1333
350.9856	0.14
351.1948	0.1433
351.4039	0.1628
351.613	0.1398
351.822	0.1459
352.0311	0.1461
352.2402	0.1391
352.4492	0.1412
352.6582	0.1426
352.8672	0.1529
353.0762	0.1558
353.2852	0.1503
353.4942	0.1529
353.7032	0.1516
353.9121	0.1345
354.1211	0.1546
354.33	0.1536
354.5389	0.1588
354.7478	0.1503
354.9567	0.1573
355.1655	0.1455
355.3744	0.1407
355.5833	0.1646
355.7921	0.1578
356.0009	0.1578
356.2097	0.1417
356.4185	0.1467
356.6273	0.1608
356.8361	0.1594
357.0448	0.1413
357.2536	0.1492
357.4623	0.1638
357.671	0.1683
357.8797	0.1662
358.0884	0.1674
358.2971	0.1596
358.5057	0.1634
358.7144	0.1692
358.923	0.1648
359.1316	0.1607
359.3402	0.1805
359.5488	0.1644
359.7574	0.174
359.966	0.1633
360.1746	0.167
360.3831	0.1651
360.5916	0.1864
360.8002	0.19
361.0087	0.1985
361.2172	0.1699
361.4256	0.1852
361.6341	0.1766
361.8426	0.1774
362.051	0.1694
362.2594	0.1818
362.4678	0.1825
362.6762	0.1668
362.8846	0.1844
363.093	0.1867
363.3014	0.1697
363.5097	0.1809
363.718	0.1853
363.9264	0.1858
364.1347	0.175
364.343	0.1977
364.5513	0.1963
364.7595	0.1906
364.9678	0.1756
365.176	0.2023
365.3842	0.1846
365.5925	0.1661
365.8007	0.2067
366.0089	0.2009
366.217	0.1972
366.4252	0.2034
366.6333	0.2077
366.8415	0.1996
367.0496	0.1823
367.2577	0.2148
367.4658	0.1924
367.6739	0.2085
367.882	0.2075
368.09	0.2117
368.2981	0.1999
368.5061	0.2004
368.7141	0.2113
368.9221	0.195
369.1301	0.2074
369.3381	0.2314
369.5461	0.2062
369.754	0.2029
369.962	0.2039
370.1699	0.2085
370.3778	0.2158
370.5857	0.217
370.7936	0.2218
371.0015	0.2211
371.2093	0.2295
371.4172	0.1943
371.625	0.2091
371.8328	0.2161
372.0406	0.2187
372.2484	0.2033
372.4562	0.2197
372.664	0.224
372.8717	0.2063
373.0795	0.2206
373.2872	0.2198
373.4949	0.2129
373.7026	0.2339
373.9103	0.2204
374.118	0.209
374.3256	0.237
374.5333	0.2252
374.7409	0.2026
374.9485	0.2227
375.1561	0.2246
375.3637	0.2032
375.5713	0.2196
375.7789	0.2314
375.9864	0.2144
376.194	0.2298
376.4015	0.2373
376.609	0.2212
376.8165	0.2283
377.024	0.2266
377.2315	0.2129
377.4389	0.2289
377.6464	0.2288
377.8538	0.2273
378.0612	0.2372
378.2686	0.248
378.476	0.2339
378.6834	0.2479
378.8908	0.2204
379.0981	0.2401
379.3055	0.2435
379.5128	0.2455
379.7201	0.2491
379.9274	0.2528
380.1347	0.2429
380.342	0.2344
380.5492	0.2337
380.7565	0.2519
380.9637	0.2534
381.1709	0.2477
381.3781	0.2293
381.5853	0.2522
381.7925	0.246
381.9997	0.2372
382.2068	0.2322
382.4139	0.2479
382.6211	0.2597
382.8282	0.2494
383.0353	0.259
383.2424	0.2503
383.4494	0.2587
383.6565	0.2485
383.8635	0.2509
384.0706	0.255
384.2776	0.2413
384.4846	0.2503
384.6916	0.2597
384.8986	0.2502
385.1055	0.2365
385.3125	0.2387
385.5194	0.2452
385.7263	0.245
385.9333	0.2399
386.1402	0.2388
386.347	0.2527
386.5539	0.2499
386.7608	0.2367
386.9676	0.223
387.1744	0.2529
387.3813	0.2491
387.5881	0.2434
387.7948	0.2403
388.0016	0.2321
388.2084	0.2356
388.4151	0.2489
388.6219	0.2441
388.8286	0.2396
389.0353	0.2411
389.242	0.2513
389.4487	0.2407
389.6553	0.2415
389.862	0.25
390.0686	0.2393
390.2753	0.244
390.4819	0.2419
390.6885	0.2443
390.8951	0.2316
391.1016	0.2218
391.3082	0.2389
391.5147	0.2277
391.7213	0.225
391.9278	0.2296
392.1343	0.2259
392.3408	0.2327
392.5473	0.2405
392.7537	0.2199
392.9602	0.2412
393.1666	0.2366
393.373	0.2085
393.5794	0.2178
393.7858	0.2209
393.9922	0.2256
394.1986	0.2228
394.4049	0.2187
394.6113	0.2142
394.8176	0.2374
395.0239	0.2239
395.2302	0.2083
395.4365	0.215
395.6428	0.2317
395.8491	0.2104
396.0553	0.2354
396.2615	0.2203
396.4678	0.2073
396.674	0.1974
396.8802	0.2106
397.0863	0.2212
397.2925	0.2092
397.4987	0.2141
397.7048	0.2116
397.9109	0.2172
398.117	0.2084
398.3231	0.1955
398.5292	0.2063
398.7353	0.1998
398.9413	0.2021
399.1474	0.2123
399.3534	0.2086
399.5594	0.223
399.7654	0.2106
399.9714	0.1968
400.1774	0.1992
400.3833	0.2167
400.5893	0.2047
400.7952	0.1975
401.0011	0.2152
401.207	0.2107
401.4129	0.1949
401.6188	0.1987
401.8247	0.2163
402.0305	0.2026
402.2364	0.2184
402.4422	0.2133
402.648	0.2031
402.8538	0.2003
403.0596	0.2006
403.2654	0.2022
403.4711	0.2023
403.6768	0.2073
403.8826	0.2234
404.0883	0.2065
404.294	0.2086
404.4997	0.1848
404.7054	0.2076
404.911	0.2083
405.1167	0.1974
405.3223	0.2032
405.5279	0.2152
405.7335	0.2319
405.9391	0.2146
406.1447	0.196
406.3502	0.2002
406.5558	0.2058
406.7613	0.2283
406.9668	0.1949
407.1724	0.1979
407.3778	0.2082
407.5833	0.2153
407.7888	0.2027
407.9942	0.219
408.1997	0.2035
408.4051	0.2011
408.6105	0.1898
408.8159	0.2025
409.0213	0.1945
409.2267	0.1916
409.432	0.208
409.6374	0.2014
409.8427	0.2016
410.048	0.209
410.2533	0.2024
410.4586	0.1895
410.6639	0.1953
410.8691	0.1878
411.0744	0.2073
411.2796	0.1826
411.4848	0.2072
411.69	0.2004
411.8952	0.203
412.1004	0.1819
412.3056	0.1928
412.5107	0.1892
412.7158	0.1872
412.921	0.2019
413.1261	0.2073
413.3312	0.1926
413.5362	0.2024
413.7413	0.187
413.9464	0.2162
414.1514	0.2099
414.3564	0.189
414.5614	0.1715
414.7664	0.2077
414.9714	0.2005
415.1764	0.2022
415.3813	0.2046
415.5863	0.1838
415.7912	0.1881
415.9961	0.2262
416.201	0.2077
416.4059	0.1774
416.6108	0.1974
416.8156	0.2223
417.0205	0.1931
417.2253	0.184
417.4301	0.1984
417.6349	0.1914
417.8397	0.191
418.0445	0.1781
418.2492	0.1857
418.454	0.1902
418.6587	0.1853
418.8634	0.2043
419.0681	0.2203
419.2728	0.1778
419.4775	0.1886
419.6822	0.1859
419.8868	0.1961
420.0915	0.1734
420.2961	0.1811
420.5007	0.1851
420.7053	0.1883
420.9099	0.1819
421.1144	0.1965
421.319	0.1738
421.5235	0.1954
421.728	0.1783
421.9325	0.1789
422.137	0.1763
422.3415	0.165
422.546	0.1714
422.7504	0.1851
422.9549	0.1952
423.1593	0.1624
423.3637	0.197
423.5681	0.1696
423.7725	0.1695
423.9769	0.1666
424.1812	0.1867
424.3856	0.171
424.5899	0.1915
424.7942	0.1674
424.9985	0.1819
425.2028	0.1497
425.4071	0.1554
425.6113	0.1736
425.8156	0.1864
426.0198	0.1668
426.224	0.1801
426.4282	0.1667
