Data from MonoPyChalIsomerACN10uM400nmA_Absorbance_12-08-41-331.txt Node
Date: Fri Jul 05 12:08:41 BST 2024
User: LASERRRRR
Spectrometer: FLMT03099
Trigger mode: 0
Integration Time (sec): 1.000000E-1
Scans to average: 1
Electric dark correction enabled: true
Nonlinearity correction enabled: false
Boxcar width: 0
XAxis mode: Wavelengths
Number of Pixels in Spectrum: 3648
>>>>>Begin Spectral Data<<<<<
179.3399	-0
179.5586	-0
179.7771	-0
179.9957	0.9519
180.2143	-0
180.4329	-0
180.6514	-0.1934
180.8699	-0.4388
181.0885	0.2155
181.307	0.0007
181.5255	-0.265
181.744	-0.0888
181.9625	-0.6452
182.181	-0
182.3994	-0.4084
182.6179	0.1025
182.8363	-0.3654
183.0547	0.036
183.2732	0.323
183.4916	0.1665
183.71	0.0456
183.9284	0.1591
184.1467	0.03
184.3651	-0.0276
184.5835	0.1198
184.8018	0.1485
185.0201	0.0745
185.2385	-0.0251
185.4568	0.1562
185.6751	0.3442
185.8934	-0.0144
186.1117	0.1044
186.3299	0.0742
186.5482	0.0033
186.7664	0.2733
186.9847	0.2691
187.2029	0.1406
187.4211	-0.0273
187.6393	-0.0003
187.8575	0.0516
188.0757	0.0166
188.2939	0.1703
188.512	0.0633
188.7302	0.0307
188.9483	0.2143
189.1665	0.0948
189.3846	0.2363
189.6027	0.3251
189.8208	0.0557
190.0389	0.1763
190.257	0.1042
190.475	0.3017
190.6931	0.4373
190.9111	0.1747
191.1292	0.1987
191.3472	0.2973
191.5652	0.3254
191.7832	0.9847
192.0012	0.5025
192.2192	0.5791
192.4371	0.3319
192.6551	0.5386
192.873	0.5049
193.091	0.5185
193.3089	0.4455
193.5268	0.5811
193.7447	0.6634
193.9626	0.7954
194.1805	0.6746
194.3984	0.4043
194.6162	0.5151
194.8341	0.4446
195.0519	0.762
195.2697	0.7346
195.4875	0.6571
195.7054	0.6324
195.9231	0.4353
196.1409	0.6365
196.3587	0.559
196.5765	0.6577
196.7942	0.6168
197.012	0.7594
197.2297	0.776
197.4474	0.6773
197.6651	0.846
197.8828	0.8537
198.1005	0.6258
198.3182	0.9657
198.5358	0.7803
198.7535	0.6308
198.9711	0.7407
199.1888	0.6055
199.4064	0.9687
199.624	0.8436
199.8416	1.022
200.0592	0.9966
200.2767	0.6198
200.4943	0.7568
200.7119	0.7558
200.9294	0.733
201.1469	1.0402
201.3645	0.7662
201.582	0.7759
201.7995	1.0482
202.017	0.8217
202.2344	0.6244
202.4519	0.7567
202.6694	1.1899
202.8868	0.7321
203.1042	0.7491
203.3217	0.7392
203.5391	1.0005
203.7565	0.7677
203.9739	0.739
204.1913	0.8677
204.4086	1.0235
204.626	0.9311
204.8433	1.002
205.0607	0.779
205.278	1.1009
205.4953	0.7522
205.7126	0.7303
205.9299	0.8619
206.1472	0.8229
206.3644	0.6618
206.5817	0.7887
206.7989	0.7241
207.0162	0.7152
207.2334	0.8555
207.4506	0.7668
207.6678	0.6959
207.885	0.902
208.1022	0.7833
208.3194	0.7722
208.5365	0.7505
208.7537	0.8537
208.9708	0.8474
209.1879	0.797
209.405	0.7457
209.6222	0.8027
209.8392	0.7893
210.0563	0.7742
210.2734	0.8044
210.4905	0.8229
210.7075	0.7959
210.9245	0.7903
211.1416	0.8265
211.3586	0.8635
211.5756	0.8567
211.7926	0.7466
212.0096	0.7588
212.2265	0.6687
212.4435	0.724
212.6604	0.7425
212.8774	0.7995
213.0943	0.7935
213.3112	0.7689
213.5281	0.6551
213.745	0.7008
213.9619	0.774
214.1788	0.7437
214.3956	0.6817
214.6125	0.5893
214.8293	0.6886
215.0461	0.7369
215.2629	0.7135
215.4798	0.6339
215.6965	0.7226
215.9133	0.6432
216.1301	0.5906
216.3469	0.6757
216.5636	0.6906
216.7803	0.6379
216.9971	0.6184
217.2138	0.6466
217.4305	0.6338
217.6472	0.6383
217.8639	0.6246
218.0805	0.669
218.2972	0.571
218.5138	0.6184
218.7305	0.6256
218.9471	0.6014
219.1637	0.5959
219.3803	0.569
219.5969	0.5901
219.8135	0.5958
220.0301	0.5914
220.2466	0.5584
220.4632	0.5313
220.6797	0.5683
220.8962	0.5742
221.1127	0.5427
221.3292	0.5331
221.5457	0.5758
221.7622	0.567
221.9787	0.5482
222.1951	0.5515
222.4116	0.553
222.628	0.6074
222.8444	0.5752
223.0608	0.571
223.2772	0.553
223.4936	0.5724
223.71	0.5814
223.9264	0.5526
224.1427	0.5809
224.3591	0.5683
224.5754	0.5655
224.7917	0.5471
225.008	0.5867
225.2243	0.5652
225.4406	0.5729
225.6569	0.5989
225.8732	0.5968
226.0894	0.5528
226.3057	0.5786
226.5219	0.5356
226.7381	0.5966
226.9543	0.6117
227.1705	0.5851
227.3867	0.5732
227.6029	0.5354
227.8191	0.5554
228.0352	0.6151
228.2513	0.5874
228.4675	0.6261
228.6836	0.6148
228.8997	0.551
229.1158	0.5968
229.3319	0.5736
229.548	0.6238
229.764	0.5862
229.9801	0.5765
230.1961	0.6067
230.4121	0.5851
230.6282	0.567
230.8442	0.5796
231.0602	0.5517
231.2761	0.5671
231.4921	0.5909
231.7081	0.5332
231.924	0.6401
232.14	0.5793
232.3559	0.5921
232.5718	0.5896
232.7877	0.5604
233.0036	0.573
233.2195	0.5622
233.4353	0.5714
233.6512	0.5998
233.867	0.585
234.0829	0.5692
234.2987	0.5995
234.5145	0.5759
234.7303	0.5751
234.9461	0.5847
235.1619	0.5845
235.3776	0.5778
235.5934	0.5426
235.8091	0.5778
236.0249	0.5321
236.2406	0.5572
236.4563	0.5777
236.672	0.5483
236.8877	0.5619
237.1034	0.5517
237.319	0.5552
237.5347	0.5755
237.7503	0.535
237.966	0.5521
238.1816	0.5616
238.3972	0.5755
238.6128	0.5337
238.8284	0.5553
239.0439	0.5306
239.2595	0.5353
239.475	0.5305
239.6906	0.533
239.9061	0.517
240.1216	0.5356
240.3371	0.5376
240.5526	0.5525
240.7681	0.5332
240.9836	0.5553
241.199	0.5043
241.4145	0.5316
241.6299	0.4669
241.8453	0.4751
242.0607	0.5115
242.2761	0.4893
242.4915	0.4656
242.7069	0.4534
242.9223	0.4441
243.1376	0.4373
243.353	0.4292
243.5683	0.4415
243.7836	0.4076
243.9989	0.4187
244.2142	0.4245
244.4295	0.3901
244.6448	0.3906
244.86	0.3968
245.0753	0.3702
245.2905	0.3673
245.5057	0.3618
245.721	0.3697
245.9362	0.3548
246.1514	0.3339
246.3665	0.3212
246.5817	0.3342
246.7969	0.3219
247.012	0.3217
247.2271	0.3207
247.4423	0.2921
247.6574	0.2917
247.8725	0.2982
248.0876	0.2998
248.3026	0.2771
248.5177	0.2937
248.7328	0.2899
248.9478	0.2738
249.1628	0.259
249.3779	0.2575
249.5929	0.2636
249.8079	0.2558
250.0228	0.2494
250.2378	0.248
250.4528	0.2524
250.6677	0.2314
250.8827	0.236
251.0976	0.2394
251.3125	0.2348
251.5274	0.2382
251.7423	0.2334
251.9572	0.2212
252.172	0.2272
252.3869	0.2235
252.6017	0.2188
252.8166	0.2205
253.0314	0.2054
253.2462	0.2258
253.461	0.2108
253.6758	0.2094
253.8906	0.2037
254.1053	0.2093
254.3201	0.21
254.5348	0.2064
254.7496	0.2016
254.9643	0.1993
255.179	0.2019
255.3937	0.2043
255.6083	0.1901
255.823	0.1929
256.0377	0.1854
256.2523	0.191
256.467	0.2002
256.6816	0.1935
256.8962	0.1851
257.1108	0.1978
257.3254	0.2009
257.54	0.1984
257.7545	0.1922
257.9691	0.2054
258.1836	0.1927
258.3981	0.1938
258.6127	0.2011
258.8272	0.1949
259.0417	0.187
259.2561	0.1774
259.4706	0.193
259.6851	0.1957
259.8995	0.1905
260.114	0.1725
260.3284	0.1838
260.5428	0.1986
260.7572	0.2055
260.9716	0.1962
261.186	0.1985
261.4003	0.1993
261.6147	0.1985
261.829	0.2007
262.0433	0.1752
262.2577	0.18
262.472	0.1982
262.6863	0.1952
262.9005	0.178
263.1148	0.1932
263.3291	0.1957
263.5433	0.1836
263.7576	0.1998
263.9718	0.183
264.186	0.1823
264.4002	0.1794
264.6144	0.1914
264.8286	0.1878
265.0427	0.1841
265.2569	0.1929
265.471	0.188
265.6851	0.1812
265.8993	0.1758
266.1134	0.1807
266.3275	0.1852
266.5415	0.1871
266.7556	0.1815
266.9697	0.193
267.1837	0.1815
267.3978	0.1829
267.6118	0.186
267.8258	0.1881
268.0398	0.1919
268.2538	0.1849
268.4677	0.1874
268.6817	0.1812
268.8957	0.203
269.1096	0.1818
269.3235	0.1737
269.5374	0.1729
269.7514	0.1673
269.9652	0.1939
270.1791	0.1789
270.393	0.169
270.6068	0.1838
270.8207	0.187
271.0345	0.1612
271.2483	0.1799
271.4622	0.1815
271.676	0.1773
271.8897	0.1831
272.1035	0.1643
272.3173	0.1583
272.531	0.1626
272.7448	0.1737
272.9585	0.1686
273.1722	0.1829
273.3859	0.1767
273.5996	0.1667
273.8133	0.1685
274.0269	0.1674
274.2406	0.1634
274.4542	0.168
274.6679	0.1723
274.8815	0.1578
275.0951	0.1773
275.3087	0.1716
275.5223	0.1752
275.7358	0.1741
275.9494	0.1705
276.1629	0.169
276.3765	0.1608
276.59	0.1762
276.8035	0.1689
277.017	0.1567
277.2305	0.1798
277.444	0.1719
277.6574	0.1713
277.8709	0.1587
278.0843	0.1732
278.2978	0.1742
278.5112	0.1831
278.7246	0.1697
278.938	0.166
279.1513	0.1848
279.3647	0.1716
279.5781	0.1682
279.7914	0.1834
280.0047	0.1779
280.2181	0.1763
280.4314	0.1754
280.6447	0.1823
280.8579	0.1804
281.0712	0.1835
281.2845	0.1856
281.4977	0.1745
281.711	0.1764
281.9242	0.1743
282.1374	0.1777
282.3506	0.1862
282.5638	0.1813
282.7769	0.1766
282.9901	0.1852
283.2033	0.1732
283.4164	0.1755
283.6295	0.1708
283.8426	0.1773
284.0557	0.1862
284.2688	0.1785
284.4819	0.1782
284.695	0.1838
284.908	0.1924
285.1211	0.1807
285.3341	0.1722
285.5471	0.1868
285.7601	0.1849
285.9731	0.1946
286.1861	0.1933
286.3991	0.1779
286.612	0.1956
286.825	0.1855
287.0379	0.2008
287.2508	0.1833
287.4637	0.1878
287.6766	0.1714
287.8895	0.1922
288.1024	0.1913
288.3152	0.1917
288.5281	0.1838
288.7409	0.1917
288.9538	0.1865
289.1666	0.1882
289.3794	0.1801
289.5922	0.1848
289.8049	0.1773
290.0177	0.1841
290.2304	0.1779
290.4432	0.1746
290.6559	0.1874
290.8686	0.1984
291.0813	0.178
291.294	0.1948
291.5067	0.1856
291.7194	0.1856
291.932	0.1905
292.1447	0.1965
292.3573	0.1974
292.5699	0.2046
292.7825	0.1851
292.9951	0.1959
293.2077	0.1995
293.4203	0.1993
293.6328	0.1845
293.8454	0.1864
294.0579	0.1891
294.2704	0.1845
294.4829	0.1888
294.6954	0.1848
294.9079	0.1917
295.1204	0.1982
295.3328	0.1815
295.5453	0.1717
295.7577	0.1774
295.9701	0.1776
296.1825	0.1894
296.3949	0.1693
296.6073	0.1919
296.8197	0.1837
297.0321	0.1877
297.2444	0.1795
297.4567	0.1841
297.6691	0.181
297.8814	0.1819
298.0937	0.1968
298.306	0.181
298.5182	0.1796
298.7305	0.1948
298.9428	0.1858
299.155	0.1842
299.3672	0.1666
299.5794	0.1934
299.7916	0.1742
300.0038	0.178
300.216	0.174
300.4282	0.1865
300.6403	0.195
300.8525	0.192
301.0646	0.1863
301.2767	0.1818
301.4888	0.1864
301.7009	0.1896
301.913	0.1852
302.125	0.1778
302.3371	0.1907
302.5491	0.1805
302.7612	0.1808
302.9732	0.1798
303.1852	0.1791
303.3972	0.1838
303.6092	0.1797
303.8211	0.181
304.0331	0.1802
304.245	0.1834
304.457	0.183
304.6689	0.1782
304.8808	0.168
305.0927	0.1709
305.3046	0.1744
305.5164	0.1669
305.7283	0.1684
305.9401	0.1665
306.152	0.1507
306.3638	0.155
306.5756	0.1597
306.7874	0.1469
306.9992	0.1512
307.2109	0.1612
307.4227	0.1586
307.6344	0.1449
307.8462	0.1394
308.0579	0.1501
308.2696	0.1468
308.4813	0.1401
308.693	0.1586
308.9046	0.1382
309.1163	0.1441
309.328	0.141
309.5396	0.1461
309.7512	0.1404
309.9628	0.1315
310.1744	0.1346
310.386	0.1221
310.5976	0.1282
310.8091	0.1272
311.0207	0.1164
311.2322	0.1256
311.4437	0.1367
311.6552	0.1236
311.8667	0.1199
312.0782	0.1254
312.2897	0.1162
312.5012	0.1206
312.7126	0.1331
312.924	0.1113
313.1355	0.1236
313.3469	0.1099
313.5583	0.1162
313.7696	0.1193
313.981	0.1132
314.1924	0.1193
314.4037	0.1061
314.6151	0.1132
314.8264	0.1192
315.0377	0.1153
315.249	0.1085
315.4603	0.1054
315.6716	0.1009
315.8828	0.1039
316.0941	0.0873
316.3053	0.0998
316.5165	0.1135
316.7277	0.1049
316.9389	0.1024
317.1501	0.1045
317.3613	0.0888
317.5724	0.1105
317.7836	0.108
317.9947	0.1047
318.2058	0.107
318.417	0.1096
318.6281	0.0976
318.8391	0.1077
319.0502	0.0983
319.2613	0.1191
319.4723	0.1016
319.6834	0.1031
319.8944	0.1007
320.1054	0.102
320.3164	0.0995
320.5274	0.0899
320.7383	0.1116
320.9493	0.104
321.1602	0.1117
321.3712	0.1008
321.5821	0.1032
321.793	0.1025
322.0039	0.09
322.2148	0.1033
322.4257	0.0973
322.6365	0.1058
322.8474	0.099
323.0582	0.1187
323.269	0.1094
323.4798	0.1035
323.6906	0.0906
323.9014	0.0981
324.1122	0.1061
324.3229	0.103
324.5337	0.1039
324.7444	0.111
324.9551	0.108
325.1658	0.1108
325.3765	0.106
325.5872	0.0986
325.7979	0.1079
326.0085	0.0945
326.2192	0.0909
326.4298	0.1104
326.6404	0.1115
326.851	0.1073
327.0616	0.1046
327.2722	0.1045
327.4828	0.1256
327.6933	0.0953
327.9039	0.1085
328.1144	0.1078
328.3249	0.0958
328.5354	0.1014
328.7459	0.1149
328.9564	0.0974
329.1669	0.107
329.3773	0.1075
329.5878	0.1035
329.7982	0.1036
330.0086	0.0975
330.219	0.0937
330.4294	0.0989
330.6398	0.104
330.8502	0.1091
331.0605	0.1196
331.2708	0.0991
331.4812	0.0975
331.6915	0.1095
331.9018	0.1079
332.1121	0.1084
332.3224	0.112
332.5326	0.1032
332.7429	0.106
332.9531	0.1049
333.1633	0.1137
333.3735	0.1021
333.5837	0.1051
333.7939	0.0982
334.0041	0.1189
334.2143	0.1102
334.4244	0.1099
334.6346	0.0885
334.8447	0.1198
335.0548	0.1214
335.2649	0.1119
335.475	0.1059
335.685	0.0986
335.8951	0.1067
336.1051	0.1103
336.3152	0.1154
336.5252	0.1018
336.7352	0.1163
336.9452	0.1224
337.1552	0.1244
337.3652	0.1166
337.5751	0.1199
337.7851	0.1007
337.995	0.1259
338.2049	0.1028
338.4148	0.1163
338.6247	0.1081
338.8346	0.1151
339.0445	0.1126
339.2543	0.11
339.4642	0.1176
339.674	0.1191
339.8838	0.12
340.0936	0.124
340.3034	0.1251
340.5132	0.1222
340.7229	0.1171
340.9327	0.1127
341.1424	0.1205
341.3522	0.1069
341.5619	0.1135
341.7716	0.1265
341.9813	0.118
342.1909	0.1072
342.4006	0.1274
342.6102	0.1154
342.8199	0.1265
343.0295	0.1202
343.2391	0.1135
343.4487	0.1264
343.6583	0.1231
343.8679	0.1369
344.0774	0.1302
344.287	0.1139
344.4965	0.1372
344.706	0.1276
344.9155	0.1256
345.125	0.1255
345.3345	0.1256
345.544	0.1412
345.7534	0.1255
345.9629	0.1261
346.1723	0.1312
346.3817	0.1334
346.5911	0.124
346.8005	0.1272
347.0099	0.1312
347.2193	0.1226
347.4286	0.1364
347.638	0.1286
347.8473	0.1294
348.0566	0.1421
348.2659	0.1332
348.4752	0.1426
348.6845	0.1298
348.8937	0.1408
349.103	0.1252
349.3122	0.1393
349.5214	0.1354
349.7306	0.1446
349.9398	0.144
350.149	0.132
350.3582	0.1343
350.5674	0.1539
350.7765	0.131
350.9856	0.1417
351.1948	0.1337
351.4039	0.1607
351.613	0.1423
351.822	0.1478
352.0311	0.1527
352.2402	0.1409
352.4492	0.1447
352.6582	0.1363
352.8672	0.1425
353.0762	0.16
353.2852	0.1494
353.4942	0.1474
353.7032	0.1534
353.9121	0.1501
354.1211	0.1457
354.33	0.1507
354.5389	0.1469
354.7478	0.1608
354.9567	0.1587
355.1655	0.1552
355.3744	0.1539
355.5833	0.1747
355.7921	0.1442
356.0009	0.1621
356.2097	0.1498
356.4185	0.1368
356.6273	0.1544
356.8361	0.1633
357.0448	0.1522
357.2536	0.1461
357.4623	0.1566
357.671	0.1738
357.8797	0.1776
358.0884	0.1708
358.2971	0.1671
358.5057	0.1631
358.7144	0.149
358.923	0.1698
359.1316	0.1673
359.3402	0.1816
359.5488	0.1765
359.7574	0.1863
359.966	0.1702
360.1746	0.173
360.3831	0.1739
360.5916	0.1915
360.8002	0.1893
361.0087	0.1886
361.2172	0.1831
361.4256	0.1833
361.6341	0.193
361.8426	0.1803
362.051	0.1778
362.2594	0.1824
362.4678	0.1859
362.6762	0.179
362.8846	0.1751
363.093	0.1879
363.3014	0.1872
363.5097	0.1895
363.718	0.1896
363.9264	0.2008
364.1347	0.1911
364.343	0.1936
364.5513	0.2053
364.7595	0.1944
364.9678	0.1915
365.176	0.2106
365.3842	0.2135
365.5925	0.1747
365.8007	0.2115
366.0089	0.1993
366.217	0.1958
366.4252	0.2014
366.6333	0.1971
366.8415	0.1981
367.0496	0.1974
367.2577	0.2326
367.4658	0.209
367.6739	0.2256
367.882	0.2098
368.09	0.2168
368.2981	0.2019
368.5061	0.2203
368.7141	0.2008
368.9221	0.214
369.1301	0.2115
369.3381	0.2243
369.5461	0.2307
369.754	0.2075
369.962	0.2186
370.1699	0.2167
370.3778	0.2339
370.5857	0.2179
370.7936	0.2264
371.0015	0.2264
371.2093	0.2287
371.4172	0.2201
371.625	0.2238
371.8328	0.2301
372.0406	0.2366
372.2484	0.225
372.4562	0.2388
372.664	0.2311
372.8717	0.2242
373.0795	0.226
373.2872	0.2309
373.4949	0.2344
373.7026	0.2594
373.9103	0.235
374.118	0.2153
374.3256	0.2506
374.5333	0.2265
374.7409	0.2253
374.9485	0.2365
375.1561	0.246
375.3637	0.2216
375.5713	0.2472
375.7789	0.2464
375.9864	0.2436
376.194	0.2348
376.4015	0.2402
376.609	0.2416
376.8165	0.2309
377.024	0.2502
377.2315	0.2288
377.4389	0.2365
377.6464	0.2408
377.8538	0.2441
378.0612	0.2523
378.2686	0.2491
378.476	0.2551
378.6834	0.2533
378.8908	0.2427
379.0981	0.2592
379.3055	0.2687
379.5128	0.2427
379.7201	0.2549
379.9274	0.2549
380.1347	0.2494
380.342	0.2518
380.5492	0.2551
380.7565	0.2635
380.9637	0.2523
381.1709	0.2587
381.3781	0.273
381.5853	0.2624
381.7925	0.2702
381.9997	0.2678
382.2068	0.2648
382.4139	0.2552
382.6211	0.2757
382.8282	0.268
383.0353	0.2623
383.2424	0.2819
383.4494	0.2656
383.6565	0.2561
383.8635	0.2727
384.0706	0.2873
384.2776	0.2808
384.4846	0.2588
384.6916	0.2767
384.8986	0.2593
385.1055	0.2521
385.3125	0.2726
385.5194	0.2649
385.7263	0.2656
385.9333	0.2685
386.1402	0.2666
386.347	0.274
386.5539	0.2634
386.7608	0.2745
386.9676	0.2517
387.1744	0.2667
387.3813	0.2626
387.5881	0.2476
387.7948	0.2652
388.0016	0.2539
388.2084	0.2614
388.4151	0.2522
388.6219	0.2662
388.8286	0.2499
389.0353	0.2601
389.242	0.2535
389.4487	0.2804
389.6553	0.2492
389.862	0.2633
390.0686	0.2567
390.2753	0.2663
390.4819	0.2563
390.6885	0.2513
390.8951	0.2606
391.1016	0.2664
391.3082	0.2443
391.5147	0.2485
391.7213	0.2418
391.9278	0.2405
392.1343	0.2353
392.3408	0.2317
392.5473	0.2395
392.7537	0.2493
392.9602	0.2458
393.1666	0.2433
393.373	0.2282
393.5794	0.2494
393.7858	0.2321
393.9922	0.246
394.1986	0.2515
394.4049	0.2161
394.6113	0.2171
394.8176	0.2407
395.0239	0.2487
395.2302	0.2431
395.4365	0.2314
395.6428	0.2442
395.8491	0.2158
396.0553	0.2352
396.2615	0.219
396.4678	0.2297
396.674	0.2313
396.8802	0.2372
397.0863	0.2284
397.2925	0.2162
397.4987	0.2277
397.7048	0.2273
397.9109	0.233
398.117	0.2052
398.3231	0.2223
398.5292	0.2376
398.7353	0.2272
398.9413	0.2149
399.1474	0.2311
399.3534	0.2224
399.5594	0.2304
399.7654	0.2226
399.9714	0.2123
400.1774	0.2276
400.3833	0.2237
400.5893	0.2173
400.7952	0.2229
401.0011	0.2365
401.207	0.2228
401.4129	0.2191
401.6188	0.2231
401.8247	0.2251
402.0305	0.2316
402.2364	0.2329
402.4422	0.212
402.648	0.2145
402.8538	0.2288
403.0596	0.2248
403.2654	0.2263
403.4711	0.2139
403.6768	0.2134
403.8826	0.2179
404.0883	0.2218
404.294	0.2256
404.4997	0.2022
404.7054	0.2243
404.911	0.2216
405.1167	0.2123
405.3223	0.2266
405.5279	0.2339
405.7335	0.2356
405.9391	0.2323
406.1447	0.2358
406.3502	0.2158
406.5558	0.2228
406.7613	0.234
406.9668	0.2255
407.1724	0.2221
407.3778	0.2222
407.5833	0.2193
407.7888	0.2299
407.9942	0.2163
408.1997	0.231
408.4051	0.2192
408.6105	0.2026
408.8159	0.2095
409.0213	0.217
409.2267	0.2237
409.432	0.2412
409.6374	0.214
409.8427	0.2098
410.048	0.2133
410.2533	0.2237
410.4586	0.1946
410.6639	0.2391
410.8691	0.2044
411.0744	0.2182
411.2796	0.2156
411.4848	0.2251
411.69	0.2235
411.8952	0.2258
412.1004	0.2101
412.3056	0.2286
412.5107	0.2115
412.7158	0.2183
412.921	0.2179
413.1261	0.2321
413.3312	0.2133
413.5362	0.215
413.7413	0.226
413.9464	0.217
414.1514	0.2167
414.3564	0.2041
414.5614	0.1993
414.7664	0.2085
414.9714	0.2356
415.1764	0.2137
415.3813	0.2127
415.5863	0.2315
415.7912	0.2062
415.9961	0.2386
416.201	0.2034
416.4059	0.2022
416.6108	0.2192
416.8156	0.2229
417.0205	0.2006
417.2253	0.1967
417.4301	0.2073
417.6349	0.2048
417.8397	0.1998
418.0445	0.2186
418.2492	0.2086
418.454	0.2108
418.6587	0.2064
418.8634	0.2135
419.0681	0.2238
419.2728	0.2083
419.4775	0.2217
419.6822	0.2185
419.8868	0.2141
420.0915	0.1873
420.2961	0.203
420.5007	0.1991
420.7053	0.2131
420.9099	0.1942
421.1144	0.2161
421.319	0.2069
421.5235	0.2175
421.728	0.194
421.9325	0.2099
422.137	0.1899
422.3415	0.1933
422.546	0.179
422.7504	0.2122
422.9549	0.2087
423.1593	0.1908
423.3637	0.214
423.5681	0.1773
423.7725	0.1737
423.9769	0.2087
424.1812	0.1963
424.3856	0.1888
424.5899	0.1983
424.7942	0.2045
424.9985	0.198
425.2028	0.166
425.4071	0.1827
425.6113	0.1749
425.8156	0.1872
426.0198	0.1963
426.224	0.1633
426.4282	0.1945
426.6324	0.1758
