Data from MonoPyChalIsomerACN10uM400nmA_Absorbance_12-08-44-428.txt Node
Date: Fri Jul 05 12:08:44 BST 2024
User: LASERRRRR
Spectrometer: FLMT03099
Trigger mode: 0
Integration Time (sec): 1.000000E-1
Scans to average: 1
Electric dark correction enabled: true
Nonlinearity correction enabled: false
Boxcar width: 0
XAxis mode: Wavelengths
Number of Pixels in Spectrum: 3648
>>>>>Begin Spectral Data<<<<<
179.3399	-0.0234
179.5586	-0.0234
179.7771	-0.0234
179.9957	1.1628
180.2143	-0
180.4329	-0
180.6514	-0
180.8699	-0.239
181.0885	-0
181.307	0.1351
181.5255	-0.248
181.744	-0.0801
181.9625	-0.8013
182.181	-0
182.3994	-0.4458
182.6179	0.1855
182.8363	0.623
183.0547	-0.0325
183.2732	0.0439
183.4916	0.0713
183.71	-0.0175
183.9284	0.1126
184.1467	0.0062
184.3651	-0.0878
184.5835	0.2945
184.8018	-0.0202
185.0201	0.0105
185.2385	0.0013
185.4568	0.0614
185.6751	0.1379
185.8934	0.0012
186.1117	-0.0197
186.3299	-0.1184
186.5482	-0.0304
186.7664	0.1242
186.9847	0.0011
187.2029	0.0224
187.4211	-0.2434
187.6393	-0.1356
187.8575	-0.0453
188.0757	0.1601
188.2939	0.0891
188.512	0.041
188.7302	-0.0463
188.9483	0.1152
189.1665	-0.0981
189.3846	0.0047
189.6027	0.2697
189.8208	0.0898
190.0389	0.0662
190.257	0.0699
190.475	0.2219
190.6931	0.1363
190.9111	0.025
191.1292	0.2048
191.3472	0.4027
191.5652	0.1079
191.7832	0.3851
192.0012	0.3398
192.2192	0.5258
192.4371	0.2129
192.6551	0.3183
192.873	0.3669
193.091	0.5081
193.3089	0.3443
193.5268	0.5439
193.7447	0.5962
193.9626	0.5425
194.1805	0.6271
194.3984	0.3773
194.6162	0.6131
194.8341	0.4488
195.0519	0.5053
195.2697	0.5491
195.4875	0.5478
195.7054	0.4904
195.9231	0.3619
196.1409	0.4744
196.3587	0.4518
196.5765	0.6013
196.7942	0.6518
197.012	0.6999
197.2297	0.59
197.4474	0.6355
197.6651	0.7255
197.8828	0.6519
198.1005	0.6098
198.3182	0.8034
198.5358	0.7005
198.7535	0.6864
198.9711	0.6617
199.1888	0.6676
199.4064	0.7835
199.624	0.566
199.8416	0.642
200.0592	0.8529
200.2767	0.5588
200.4943	0.7437
200.7119	0.7075
200.9294	0.5658
201.1469	0.7997
201.3645	0.6392
201.582	0.64
201.7995	0.8466
202.017	0.8627
202.2344	0.6726
202.4519	0.5775
202.6694	0.7631
202.8868	0.7642
203.1042	0.693
203.3217	0.5904
203.5391	0.7743
203.7565	0.7283
203.9739	0.6669
204.1913	0.9214
204.4086	0.7679
204.626	0.8069
204.8433	0.8265
205.0607	0.7861
205.278	0.8285
205.4953	0.7716
205.7126	0.6548
205.9299	0.8914
206.1472	0.6985
206.3644	0.6526
206.5817	0.7869
206.7989	0.6704
207.0162	0.7591
207.2334	0.9169
207.4506	0.7653
207.6678	0.7909
207.885	0.7955
208.1022	0.8354
208.3194	0.7186
208.5365	0.6606
208.7537	0.7757
208.9708	0.6726
209.1879	0.7932
209.405	0.7159
209.6222	0.7252
209.8392	0.7282
210.0563	0.693
210.2734	0.691
210.4905	0.7698
210.7075	0.7899
210.9245	0.7221
211.1416	0.7541
211.3586	0.719
211.5756	0.7051
211.7926	0.6764
212.0096	0.6215
212.2265	0.7063
212.4435	0.7339
212.6604	0.6983
212.8774	0.7576
213.0943	0.7116
213.3112	0.7339
213.5281	0.6168
213.745	0.687
213.9619	0.6498
214.1788	0.6359
214.3956	0.6641
214.6125	0.6202
214.8293	0.6544
215.0461	0.6558
215.2629	0.6227
215.4798	0.6656
215.6965	0.7039
215.9133	0.6391
216.1301	0.555
216.3469	0.6677
216.5636	0.6406
216.7803	0.6053
216.9971	0.6335
217.2138	0.6414
217.4305	0.5925
217.6472	0.5628
217.8639	0.601
218.0805	0.5871
218.2972	0.5624
218.5138	0.5707
218.7305	0.556
218.9471	0.5899
219.1637	0.5637
219.3803	0.4868
219.5969	0.5588
219.8135	0.5774
220.0301	0.5479
220.2466	0.5515
220.4632	0.5619
220.6797	0.5507
220.8962	0.5512
221.1127	0.5311
221.3292	0.521
221.5457	0.5709
221.7622	0.5517
221.9787	0.5143
222.1951	0.5434
222.4116	0.5373
222.628	0.5816
222.8444	0.531
223.0608	0.513
223.2772	0.5309
223.4936	0.5212
223.71	0.5789
223.9264	0.5418
224.1427	0.5158
224.3591	0.5561
224.5754	0.5608
224.7917	0.5565
225.008	0.5793
225.2243	0.5061
225.4406	0.5519
225.6569	0.5362
225.8732	0.57
226.0894	0.5541
226.3057	0.5307
226.5219	0.53
226.7381	0.5885
226.9543	0.5701
227.1705	0.5767
227.3867	0.5368
227.6029	0.511
227.8191	0.5477
228.0352	0.5612
228.2513	0.5627
228.4675	0.5628
228.6836	0.5936
228.8997	0.5648
229.1158	0.5402
229.3319	0.6003
229.548	0.6068
229.764	0.5816
229.9801	0.5858
230.1961	0.5504
230.4121	0.5991
230.6282	0.5454
230.8442	0.5834
231.0602	0.5706
231.2761	0.5638
231.4921	0.5847
231.7081	0.5846
231.924	0.6009
232.14	0.5837
232.3559	0.567
232.5718	0.5814
232.7877	0.5451
233.0036	0.5504
233.2195	0.5788
233.4353	0.5692
233.6512	0.5896
233.867	0.5659
234.0829	0.554
234.2987	0.5765
234.5145	0.5372
234.7303	0.5644
234.9461	0.5659
235.1619	0.5803
235.3776	0.5586
235.5934	0.5469
235.8091	0.5358
236.0249	0.5204
236.2406	0.552
236.4563	0.569
236.672	0.5585
236.8877	0.5559
237.1034	0.5258
237.319	0.5148
237.5347	0.5573
237.7503	0.557
237.966	0.5243
238.1816	0.5467
238.3972	0.5567
238.6128	0.5205
238.8284	0.5655
239.0439	0.5613
239.2595	0.5177
239.475	0.5393
239.6906	0.5272
239.9061	0.5192
240.1216	0.5236
240.3371	0.5144
240.5526	0.5108
240.7681	0.5357
240.9836	0.525
241.199	0.4932
241.4145	0.4916
241.6299	0.4977
241.8453	0.4701
242.0607	0.4696
242.2761	0.469
242.4915	0.4832
242.7069	0.4467
242.9223	0.4514
243.1376	0.45
243.353	0.4448
243.5683	0.4339
243.7836	0.4322
243.9989	0.4369
244.2142	0.4031
244.4295	0.3943
244.6448	0.3766
244.86	0.3855
245.0753	0.3642
245.2905	0.3713
245.5057	0.3687
245.721	0.3628
245.9362	0.3491
246.1514	0.3558
246.3665	0.3322
246.5817	0.3509
246.7969	0.322
247.012	0.3207
247.2271	0.3321
247.4423	0.3013
247.6574	0.3037
247.8725	0.306
248.0876	0.2967
248.3026	0.2902
248.5177	0.2974
248.7328	0.2835
248.9478	0.2807
249.1628	0.26
249.3779	0.2625
249.5929	0.2547
249.8079	0.2655
250.0228	0.2523
250.2378	0.2554
250.4528	0.2588
250.6677	0.2321
250.8827	0.2388
251.0976	0.2375
251.3125	0.2441
251.5274	0.23
251.7423	0.2296
251.9572	0.2105
252.172	0.2197
252.3869	0.2227
252.6017	0.2234
252.8166	0.2218
253.0314	0.2111
253.2462	0.2054
253.461	0.2147
253.6758	0.2103
253.8906	0.2133
254.1053	0.1989
254.3201	0.2092
254.5348	0.2073
254.7496	0.2122
254.9643	0.1909
255.179	0.1924
255.3937	0.1982
255.6083	0.1857
255.823	0.1964
256.0377	0.1775
256.2523	0.1991
256.467	0.1951
256.6816	0.1849
256.8962	0.1966
257.1108	0.2032
257.3254	0.194
257.54	0.1955
257.7545	0.1917
257.9691	0.1967
258.1836	0.1975
258.3981	0.1808
258.6127	0.1899
258.8272	0.1863
259.0417	0.187
259.2561	0.179
259.4706	0.1924
259.6851	0.1799
259.8995	0.1889
260.114	0.1803
260.3284	0.1911
260.5428	0.1904
260.7572	0.2023
260.9716	0.1868
261.186	0.1987
261.4003	0.1908
261.6147	0.1916
261.829	0.1966
262.0433	0.1814
262.2577	0.1847
262.472	0.1783
262.6863	0.1922
262.9005	0.1842
263.1148	0.2024
263.3291	0.1852
263.5433	0.1856
263.7576	0.1979
263.9718	0.1818
264.186	0.1949
264.4002	0.2034
264.6144	0.1932
264.8286	0.1975
265.0427	0.1888
265.2569	0.1878
265.471	0.1877
265.6851	0.1844
265.8993	0.1867
266.1134	0.1773
266.3275	0.1862
266.5415	0.1821
266.7556	0.187
266.9697	0.1893
267.1837	0.1961
267.3978	0.1949
267.6118	0.1929
267.8258	0.2017
268.0398	0.1921
268.2538	0.1904
268.4677	0.1893
268.6817	0.1903
268.8957	0.1912
269.1096	0.1813
269.3235	0.1802
269.5374	0.189
269.7514	0.1783
269.9652	0.1845
270.1791	0.1685
270.393	0.1829
270.6068	0.1842
270.8207	0.1841
271.0345	0.1572
271.2483	0.1751
271.4622	0.1758
271.676	0.1789
271.8897	0.1767
272.1035	0.1784
272.3173	0.1695
272.531	0.1749
272.7448	0.1604
272.9585	0.1779
273.1722	0.1822
273.3859	0.1783
273.5996	0.1775
273.8133	0.1852
274.0269	0.1822
274.2406	0.1732
274.4542	0.1791
274.6679	0.1677
274.8815	0.1778
275.0951	0.1808
275.3087	0.1864
275.5223	0.1739
275.7358	0.1695
275.9494	0.1596
276.1629	0.1844
276.3765	0.1761
276.59	0.1755
276.8035	0.1708
277.017	0.1713
277.2305	0.1859
277.444	0.177
277.6574	0.1786
277.8709	0.1702
278.0843	0.1893
278.2978	0.1944
278.5112	0.1904
278.7246	0.1806
278.938	0.1883
279.1513	0.1939
279.3647	0.1837
279.5781	0.1752
279.7914	0.1822
280.0047	0.1807
280.2181	0.1829
280.4314	0.1726
280.6447	0.1776
280.8579	0.1877
281.0712	0.1927
281.2845	0.1915
281.4977	0.1924
281.711	0.1862
281.9242	0.1907
282.1374	0.1788
282.3506	0.1768
282.5638	0.1978
282.7769	0.1812
282.9901	0.196
283.2033	0.1728
283.4164	0.1781
283.6295	0.1779
283.8426	0.1977
284.0557	0.1797
284.2688	0.188
284.4819	0.1762
284.695	0.1853
284.908	0.1856
285.1211	0.191
285.3341	0.1782
285.5471	0.1956
285.7601	0.1851
285.9731	0.1948
286.1861	0.1881
286.3991	0.1851
286.612	0.1877
286.825	0.1827
287.0379	0.1854
287.2508	0.191
287.4637	0.1767
287.6766	0.1688
287.8895	0.1736
288.1024	0.1863
288.3152	0.1974
288.5281	0.1853
288.7409	0.1782
288.9538	0.1696
289.1666	0.1843
289.3794	0.1784
289.5922	0.179
289.8049	0.1755
290.0177	0.1856
290.2304	0.1717
290.4432	0.1635
290.6559	0.1788
290.8686	0.1697
291.0813	0.1722
291.294	0.1795
291.5067	0.1849
291.7194	0.1644
291.932	0.1753
292.1447	0.2034
292.3573	0.1816
292.5699	0.1854
292.7825	0.1742
292.9951	0.1839
293.2077	0.1885
293.4203	0.1828
293.6328	0.1816
293.8454	0.1719
294.0579	0.1797
294.2704	0.1695
294.4829	0.1796
294.6954	0.1719
294.9079	0.1702
295.1204	0.1786
295.3328	0.1617
295.5453	0.168
295.7577	0.1766
295.9701	0.1626
296.1825	0.1742
296.3949	0.1696
296.6073	0.1719
296.8197	0.1742
297.0321	0.1738
297.2444	0.1593
297.4567	0.1738
297.6691	0.1629
297.8814	0.1818
298.0937	0.1757
298.306	0.1649
298.5182	0.1771
298.7305	0.1784
298.9428	0.1698
299.155	0.1622
299.3672	0.1556
299.5794	0.1718
299.7916	0.1649
300.0038	0.1666
300.216	0.1633
300.4282	0.1608
300.6403	0.1736
300.8525	0.1885
301.0646	0.173
301.2767	0.1759
301.4888	0.1721
301.7009	0.1674
301.913	0.1635
302.125	0.1704
302.3371	0.1621
302.5491	0.1602
302.7612	0.165
302.9732	0.1635
303.1852	0.1627
303.3972	0.1691
303.6092	0.1599
303.8211	0.1667
304.0331	0.16
304.245	0.1564
304.457	0.154
304.6689	0.162
304.8808	0.1518
305.0927	0.1624
305.3046	0.1573
305.5164	0.163
305.7283	0.1562
305.9401	0.1509
306.152	0.1484
306.3638	0.1608
306.5756	0.1485
306.7874	0.1547
306.9992	0.1398
307.2109	0.1516
307.4227	0.1543
307.6344	0.1441
307.8462	0.1402
308.0579	0.1447
308.2696	0.1473
308.4813	0.1196
308.693	0.1474
308.9046	0.1379
309.1163	0.1332
309.328	0.1337
309.5396	0.1299
309.7512	0.1221
309.9628	0.1311
310.1744	0.1298
310.386	0.1248
310.5976	0.1251
310.8091	0.1325
311.0207	0.1199
311.2322	0.1197
311.4437	0.126
311.6552	0.1263
311.8667	0.1171
312.0782	0.1127
312.2897	0.1165
312.5012	0.1182
312.7126	0.1172
312.924	0.1117
313.1355	0.1304
313.3469	0.1069
313.5583	0.1078
313.7696	0.1131
313.981	0.1111
314.1924	0.1136
314.4037	0.1137
314.6151	0.1106
314.8264	0.1049
315.0377	0.1098
315.249	0.104
315.4603	0.1001
315.6716	0.1174
315.8828	0.1024
316.0941	0.0981
316.3053	0.1039
316.5165	0.1089
316.7277	0.1027
316.9389	0.1049
317.1501	0.1192
317.3613	0.091
317.5724	0.1184
317.7836	0.1128
317.9947	0.1152
318.2058	0.1061
318.417	0.1169
318.6281	0.104
318.8391	0.0989
319.0502	0.1152
319.2613	0.1048
319.4723	0.1023
319.6834	0.1063
319.8944	0.105
320.1054	0.1087
320.3164	0.1144
320.5274	0.0976
320.7383	0.1061
320.9493	0.0995
321.1602	0.1155
321.3712	0.0926
321.5821	0.1097
321.793	0.1052
322.0039	0.1089
322.2148	0.1062
322.4257	0.1093
322.6365	0.1084
322.8474	0.0969
323.0582	0.1257
323.269	0.1152
323.4798	0.1133
323.6906	0.1057
323.9014	0.1149
324.1122	0.1056
324.3229	0.1218
324.5337	0.1194
324.7444	0.1178
324.9551	0.1156
325.1658	0.1163
325.3765	0.1088
325.5872	0.108
325.7979	0.1092
326.0085	0.103
326.2192	0.0965
326.4298	0.134
326.6404	0.1064
326.851	0.1161
327.0616	0.1227
327.2722	0.1215
327.4828	0.1148
327.6933	0.1105
327.9039	0.1063
328.1144	0.1107
328.3249	0.0991
328.5354	0.1144
328.7459	0.1175
328.9564	0.104
329.1669	0.1158
329.3773	0.1194
329.5878	0.1245
329.7982	0.1046
330.0086	0.1066
330.219	0.1166
330.4294	0.1049
330.6398	0.1125
330.8502	0.1151
331.0605	0.1225
331.2708	0.1001
331.4812	0.1015
331.6915	0.1108
331.9018	0.1076
332.1121	0.1063
332.3224	0.1041
332.5326	0.1124
332.7429	0.102
332.9531	0.1068
333.1633	0.1223
333.3735	0.1082
333.5837	0.1062
333.7939	0.1128
334.0041	0.1192
334.2143	0.1215
334.4244	0.1233
334.6346	0.0901
334.8447	0.1147
335.0548	0.0956
335.2649	0.113
335.475	0.1091
335.685	0.1097
335.8951	0.1207
336.1051	0.1174
336.3152	0.1192
336.5252	0.1146
336.7352	0.1079
336.9452	0.1097
337.1552	0.139
337.3652	0.1298
337.5751	0.1184
337.7851	0.1193
337.995	0.1225
338.2049	0.1077
338.4148	0.1133
338.6247	0.0967
338.8346	0.1197
339.0445	0.1117
339.2543	0.1209
339.4642	0.1225
339.674	0.1275
339.8838	0.1239
340.0936	0.1235
340.3034	0.1251
340.5132	0.1232
340.7229	0.1349
340.9327	0.1299
341.1424	0.1194
341.3522	0.1194
341.5619	0.1226
341.7716	0.1397
341.9813	0.127
342.1909	0.1198
342.4006	0.1191
342.6102	0.1171
342.8199	0.1153
343.0295	0.1192
343.2391	0.1165
343.4487	0.1247
343.6583	0.1241
343.8679	0.1382
344.0774	0.1279
344.287	0.1462
344.4965	0.1324
344.706	0.1335
344.9155	0.1243
345.125	0.1205
345.3345	0.1277
345.544	0.137
345.7534	0.1287
345.9629	0.1324
346.1723	0.1238
346.3817	0.1324
346.5911	0.1279
346.8005	0.1429
347.0099	0.128
347.2193	0.1311
347.4286	0.1384
347.638	0.1439
347.8473	0.1302
348.0566	0.1296
348.2659	0.1504
348.4752	0.1364
348.6845	0.1271
348.8937	0.1385
349.103	0.1349
349.3122	0.14
349.5214	0.1454
349.7306	0.1342
349.9398	0.1275
350.149	0.1424
350.3582	0.1407
350.5674	0.1512
350.7765	0.1363
350.9856	0.1279
351.1948	0.1494
351.4039	0.1461
351.613	0.1397
351.822	0.1444
352.0311	0.1479
352.2402	0.1399
352.4492	0.1525
352.6582	0.1426
352.8672	0.1496
353.0762	0.1511
353.2852	0.1494
353.4942	0.1488
353.7032	0.1528
353.9121	0.1514
354.1211	0.136
354.33	0.1474
354.5389	0.1473
354.7478	0.1415
354.9567	0.164
355.1655	0.1472
355.3744	0.1455
355.5833	0.1722
355.7921	0.1531
356.0009	0.1512
356.2097	0.1441
356.4185	0.139
356.6273	0.1525
356.8361	0.1463
357.0448	0.1586
357.2536	0.159
357.4623	0.1635
357.671	0.16
357.8797	0.1666
358.0884	0.1554
358.2971	0.1626
358.5057	0.1574
358.7144	0.1759
358.923	0.1661
359.1316	0.1668
359.3402	0.1722
359.5488	0.1572
359.7574	0.1682
359.966	0.1588
360.1746	0.1645
360.3831	0.1656
360.5916	0.1777
360.8002	0.1832
361.0087	0.1726
361.2172	0.1714
361.4256	0.1804
361.6341	0.166
361.8426	0.1791
362.051	0.1743
362.2594	0.1946
362.4678	0.1794
362.6762	0.1818
362.8846	0.1667
363.093	0.1839
363.3014	0.1814
363.5097	0.1667
363.718	0.183
363.9264	0.1861
364.1347	0.2026
364.343	0.198
364.5513	0.1906
364.7595	0.1759
364.9678	0.1858
365.176	0.1848
365.3842	0.192
365.5925	0.1817
365.8007	0.1847
366.0089	0.1982
366.217	0.1869
366.4252	0.1892
366.6333	0.1949
366.8415	0.1951
367.0496	0.1839
367.2577	0.1987
367.4658	0.2076
367.6739	0.1987
367.882	0.1968
368.09	0.2098
368.2981	0.1868
368.5061	0.1924
368.7141	0.2105
368.9221	0.2006
369.1301	0.1959
369.3381	0.2155
369.5461	0.1958
369.754	0.2075
369.962	0.2036
370.1699	0.1955
370.3778	0.2206
370.5857	0.2093
370.7936	0.2131
371.0015	0.2108
371.2093	0.1999
371.4172	0.2127
371.625	0.1964
371.8328	0.2213
372.0406	0.2178
372.2484	0.2038
372.4562	0.2094
372.664	0.2058
372.8717	0.1862
373.0795	0.2086
373.2872	0.2139
373.4949	0.2068
373.7026	0.2143
373.9103	0.2331
374.118	0.2027
374.3256	0.2124
374.5333	0.2219
374.7409	0.1989
374.9485	0.2128
375.1561	0.2173
375.3637	0.1949
375.5713	0.222
375.7789	0.2145
375.9864	0.2271
376.194	0.229
376.4015	0.2154
376.609	0.2258
376.8165	0.2093
377.024	0.2156
377.2315	0.222
377.4389	0.2175
377.6464	0.2245
377.8538	0.1948
378.0612	0.2126
378.2686	0.2158
378.476	0.2074
378.6834	0.2306
378.8908	0.2174
379.0981	0.2277
379.3055	0.2321
379.5128	0.2305
379.7201	0.2334
379.9274	0.2224
380.1347	0.2128
380.342	0.207
380.5492	0.2225
380.7565	0.2316
380.9637	0.2314
381.1709	0.2154
381.3781	0.2261
381.5853	0.2314
381.7925	0.2223
381.9997	0.2124
382.2068	0.2341
382.4139	0.2302
382.6211	0.2328
382.8282	0.2292
383.0353	0.2127
383.2424	0.2493
383.4494	0.2175
383.6565	0.2398
383.8635	0.2312
384.0706	0.2449
384.2776	0.2306
384.4846	0.2263
384.6916	0.2329
384.8986	0.2204
385.1055	0.2369
385.3125	0.2286
385.5194	0.2145
385.7263	0.2428
385.9333	0.2306
386.1402	0.224
386.347	0.232
386.5539	0.2437
386.7608	0.2311
386.9676	0.2135
387.1744	0.2213
387.3813	0.2263
387.5881	0.2316
387.7948	0.242
388.0016	0.2197
388.2084	0.2366
388.4151	0.2255
388.6219	0.2288
388.8286	0.2111
389.0353	0.2105
389.242	0.2303
389.4487	0.2236
389.6553	0.2133
389.862	0.2295
390.0686	0.2107
390.2753	0.2413
390.4819	0.2221
390.6885	0.2129
390.8951	0.2113
391.1016	0.2173
391.3082	0.2318
391.5147	0.1982
391.7213	0.1983
391.9278	0.2215
392.1343	0.1994
392.3408	0.2064
392.5473	0.2082
392.7537	0.203
392.9602	0.2145
393.1666	0.2071
393.373	0.1966
393.5794	0.2071
393.7858	0.2118
393.9922	0.221
394.1986	0.2198
394.4049	0.2024
394.6113	0.2043
394.8176	0.2006
395.0239	0.2144
395.2302	0.1936
395.4365	0.2017
395.6428	0.2129
395.8491	0.182
396.0553	0.1985
396.2615	0.2044
396.4678	0.1951
396.674	0.203
396.8802	0.1953
397.0863	0.2066
397.2925	0.1949
397.4987	0.203
397.7048	0.1888
397.9109	0.2021
398.117	0.1883
398.3231	0.1886
398.5292	0.1963
398.7353	0.1987
398.9413	0.1779
399.1474	0.1831
399.3534	0.1821
399.5594	0.1954
399.7654	0.2026
399.9714	0.1938
400.1774	0.1871
400.3833	0.2034
400.5893	0.1982
400.7952	0.1942
401.0011	0.1764
401.207	0.1853
401.4129	0.1821
401.6188	0.1821
401.8247	0.185
402.0305	0.1779
402.2364	0.2106
402.4422	0.1955
402.648	0.1808
402.8538	0.188
403.0596	0.1692
403.2654	0.1963
403.4711	0.194
403.6768	0.1898
403.8826	0.207
404.0883	0.1883
404.294	0.1932
404.4997	0.1651
404.7054	0.1926
404.911	0.1761
405.1167	0.1727
405.3223	0.1868
405.5279	0.1885
405.7335	0.2015
405.9391	0.1877
406.1447	0.2071
406.3502	0.1829
406.5558	0.1983
406.7613	0.1894
406.9668	0.1804
407.1724	0.1906
407.3778	0.1874
407.5833	0.1866
407.7888	0.182
407.9942	0.1831
408.1997	0.1937
408.4051	0.1678
408.6105	0.1804
408.8159	0.1901
409.0213	0.1789
409.2267	0.178
409.432	0.1832
409.6374	0.1884
409.8427	0.1956
410.048	0.192
410.2533	0.1765
410.4586	0.1742
410.6639	0.1787
410.8691	0.1796
411.0744	0.1797
411.2796	0.1754
411.4848	0.1956
411.69	0.1968
411.8952	0.1918
412.1004	0.1679
412.3056	0.1811
412.5107	0.1524
412.7158	0.1797
412.921	0.1917
413.1261	0.1992
413.3312	0.1751
413.5362	0.1827
413.7413	0.1802
413.9464	0.1899
414.1514	0.1906
414.3564	0.1607
414.5614	0.1732
414.7664	0.1743
414.9714	0.1917
415.1764	0.1769
415.3813	0.1769
415.5863	0.1781
415.7912	0.1725
415.9961	0.1802
416.201	0.172
416.4059	0.1747
416.6108	0.1888
416.8156	0.1807
417.0205	0.1785
417.2253	0.192
417.4301	0.172
417.6349	0.1683
417.8397	0.1727
418.0445	0.1703
418.2492	0.1685
418.454	0.1786
418.6587	0.1699
418.8634	0.168
419.0681	0.173
419.2728	0.1716
419.4775	0.177
419.6822	0.1692
419.8868	0.1836
420.0915	0.1533
420.2961	0.1604
420.5007	0.1678
420.7053	0.1688
420.9099	0.1683
421.1144	0.1808
421.319	0.1759
421.5235	0.1779
421.728	0.1613
421.9325	0.158
422.137	0.1613
422.3415	0.1655
422.546	0.1505
422.7504	0.1674
422.9549	0.1756
423.1593	0.1376
423.3637	0.174
423.5681	0.1557
423.7725	0.163
423.9769	0.1687
424.1812	0.1564
424.3856	0.1501
424.5899	0.1671
424.7942	0.1706
424.9985	0.1541
425.2028	0.1574
425.4071	0.1452
425.6113	0.1606
425.8156	0.1604
426.0198	0.1568
426.224	0.149
426.4282	0.1424
