Data from MonoPyChalIsomerACN10uM400nmA_Absorbance_12-08-46-928.txt Node
Date: Fri Jul 05 12:08:46 BST 2024
User: LASERRRRR
Spectrometer: FLMT03099
Trigger mode: 0
Integration Time (sec): 1.000000E-1
Scans to average: 1
Electric dark correction enabled: true
Nonlinearity correction enabled: false
Boxcar width: 0
XAxis mode: Wavelengths
Number of Pixels in Spectrum: 3648
>>>>>Begin Spectral Data<<<<<
179.3399	0.1607
179.5586	0.1607
179.7771	0.1607
179.9957	0.2639
180.2143	-0
180.4329	-0
180.6514	-0
180.8699	-0.2401
181.0885	-0.1323
181.307	0.3175
181.5255	-0.8506
181.744	-0.0503
181.9625	-0.8357
182.181	-0
182.3994	-0
182.6179	-0
182.8363	0.5643
183.0547	-0.0281
183.2732	0.3353
183.4916	-0.0102
183.71	0.0612
183.9284	0.1447
184.1467	0.1262
184.3651	-0.0123
184.5835	0.1257
184.8018	0.1506
185.0201	0.3107
185.2385	0.0983
185.4568	0.0407
185.6751	0.187
185.8934	-0.111
186.1117	0.2032
186.3299	0.0595
186.5482	0.1116
186.7664	0.065
186.9847	0.0145
187.2029	-0.0028
187.4211	-0.4725
187.6393	-0.0935
187.8575	0.1395
188.0757	0.064
188.2939	-0.0428
188.512	0.0322
188.7302	-0.1706
188.9483	-0.0057
189.1665	-0.0195
189.3846	0.116
189.6027	0.0674
189.8208	0.1973
190.0389	0.0426
190.257	0.1247
190.475	0.1266
190.6931	0.1555
190.9111	0.1072
191.1292	0.3101
191.3472	0.2908
191.5652	0.1232
191.7832	0.6849
192.0012	0.3557
192.2192	0.2674
192.4371	0.3732
192.6551	0.4751
192.873	0.4008
193.091	0.3718
193.3089	0.4363
193.5268	0.7361
193.7447	0.5544
193.9626	0.659
194.1805	0.5151
194.3984	0.4726
194.6162	0.4563
194.8341	0.6422
195.0519	0.6876
195.2697	0.5376
195.4875	0.8349
195.7054	0.5796
195.9231	0.5856
196.1409	0.4482
196.3587	0.6248
196.5765	0.5865
196.7942	0.6267
197.012	0.7328
197.2297	0.7092
197.4474	0.6628
197.6651	0.5802
197.8828	0.6232
198.1005	0.5501
198.3182	0.6425
198.5358	0.9968
198.7535	0.7024
198.9711	0.6382
199.1888	0.5506
199.4064	0.9643
199.624	0.6485
199.8416	0.6921
200.0592	0.7926
200.2767	0.659
200.4943	0.6466
200.7119	0.6936
200.9294	0.731
201.1469	0.7789
201.3645	0.6532
201.582	0.7697
201.7995	1.0589
202.017	0.791
202.2344	0.6305
202.4519	0.8191
202.6694	0.93
202.8868	0.8308
203.1042	0.6241
203.3217	0.8195
203.5391	0.6851
203.7565	1.0785
203.9739	0.7739
204.1913	0.8618
204.4086	0.8188
204.626	0.8235
204.8433	0.8267
205.0607	0.7479
205.278	0.8126
205.4953	0.7065
205.7126	0.7065
205.9299	0.9182
206.1472	0.6645
206.3644	0.6045
206.5817	0.7981
206.7989	0.6999
207.0162	0.6811
207.2334	0.7402
207.4506	0.6464
207.6678	0.6681
207.885	0.7254
208.1022	0.7241
208.3194	0.8256
208.5365	0.7789
208.7537	0.7379
208.9708	0.777
209.1879	0.7713
209.405	0.6945
209.6222	0.7789
209.8392	0.748
210.0563	0.7667
210.2734	0.8327
210.4905	0.8015
210.7075	0.8197
210.9245	0.7992
211.1416	0.6947
211.3586	0.8147
211.5756	0.8007
211.7926	0.7057
212.0096	0.6764
212.2265	0.6404
212.4435	0.6991
212.6604	0.78
212.8774	0.7404
213.0943	0.8182
213.3112	0.6939
213.5281	0.6364
213.745	0.6747
213.9619	0.6334
214.1788	0.6675
214.3956	0.6757
214.6125	0.6457
214.8293	0.6641
215.0461	0.6819
215.2629	0.6164
215.4798	0.5978
215.6965	0.6978
215.9133	0.6131
216.1301	0.5569
216.3469	0.6493
216.5636	0.6241
216.7803	0.6074
216.9971	0.6073
217.2138	0.6584
217.4305	0.6556
217.6472	0.6387
217.8639	0.6494
218.0805	0.5988
218.2972	0.5871
218.5138	0.5995
218.7305	0.5584
218.9471	0.5596
219.1637	0.5894
219.3803	0.5225
219.5969	0.5365
219.8135	0.5685
220.0301	0.5871
220.2466	0.5515
220.4632	0.5174
220.6797	0.5126
220.8962	0.5359
221.1127	0.5654
221.3292	0.5058
221.5457	0.5988
221.7622	0.5544
221.9787	0.5168
222.1951	0.5473
222.4116	0.5799
222.628	0.527
222.8444	0.5527
223.0608	0.5526
223.2772	0.5328
223.4936	0.5331
223.71	0.5515
223.9264	0.5388
224.1427	0.5368
224.3591	0.5464
224.5754	0.5786
224.7917	0.5152
225.008	0.6038
225.2243	0.5077
225.4406	0.5496
225.6569	0.527
225.8732	0.586
226.0894	0.5207
226.3057	0.5558
226.5219	0.5443
226.7381	0.6029
226.9543	0.578
227.1705	0.5677
227.3867	0.5368
227.6029	0.5226
227.8191	0.5551
228.0352	0.5902
228.2513	0.5622
228.4675	0.5357
228.6836	0.5791
228.8997	0.5839
229.1158	0.5599
229.3319	0.5807
229.548	0.585
229.764	0.5811
229.9801	0.5504
230.1961	0.5783
230.4121	0.5843
230.6282	0.5537
230.8442	0.5703
231.0602	0.5556
231.2761	0.5583
231.4921	0.5837
231.7081	0.5703
231.924	0.5848
232.14	0.5638
232.3559	0.5868
232.5718	0.5594
232.7877	0.5592
233.0036	0.582
233.2195	0.5583
233.4353	0.5837
233.6512	0.5636
233.867	0.5971
234.0829	0.549
234.2987	0.5721
234.5145	0.543
234.7303	0.5824
234.9461	0.5703
235.1619	0.5864
235.3776	0.5587
235.5934	0.5403
235.8091	0.5609
236.0249	0.5433
236.2406	0.5665
236.4563	0.5558
236.672	0.5537
236.8877	0.547
237.1034	0.5239
237.319	0.517
237.5347	0.5703
237.7503	0.5491
237.966	0.5653
238.1816	0.5483
238.3972	0.5623
238.6128	0.5354
238.8284	0.5046
239.0439	0.5437
239.2595	0.5164
239.475	0.5482
239.6906	0.5382
239.9061	0.497
240.1216	0.535
240.3371	0.5263
240.5526	0.4966
240.7681	0.5288
240.9836	0.5195
241.199	0.4673
241.4145	0.5086
241.6299	0.5077
241.8453	0.4952
242.0607	0.5083
242.2761	0.4938
242.4915	0.4788
242.7069	0.4604
242.9223	0.4665
243.1376	0.4766
243.353	0.4445
243.5683	0.4304
243.7836	0.4414
243.9989	0.4246
244.2142	0.4385
244.4295	0.3988
244.6448	0.4026
244.86	0.4125
245.0753	0.3701
245.2905	0.3943
245.5057	0.381
245.721	0.3543
245.9362	0.3419
246.1514	0.3569
246.3665	0.3431
246.5817	0.3435
246.7969	0.329
247.012	0.3184
247.2271	0.3218
247.4423	0.3151
247.6574	0.3066
247.8725	0.3208
248.0876	0.3074
248.3026	0.3039
248.5177	0.3012
248.7328	0.2809
248.9478	0.2883
249.1628	0.2618
249.3779	0.2783
249.5929	0.2708
249.8079	0.2483
250.0228	0.2653
250.2378	0.2631
250.4528	0.2455
250.6677	0.2409
250.8827	0.2266
251.0976	0.2382
251.3125	0.24
251.5274	0.231
251.7423	0.2332
251.9572	0.2331
252.172	0.2139
252.3869	0.2276
252.6017	0.2189
252.8166	0.2135
253.0314	0.2173
253.2462	0.21
253.461	0.2075
253.6758	0.2018
253.8906	0.2233
254.1053	0.2014
254.3201	0.2061
254.5348	0.2069
254.7496	0.2057
254.9643	0.198
255.179	0.1934
255.3937	0.2104
255.6083	0.1948
255.823	0.2018
256.0377	0.1833
256.2523	0.1994
256.467	0.1894
256.6816	0.1882
256.8962	0.1975
257.1108	0.2143
257.3254	0.2063
257.54	0.1875
257.7545	0.1871
257.9691	0.198
258.1836	0.1803
258.3981	0.1852
258.6127	0.1994
258.8272	0.1941
259.0417	0.1806
259.2561	0.1787
259.4706	0.1999
259.6851	0.1908
259.8995	0.1853
260.114	0.1772
260.3284	0.1847
260.5428	0.1899
260.7572	0.1909
260.9716	0.1889
261.186	0.1846
261.4003	0.1799
261.6147	0.1926
261.829	0.1807
262.0433	0.1838
262.2577	0.176
262.472	0.1928
262.6863	0.198
262.9005	0.1992
263.1148	0.1826
263.3291	0.1825
263.5433	0.1824
263.7576	0.2004
263.9718	0.187
264.186	0.1811
264.4002	0.1979
264.6144	0.1742
264.8286	0.1788
265.0427	0.1974
265.2569	0.194
265.471	0.1989
265.6851	0.1812
265.8993	0.1792
266.1134	0.1768
266.3275	0.1824
266.5415	0.2
266.7556	0.1953
266.9697	0.1876
267.1837	0.2005
267.3978	0.1983
267.6118	0.1863
267.8258	0.2057
268.0398	0.198
268.2538	0.1904
268.4677	0.1922
268.6817	0.1928
268.8957	0.1918
269.1096	0.1852
269.3235	0.1778
269.5374	0.1869
269.7514	0.1756
269.9652	0.1958
270.1791	0.1832
270.393	0.1843
270.6068	0.1787
270.8207	0.1941
271.0345	0.1796
271.2483	0.1818
271.4622	0.1882
271.676	0.1855
271.8897	0.1908
272.1035	0.1839
272.3173	0.1914
272.531	0.1749
272.7448	0.1768
272.9585	0.1833
273.1722	0.1848
273.3859	0.1851
273.5996	0.1802
273.8133	0.1884
274.0269	0.1788
274.2406	0.1876
274.4542	0.192
274.6679	0.1729
274.8815	0.193
275.0951	0.2
275.3087	0.1878
275.5223	0.1981
275.7358	0.1829
275.9494	0.1711
276.1629	0.1709
276.3765	0.1754
276.59	0.1971
276.8035	0.1703
277.017	0.1761
277.2305	0.1937
277.444	0.1794
277.6574	0.1884
277.8709	0.1733
278.0843	0.1888
278.2978	0.194
278.5112	0.1955
278.7246	0.1947
278.938	0.202
279.1513	0.1966
279.3647	0.1719
279.5781	0.1886
279.7914	0.1962
280.0047	0.1923
280.2181	0.1904
280.4314	0.1786
280.6447	0.2032
280.8579	0.1924
281.0712	0.1885
281.2845	0.2058
281.4977	0.1978
281.711	0.1884
281.9242	0.1794
282.1374	0.1833
282.3506	0.188
282.5638	0.1918
282.7769	0.1859
282.9901	0.1926
283.2033	0.1927
283.4164	0.1829
283.6295	0.19
283.8426	0.1847
284.0557	0.1769
284.2688	0.1855
284.4819	0.1819
284.695	0.1831
284.908	0.1832
285.1211	0.1895
285.3341	0.1854
285.5471	0.1926
285.7601	0.1821
285.9731	0.197
286.1861	0.1864
286.3991	0.1885
286.612	0.1904
286.825	0.1916
287.0379	0.1826
287.2508	0.1749
287.4637	0.1923
287.6766	0.1727
287.8895	0.1793
288.1024	0.1727
288.3152	0.1859
288.5281	0.188
288.7409	0.182
288.9538	0.1821
289.1666	0.1731
289.3794	0.1721
289.5922	0.175
289.8049	0.1721
290.0177	0.1717
290.2304	0.1604
290.4432	0.1684
290.6559	0.1843
290.8686	0.1806
291.0813	0.1718
291.294	0.1849
291.5067	0.1745
291.7194	0.1687
291.932	0.1672
292.1447	0.1792
292.3573	0.1767
292.5699	0.1802
292.7825	0.1664
292.9951	0.1888
293.2077	0.1764
293.4203	0.1838
293.6328	0.1854
293.8454	0.1657
294.0579	0.1662
294.2704	0.1802
294.4829	0.1765
294.6954	0.1801
294.9079	0.1713
295.1204	0.18
295.3328	0.1526
295.5453	0.1586
295.7577	0.18
295.9701	0.1679
296.1825	0.1652
296.3949	0.1581
296.6073	0.1737
296.8197	0.1611
297.0321	0.1679
297.2444	0.1713
297.4567	0.1613
297.6691	0.1654
297.8814	0.1603
298.0937	0.1662
298.306	0.1706
298.5182	0.1707
298.7305	0.1679
298.9428	0.1669
299.155	0.1574
299.3672	0.1529
299.5794	0.162
299.7916	0.1561
300.0038	0.1535
300.216	0.1586
300.4282	0.1628
300.6403	0.1666
300.8525	0.1697
301.0646	0.1651
301.2767	0.1747
301.4888	0.1582
301.7009	0.1651
301.913	0.1737
302.125	0.1672
302.3371	0.1701
302.5491	0.1608
302.7612	0.1515
302.9732	0.1517
303.1852	0.1683
303.3972	0.1694
303.6092	0.1714
303.8211	0.151
304.0331	0.1559
304.245	0.1542
304.457	0.1563
304.6689	0.1508
304.8808	0.1475
305.0927	0.1503
305.3046	0.1628
305.5164	0.1592
305.7283	0.1572
305.9401	0.1531
306.152	0.1452
306.3638	0.1409
306.5756	0.1401
306.7874	0.1459
306.9992	0.1367
307.2109	0.1377
307.4227	0.1394
307.6344	0.1485
307.8462	0.138
308.0579	0.1473
308.2696	0.1475
308.4813	0.1282
308.693	0.143
308.9046	0.137
309.1163	0.1245
309.328	0.1213
309.5396	0.1236
309.7512	0.1209
309.9628	0.1236
310.1744	0.1307
310.386	0.122
310.5976	0.1245
310.8091	0.1198
311.0207	0.1257
311.2322	0.11
311.4437	0.1248
311.6552	0.1236
311.8667	0.1222
312.0782	0.1259
312.2897	0.1158
312.5012	0.1101
312.7126	0.1233
312.924	0.1176
313.1355	0.1235
313.3469	0.1261
313.5583	0.1165
313.7696	0.1214
313.981	0.1219
314.1924	0.121
314.4037	0.1173
314.6151	0.1135
314.8264	0.1181
315.0377	0.1178
315.249	0.106
315.4603	0.1063
315.6716	0.1131
315.8828	0.117
316.0941	0.105
316.3053	0.1034
316.5165	0.1088
316.7277	0.1098
316.9389	0.1113
317.1501	0.1044
317.3613	0.0874
317.5724	0.1059
317.7836	0.1144
317.9947	0.1142
318.2058	0.1203
318.417	0.1184
318.6281	0.1062
318.8391	0.1062
319.0502	0.1102
319.2613	0.1157
319.4723	0.1103
319.6834	0.122
319.8944	0.1083
320.1054	0.115
320.3164	0.1102
320.5274	0.0944
320.7383	0.1146
320.9493	0.1109
321.1602	0.119
321.3712	0.1004
321.5821	0.1074
321.793	0.1107
322.0039	0.109
322.2148	0.1136
322.4257	0.0956
322.6365	0.1148
322.8474	0.0935
323.0582	0.1239
323.269	0.103
323.4798	0.119
323.6906	0.1039
323.9014	0.1242
324.1122	0.1121
324.3229	0.1168
324.5337	0.1139
324.7444	0.1172
324.9551	0.1068
325.1658	0.1134
325.3765	0.1055
325.5872	0.1035
325.7979	0.1299
326.0085	0.0982
326.2192	0.1105
326.4298	0.1109
326.6404	0.115
326.851	0.1223
327.0616	0.1269
327.2722	0.1307
327.4828	0.1435
327.6933	0.1208
327.9039	0.1084
328.1144	0.1095
328.3249	0.118
328.5354	0.1092
328.7459	0.1194
328.9564	0.1169
329.1669	0.1271
329.3773	0.1221
329.5878	0.1141
329.7982	0.107
330.0086	0.1181
330.219	0.1147
330.4294	0.1103
330.6398	0.1144
330.8502	0.1206
331.0605	0.1177
331.2708	0.1159
331.4812	0.1139
331.6915	0.1076
331.9018	0.1227
332.1121	0.1217
332.3224	0.1152
332.5326	0.1204
332.7429	0.1131
332.9531	0.121
333.1633	0.1296
333.3735	0.104
333.5837	0.1192
333.7939	0.11
334.0041	0.1245
334.2143	0.1262
334.4244	0.1227
334.6346	0.1015
334.8447	0.1195
335.0548	0.1232
335.2649	0.1238
335.475	0.1185
335.685	0.1078
335.8951	0.116
336.1051	0.122
336.3152	0.1282
336.5252	0.1203
336.7352	0.1218
336.9452	0.1187
337.1552	0.1302
337.3652	0.1251
337.5751	0.1197
337.7851	0.1198
337.995	0.1192
338.2049	0.1227
338.4148	0.1235
338.6247	0.1186
338.8346	0.1168
339.0445	0.1117
339.2543	0.1356
339.4642	0.1237
339.674	0.1198
339.8838	0.1235
340.0936	0.1262
340.3034	0.1385
340.5132	0.1205
340.7229	0.136
340.9327	0.1218
341.1424	0.1297
341.3522	0.1115
341.5619	0.132
341.7716	0.1318
341.9813	0.1308
342.1909	0.1224
342.4006	0.1397
342.6102	0.1265
342.8199	0.1172
343.0295	0.1313
343.2391	0.1201
343.4487	0.1478
343.6583	0.1314
343.8679	0.1226
344.0774	0.1299
344.287	0.1417
344.4965	0.1417
344.706	0.1346
344.9155	0.1309
345.125	0.1414
345.3345	0.1424
345.544	0.1422
345.7534	0.1399
345.9629	0.1342
346.1723	0.138
346.3817	0.1264
346.5911	0.1334
346.8005	0.1332
347.0099	0.1425
347.2193	0.1335
347.4286	0.1457
347.638	0.1457
347.8473	0.1399
348.0566	0.1586
348.2659	0.1422
348.4752	0.1516
348.6845	0.1328
348.8937	0.1418
349.103	0.1376
349.3122	0.1386
349.5214	0.1472
349.7306	0.1363
349.9398	0.15
350.149	0.1405
350.3582	0.1437
350.5674	0.1488
350.7765	0.1522
350.9856	0.1415
351.1948	0.1336
351.4039	0.1525
351.613	0.1443
351.822	0.1461
352.0311	0.145
352.2402	0.1405
352.4492	0.156
352.6582	0.1435
352.8672	0.1471
353.0762	0.1455
353.2852	0.1465
353.4942	0.1694
353.7032	0.157
353.9121	0.1548
354.1211	0.1435
354.33	0.1679
354.5389	0.1451
354.7478	0.1525
354.9567	0.1517
355.1655	0.1514
355.3744	0.1384
355.5833	0.1719
355.7921	0.1526
356.0009	0.1654
356.2097	0.1376
356.4185	0.1497
356.6273	0.153
356.8361	0.1589
357.0448	0.1445
357.2536	0.143
357.4623	0.1711
357.671	0.1704
357.8797	0.1623
358.0884	0.1686
358.2971	0.1662
358.5057	0.1595
358.7144	0.1745
358.923	0.1643
359.1316	0.1614
359.3402	0.173
359.5488	0.1732
359.7574	0.1726
359.966	0.1655
360.1746	0.1713
360.3831	0.1573
360.5916	0.1853
360.8002	0.1845
361.0087	0.1616
361.2172	0.1619
361.4256	0.1718
361.6341	0.1706
361.8426	0.177
362.051	0.1777
362.2594	0.2029
362.4678	0.1732
362.6762	0.184
362.8846	0.172
363.093	0.173
363.3014	0.1623
363.5097	0.1792
363.718	0.1784
363.9264	0.1901
364.1347	0.1754
364.343	0.169
364.5513	0.1748
364.7595	0.1756
364.9678	0.1877
365.176	0.1882
365.3842	0.1778
365.5925	0.1617
365.8007	0.2017
366.0089	0.1835
366.217	0.188
366.4252	0.1862
366.6333	0.192
366.8415	0.184
367.0496	0.1775
367.2577	0.1904
367.4658	0.1828
367.6739	0.1886
367.882	0.1961
368.09	0.192
368.2981	0.1904
368.5061	0.2004
368.7141	0.1836
368.9221	0.1961
369.1301	0.1873
369.3381	0.21
369.5461	0.189
369.754	0.1908
369.962	0.1931
370.1699	0.2018
370.3778	0.1926
370.5857	0.2107
370.7936	0.2101
371.0015	0.2108
371.2093	0.2074
371.4172	0.1978
371.625	0.2033
371.8328	0.1979
372.0406	0.1863
372.2484	0.181
372.4562	0.203
372.664	0.2036
372.8717	0.1908
373.0795	0.2064
373.2872	0.1998
373.4949	0.1998
373.7026	0.1945
373.9103	0.2139
374.118	0.1963
374.3256	0.1996
374.5333	0.2094
374.7409	0.1826
374.9485	0.2124
375.1561	0.2117
375.3637	0.1886
375.5713	0.2197
375.7789	0.2085
375.9864	0.2015
376.194	0.2036
376.4015	0.2053
376.609	0.1976
376.8165	0.2097
377.024	0.2018
377.2315	0.1978
377.4389	0.2106
377.6464	0.1934
377.8538	0.2073
378.0612	0.2235
378.2686	0.2148
378.476	0.2068
378.6834	0.2237
378.8908	0.204
379.0981	0.2074
379.3055	0.2309
379.5128	0.217
379.7201	0.2139
379.9274	0.213
380.1347	0.2
380.342	0.1918
380.5492	0.2094
380.7565	0.2279
380.9637	0.2205
381.1709	0.1999
381.3781	0.2101
381.5853	0.2133
381.7925	0.2138
381.9997	0.2063
382.2068	0.2259
382.4139	0.2075
382.6211	0.2141
382.8282	0.2031
383.0353	0.2221
383.2424	0.2122
383.4494	0.2171
383.6565	0.2186
383.8635	0.2128
384.0706	0.2169
384.2776	0.222
384.4846	0.2204
384.6916	0.2338
384.8986	0.1993
385.1055	0.2119
385.3125	0.2121
385.5194	0.2134
385.7263	0.2239
385.9333	0.2073
386.1402	0.2166
386.347	0.2207
386.5539	0.2085
386.7608	0.2178
386.9676	0.218
387.1744	0.22
387.3813	0.2163
387.5881	0.2043
387.7948	0.2149
388.0016	0.2047
388.2084	0.2073
388.4151	0.2182
388.6219	0.2112
388.8286	0.1909
389.0353	0.2129
389.242	0.2197
389.4487	0.2053
389.6553	0.1845
389.862	0.1853
390.0686	0.2057
390.2753	0.2047
390.4819	0.202
390.6885	0.2088
390.8951	0.2045
391.1016	0.2211
391.3082	0.1836
391.5147	0.1918
391.7213	0.1901
391.9278	0.1882
392.1343	0.1935
392.3408	0.2006
392.5473	0.1891
392.7537	0.1821
392.9602	0.2002
393.1666	0.196
393.373	0.1714
393.5794	0.1952
393.7858	0.1801
393.9922	0.189
394.1986	0.205
394.4049	0.1958
394.6113	0.1737
394.8176	0.1974
395.0239	0.1993
395.2302	0.1731
395.4365	0.1604
395.6428	0.2084
395.8491	0.1462
396.0553	0.1857
396.2615	0.1641
396.4678	0.1769
396.674	0.1905
396.8802	0.1788
397.0863	0.1679
397.2925	0.1647
397.4987	0.1825
397.7048	0.1712
397.9109	0.1916
398.117	0.1528
398.3231	0.1808
398.5292	0.1895
398.7353	0.1675
398.9413	0.1766
399.1474	0.1794
399.3534	0.1717
399.5594	0.1786
399.7654	0.1633
399.9714	0.1649
400.1774	0.1655
400.3833	0.1922
400.5893	0.1714
400.7952	0.1882
401.0011	0.1828
401.207	0.1732
401.4129	0.1606
401.6188	0.163
401.8247	0.1855
402.0305	0.173
402.2364	0.1708
402.4422	0.1772
402.648	0.1576
402.8538	0.1748
403.0596	0.1836
403.2654	0.1932
403.4711	0.1688
403.6768	0.1669
403.8826	0.1761
404.0883	0.1483
404.294	0.1744
404.4997	0.1474
404.7054	0.1611
404.911	0.1723
405.1167	0.1752
405.3223	0.166
405.5279	0.1649
405.7335	0.1897
405.9391	0.1767
406.1447	0.1978
406.3502	0.1646
406.5558	0.1818
406.7613	0.1751
406.9668	0.1599
407.1724	0.174
407.3778	0.1812
407.5833	0.1771
407.7888	0.1699
407.9942	0.1729
408.1997	0.1531
408.4051	0.1694
408.6105	0.1441
408.8159	0.1721
409.0213	0.1702
409.2267	0.1738
409.432	0.1814
409.6374	0.1713
409.8427	0.1618
410.048	0.1672
410.2533	0.1763
410.4586	0.1502
410.6639	0.1641
410.8691	0.1558
411.0744	0.1642
411.2796	0.1549
411.4848	0.174
411.69	0.1611
411.8952	0.183
412.1004	0.1505
412.3056	0.152
412.5107	0.161
412.7158	0.1792
412.921	0.176
413.1261	0.1481
413.3312	0.1566
413.5362	0.1597
413.7413	0.1712
413.9464	0.1878
414.1514	0.1553
414.3564	0.1618
414.5614	0.1393
414.7664	0.1624
414.9714	0.1825
415.1764	0.1533
415.3813	0.168
415.5863	0.171
415.7912	0.1547
415.9961	0.1527
416.201	0.1665
416.4059	0.1439
416.6108	0.1599
416.8156	0.1608
417.0205	0.1574
417.2253	0.1583
417.4301	0.155
417.6349	0.1472
417.8397	0.1466
418.0445	0.1523
418.2492	0.1625
418.454	0.1347
418.6587	0.185
418.8634	0.1602
419.0681	0.1578
419.2728	0.1413
419.4775	0.1552
419.6822	0.1629
419.8868	0.162
420.0915	0.1455
420.2961	0.1491
420.5007	0.1541
420.7053	0.1559
420.9099	0.1427
421.1144	0.1708
421.319	0.1462
421.5235	0.1732
421.728	0.1447
421.9325	0.1435
422.137	0.1413
422.3415	0.1398
422.546	0.1305
422.7504	0.158
422.9549	0.1483
423.1593	0.1401
423.3637	0.1391
423.5681	0.1218
423.7725	0.1409
423.9769	0.144
424.1812	0.1522
424.3856	0.1517
424.5899	0.134
424.7942	0.1399
424.9985	0.14
425.2028	0.1358
425.4071	0.1131
425.6113	0.1422
425.8156	0.1477
426.0198	0.1443
426.224	0.1303
426.4282	0.1315
426.6324	0.1423
426.8366	0.1288
