Data from MonoPyChalIsomerACN10uM400nmA_Absorbance_12-08-43-328.txt Node
Date: Fri Jul 05 12:08:43 BST 2024
User: LASERRRRR
Spectrometer: FLMT03099
Trigger mode: 0
Integration Time (sec): 1.000000E-1
Scans to average: 1
Electric dark correction enabled: true
Nonlinearity correction enabled: false
Boxcar width: 0
XAxis mode: Wavelengths
Number of Pixels in Spectrum: 3648
>>>>>Begin Spectral Data<<<<<
179.3399	0.1607
179.5586	0.1607
179.7771	0.1607
179.9957	0.9236
180.2143	-0.0169
180.4329	-0
180.6514	0.0943
180.8699	-0.3325
181.0885	0.8311
181.307	0.5138
181.5255	-0.6468
181.744	-0
181.9625	-0.6722
182.181	-0
182.3994	-0.5073
182.6179	-0.2136
182.8363	-0.3625
183.0547	0.1275
183.2732	0.8168
183.4916	0.1683
183.71	0.0402
183.9284	0.1286
184.1467	-0.036
184.3651	-0.0389
184.5835	0.2256
184.8018	0.0234
185.0201	0.117
185.2385	0.0226
185.4568	0.3448
185.6751	0.0361
185.8934	-0.0125
186.1117	0.1232
186.3299	0.1532
186.5482	0.1024
186.7664	0.0869
186.9847	0.1133
187.2029	0.0056
187.4211	-0.1566
187.6393	-0.0253
187.8575	0.0946
188.0757	0.1488
188.2939	0.0894
188.512	0.1013
188.7302	0.0119
188.9483	0.1838
189.1665	0.2127
189.3846	0.0878
189.6027	0.0489
189.8208	0.2831
190.0389	0.1094
190.257	0.1738
190.475	0.7566
190.6931	0.2003
190.9111	0.3548
191.1292	0.2243
191.3472	0.3722
191.5652	0.2943
191.7832	0.5684
192.0012	0.3154
192.2192	0.6464
192.4371	0.6731
192.6551	0.5236
192.873	0.6581
193.091	0.6371
193.3089	0.4692
193.5268	0.7707
193.7447	0.7019
193.9626	0.3056
194.1805	0.5257
194.3984	0.3354
194.6162	0.8436
194.8341	0.7918
195.0519	0.75
195.2697	0.6687
195.4875	0.8097
195.7054	0.5971
195.9231	0.5049
196.1409	0.6143
196.3587	0.5531
196.5765	0.5611
196.7942	0.6522
197.012	0.7559
197.2297	0.7574
197.4474	0.6069
197.6651	0.6065
197.8828	0.6974
198.1005	0.6899
198.3182	0.8255
198.5358	0.8583
198.7535	0.6254
198.9711	0.7684
199.1888	0.7128
199.4064	1.0837
199.624	0.734
199.8416	0.6486
200.0592	0.8303
200.2767	0.6557
200.4943	0.737
200.7119	0.5941
200.9294	0.8358
201.1469	0.8223
201.3645	0.6821
201.582	0.9101
201.7995	1.1422
202.017	0.845
202.2344	0.7355
202.4519	0.8949
202.6694	1.0897
202.8868	0.85
203.1042	0.6672
203.3217	0.6552
203.5391	0.7854
203.7565	0.8947
203.9739	0.7552
204.1913	0.9765
204.4086	0.7991
204.626	0.7529
204.8433	0.8964
205.0607	0.8119
205.278	0.9534
205.4953	0.8391
205.7126	0.6748
205.9299	0.8239
206.1472	0.8154
206.3644	0.7875
206.5817	0.766
206.7989	0.682
207.0162	0.6727
207.2334	0.9138
207.4506	0.8086
207.6678	0.801
207.885	0.7316
208.1022	0.8179
208.3194	0.8113
208.5365	0.8084
208.7537	0.8521
208.9708	0.7631
209.1879	0.8339
209.405	0.7565
209.6222	0.9051
209.8392	0.7836
210.0563	0.8168
210.2734	0.7513
210.4905	0.8332
210.7075	0.8174
210.9245	0.893
211.1416	0.8109
211.3586	0.7798
211.5756	0.758
211.7926	0.7877
212.0096	0.6534
212.2265	0.747
212.4435	0.7388
212.6604	0.8103
212.8774	0.7984
213.0943	0.7717
213.3112	0.7113
213.5281	0.6329
213.745	0.7719
213.9619	0.6643
214.1788	0.67
214.3956	0.6809
214.6125	0.6687
214.8293	0.768
215.0461	0.6819
215.2629	0.6394
215.4798	0.6621
215.6965	0.6727
215.9133	0.6482
216.1301	0.6614
216.3469	0.6848
216.5636	0.6568
216.7803	0.6536
216.9971	0.6636
217.2138	0.6504
217.4305	0.6283
217.6472	0.5822
217.8639	0.5844
218.0805	0.6061
218.2972	0.5633
218.5138	0.6141
218.7305	0.5553
218.9471	0.5745
219.1637	0.5963
219.3803	0.5418
219.5969	0.5582
219.8135	0.593
220.0301	0.5833
220.2466	0.5706
220.4632	0.5208
220.6797	0.5679
220.8962	0.5498
221.1127	0.5603
221.3292	0.5433
221.5457	0.5587
221.7622	0.5505
221.9787	0.5532
222.1951	0.5595
222.4116	0.5644
222.628	0.5916
222.8444	0.5601
223.0608	0.5476
223.2772	0.5653
223.4936	0.5672
223.71	0.5796
223.9264	0.5871
224.1427	0.5403
224.3591	0.5704
224.5754	0.5559
224.7917	0.545
225.008	0.5756
225.2243	0.5466
225.4406	0.5648
225.6569	0.5051
225.8732	0.5946
226.0894	0.5547
226.3057	0.5995
226.5219	0.5749
226.7381	0.5915
226.9543	0.5763
227.1705	0.5561
227.3867	0.5489
227.6029	0.549
227.8191	0.5653
228.0352	0.5864
228.2513	0.5648
228.4675	0.5907
228.6836	0.5931
228.8997	0.5507
229.1158	0.5514
229.3319	0.5639
229.548	0.5953
229.764	0.5859
229.9801	0.581
230.1961	0.5552
230.4121	0.575
230.6282	0.5631
230.8442	0.599
231.0602	0.565
231.2761	0.5578
231.4921	0.5774
231.7081	0.5678
231.924	0.5818
232.14	0.589
232.3559	0.6014
232.5718	0.6048
232.7877	0.5784
233.0036	0.5977
233.2195	0.5714
233.4353	0.6045
233.6512	0.5781
233.867	0.5732
234.0829	0.5499
234.2987	0.5997
234.5145	0.5539
234.7303	0.5793
234.9461	0.5634
235.1619	0.5714
235.3776	0.5815
235.5934	0.5424
235.8091	0.5636
236.0249	0.5449
236.2406	0.5545
236.4563	0.5686
236.672	0.5485
236.8877	0.5394
237.1034	0.5619
237.319	0.5607
237.5347	0.5448
237.7503	0.5627
237.966	0.5641
238.1816	0.5641
238.3972	0.5521
238.6128	0.5361
238.8284	0.5322
239.0439	0.54
239.2595	0.53
239.475	0.5353
239.6906	0.5321
239.9061	0.5489
240.1216	0.5268
240.3371	0.537
240.5526	0.5216
240.7681	0.5365
240.9836	0.5684
241.199	0.5065
241.4145	0.5122
241.6299	0.4925
241.8453	0.511
242.0607	0.4833
242.2761	0.4916
242.4915	0.4403
242.7069	0.47
242.9223	0.4814
243.1376	0.4377
243.353	0.4656
243.5683	0.4283
243.7836	0.4172
243.9989	0.4285
244.2142	0.4039
244.4295	0.4051
244.6448	0.396
244.86	0.3819
245.0753	0.381
245.2905	0.3754
245.5057	0.3619
245.721	0.3763
245.9362	0.352
246.1514	0.3414
246.3665	0.3278
246.5817	0.3435
246.7969	0.3183
247.012	0.3143
247.2271	0.3153
247.4423	0.3056
247.6574	0.3059
247.8725	0.3
248.0876	0.2948
248.3026	0.2977
248.5177	0.3005
248.7328	0.2726
248.9478	0.2701
249.1628	0.2598
249.3779	0.2737
249.5929	0.2552
249.8079	0.27
250.0228	0.2622
250.2378	0.2626
250.4528	0.2549
250.6677	0.2412
250.8827	0.2263
251.0976	0.237
251.3125	0.2476
251.5274	0.2405
251.7423	0.237
251.9572	0.2231
252.172	0.2299
252.3869	0.2103
252.6017	0.2093
252.8166	0.2157
253.0314	0.2184
253.2462	0.2168
253.461	0.2155
253.6758	0.2035
253.8906	0.212
254.1053	0.2009
254.3201	0.2078
254.5348	0.2005
254.7496	0.2005
254.9643	0.2015
255.179	0.1937
255.3937	0.2002
255.6083	0.1988
255.823	0.1869
256.0377	0.1994
256.2523	0.1943
256.467	0.2144
256.6816	0.2063
256.8962	0.1964
257.1108	0.2125
257.3254	0.1919
257.54	0.1849
257.7545	0.2001
257.9691	0.1999
258.1836	0.1983
258.3981	0.1881
258.6127	0.1948
258.8272	0.1928
259.0417	0.1923
259.2561	0.1826
259.4706	0.1901
259.6851	0.1836
259.8995	0.1979
260.114	0.1805
260.3284	0.1776
260.5428	0.1969
260.7572	0.1904
260.9716	0.1863
261.186	0.2079
261.4003	0.19
261.6147	0.2055
261.829	0.191
262.0433	0.1889
262.2577	0.1849
262.472	0.1895
262.6863	0.1956
262.9005	0.1887
263.1148	0.197
263.3291	0.1872
263.5433	0.1852
263.7576	0.2029
263.9718	0.1775
264.186	0.1973
264.4002	0.2047
264.6144	0.189
264.8286	0.1803
265.0427	0.1941
265.2569	0.1929
265.471	0.1873
265.6851	0.1859
265.8993	0.1931
266.1134	0.1869
266.3275	0.2007
266.5415	0.1864
266.7556	0.1878
266.9697	0.1953
267.1837	0.1943
267.3978	0.2045
267.6118	0.1792
267.8258	0.201
268.0398	0.1972
268.2538	0.1926
268.4677	0.1814
268.6817	0.1859
268.8957	0.1984
269.1096	0.1836
269.3235	0.1751
269.5374	0.1699
269.7514	0.1701
269.9652	0.1801
270.1791	0.1704
270.393	0.1779
270.6068	0.1773
270.8207	0.1846
271.0345	0.1675
271.2483	0.1807
271.4622	0.1746
271.676	0.1826
271.8897	0.1674
272.1035	0.1687
272.3173	0.171
272.531	0.1659
272.7448	0.1766
272.9585	0.1639
273.1722	0.181
273.3859	0.172
273.5996	0.1857
273.8133	0.1833
274.0269	0.1815
274.2406	0.1703
274.4542	0.1637
274.6679	0.1683
274.8815	0.1711
275.0951	0.1885
275.3087	0.1825
275.5223	0.1775
275.7358	0.1713
275.9494	0.1676
276.1629	0.1751
276.3765	0.172
276.59	0.1853
276.8035	0.167
277.017	0.1705
277.2305	0.1803
277.444	0.1752
277.6574	0.1856
277.8709	0.1684
278.0843	0.1845
278.2978	0.177
278.5112	0.1885
278.7246	0.1854
278.938	0.1871
279.1513	0.1819
279.3647	0.1688
279.5781	0.1786
279.7914	0.1846
280.0047	0.1927
280.2181	0.1807
280.4314	0.1885
280.6447	0.1933
280.8579	0.1885
281.0712	0.1859
281.2845	0.1894
281.4977	0.1824
281.711	0.1788
281.9242	0.1994
282.1374	0.172
282.3506	0.1839
282.5638	0.188
282.7769	0.1949
282.9901	0.1947
283.2033	0.1839
283.4164	0.1855
283.6295	0.1703
283.8426	0.1874
284.0557	0.1967
284.2688	0.1862
284.4819	0.1822
284.695	0.1869
284.908	0.1829
285.1211	0.1962
285.3341	0.1932
285.5471	0.1907
285.7601	0.1914
285.9731	0.1956
286.1861	0.1904
286.3991	0.1779
286.612	0.193
286.825	0.1867
287.0379	0.1877
287.2508	0.1773
287.4637	0.1945
287.6766	0.1665
287.8895	0.1769
288.1024	0.1866
288.3152	0.1905
288.5281	0.1854
288.7409	0.1763
288.9538	0.1756
289.1666	0.1852
289.3794	0.1717
289.5922	0.1908
289.8049	0.1805
290.0177	0.1772
290.2304	0.1818
290.4432	0.1711
290.6559	0.1881
290.8686	0.1847
291.0813	0.1852
291.294	0.1889
291.5067	0.1809
291.7194	0.1782
291.932	0.1926
292.1447	0.1883
292.3573	0.193
292.5699	0.1922
292.7825	0.1763
292.9951	0.191
293.2077	0.1875
293.4203	0.1852
293.6328	0.1828
293.8454	0.1788
294.0579	0.1888
294.2704	0.1909
294.4829	0.1911
294.6954	0.1976
294.9079	0.1891
295.1204	0.1808
295.3328	0.1697
295.5453	0.1768
295.7577	0.1738
295.9701	0.1742
296.1825	0.1756
296.3949	0.1719
296.6073	0.176
296.8197	0.1829
297.0321	0.1821
297.2444	0.1794
297.4567	0.1747
297.6691	0.1726
297.8814	0.1696
298.0937	0.1817
298.306	0.18
298.5182	0.1838
298.7305	0.1868
298.9428	0.1774
299.155	0.1786
299.3672	0.1603
299.5794	0.1746
299.7916	0.1727
300.0038	0.1627
300.216	0.1662
300.4282	0.1726
300.6403	0.1849
300.8525	0.1817
301.0646	0.176
301.2767	0.1805
301.4888	0.1674
301.7009	0.1747
301.913	0.1847
302.125	0.1729
302.3371	0.1715
302.5491	0.1754
302.7612	0.1653
302.9732	0.1614
303.1852	0.1773
303.3972	0.1738
303.6092	0.1697
303.8211	0.1781
304.0331	0.1586
304.245	0.1614
304.457	0.1661
304.6689	0.1707
304.8808	0.1576
305.0927	0.1703
305.3046	0.1583
305.5164	0.1685
305.7283	0.15
305.9401	0.1585
306.152	0.1488
306.3638	0.1567
306.5756	0.1596
306.7874	0.1513
306.9992	0.1499
307.2109	0.1442
307.4227	0.1535
307.6344	0.1454
307.8462	0.1397
308.0579	0.1472
308.2696	0.1466
308.4813	0.1377
308.693	0.1508
308.9046	0.1325
309.1163	0.1396
309.328	0.1272
309.5396	0.1317
309.7512	0.1376
309.9628	0.1315
310.1744	0.1341
310.386	0.1164
310.5976	0.1318
310.8091	0.1357
311.0207	0.1332
311.2322	0.1236
311.4437	0.1268
311.6552	0.12
311.8667	0.1185
312.0782	0.1165
312.2897	0.1111
312.5012	0.1234
312.7126	0.11
312.924	0.1092
313.1355	0.1224
313.3469	0.1042
313.5583	0.1066
313.7696	0.1292
313.981	0.1144
314.1924	0.1147
314.4037	0.1078
314.6151	0.1127
314.8264	0.1153
315.0377	0.1117
315.249	0.1007
315.4603	0.1138
315.6716	0.1082
315.8828	0.0976
316.0941	0.0986
316.3053	0.1126
316.5165	0.1037
316.7277	0.1022
316.9389	0.1043
317.1501	0.1094
317.3613	0.0901
317.5724	0.1057
317.7836	0.1045
317.9947	0.1219
318.2058	0.1083
318.417	0.113
318.6281	0.095
318.8391	0.1052
319.0502	0.1022
319.2613	0.1065
319.4723	0.1057
319.6834	0.1096
319.8944	0.0863
320.1054	0.1003
320.3164	0.1145
320.5274	0.0898
320.7383	0.1054
320.9493	0.1001
321.1602	0.1096
321.3712	0.1004
321.5821	0.1049
321.793	0.1124
322.0039	0.1027
322.2148	0.1046
322.4257	0.1086
322.6365	0.1098
322.8474	0.0939
323.0582	0.1129
323.269	0.1106
323.4798	0.125
323.6906	0.1053
323.9014	0.1144
324.1122	0.118
324.3229	0.1125
324.5337	0.1101
324.7444	0.1047
324.9551	0.1291
325.1658	0.1115
325.3765	0.1176
325.5872	0.1256
325.7979	0.1141
326.0085	0.1063
326.2192	0.0946
326.4298	0.117
326.6404	0.1072
326.851	0.1038
327.0616	0.1087
327.2722	0.1158
327.4828	0.1067
327.6933	0.1151
327.9039	0.1082
328.1144	0.1128
328.3249	0.108
328.5354	0.1066
328.7459	0.1224
328.9564	0.1112
329.1669	0.1282
329.3773	0.1072
329.5878	0.1096
329.7982	0.104
330.0086	0.114
330.219	0.1124
330.4294	0.1016
330.6398	0.1183
330.8502	0.1226
331.0605	0.1153
331.2708	0.114
331.4812	0.1074
331.6915	0.1016
331.9018	0.1031
332.1121	0.1077
332.3224	0.1112
332.5326	0.1093
332.7429	0.1128
332.9531	0.1056
333.1633	0.1319
333.3735	0.1158
333.5837	0.1169
333.7939	0.1073
334.0041	0.1284
334.2143	0.1202
334.4244	0.1179
334.6346	0.1015
334.8447	0.1072
335.0548	0.1163
335.2649	0.1163
335.475	0.1205
335.685	0.1129
335.8951	0.1145
336.1051	0.1152
336.3152	0.1189
336.5252	0.1183
336.7352	0.1208
336.9452	0.1258
337.1552	0.1248
337.3652	0.1164
337.5751	0.1289
337.7851	0.1131
337.995	0.1217
338.2049	0.1024
338.4148	0.125
338.6247	0.1116
338.8346	0.1145
339.0445	0.1052
339.2543	0.1259
339.4642	0.122
339.674	0.1217
339.8838	0.1218
340.0936	0.1346
340.3034	0.1198
340.5132	0.1375
340.7229	0.1315
340.9327	0.1111
341.1424	0.1117
341.3522	0.1147
341.5619	0.1131
341.7716	0.1328
341.9813	0.1222
342.1909	0.1261
342.4006	0.1273
342.6102	0.1213
342.8199	0.1156
343.0295	0.1331
343.2391	0.1204
343.4487	0.1241
343.6583	0.1252
343.8679	0.1226
344.0774	0.1258
344.287	0.1361
344.4965	0.1332
344.706	0.1341
344.9155	0.1278
345.125	0.1316
345.3345	0.1389
345.544	0.1479
345.7534	0.1306
345.9629	0.1363
346.1723	0.1331
346.3817	0.1296
346.5911	0.1354
346.8005	0.1348
347.0099	0.1252
347.2193	0.1261
347.4286	0.1355
347.638	0.1236
347.8473	0.1372
348.0566	0.1345
348.2659	0.1621
348.4752	0.1444
348.6845	0.1418
348.8937	0.1405
349.103	0.1203
349.3122	0.1412
349.5214	0.1444
349.7306	0.138
349.9398	0.141
350.149	0.1467
350.3582	0.1335
350.5674	0.155
350.7765	0.123
350.9856	0.1353
351.1948	0.153
351.4039	0.1551
351.613	0.1312
351.822	0.1454
352.0311	0.1563
352.2402	0.1443
352.4492	0.1479
352.6582	0.1398
352.8672	0.1329
353.0762	0.152
353.2852	0.1467
353.4942	0.1595
353.7032	0.153
353.9121	0.142
354.1211	0.1477
354.33	0.1553
354.5389	0.1555
354.7478	0.1561
354.9567	0.1655
355.1655	0.1623
355.3744	0.154
355.5833	0.1633
355.7921	0.1629
356.0009	0.1584
356.2097	0.1506
356.4185	0.1453
356.6273	0.1444
356.8361	0.158
357.0448	0.1319
357.2536	0.159
357.4623	0.1571
357.671	0.1592
357.8797	0.1595
358.0884	0.1739
358.2971	0.1612
358.5057	0.1681
358.7144	0.1676
358.923	0.1672
359.1316	0.1552
359.3402	0.1779
359.5488	0.1625
359.7574	0.1783
359.966	0.1784
360.1746	0.172
360.3831	0.1763
360.5916	0.1845
360.8002	0.193
361.0087	0.1785
361.2172	0.1633
361.4256	0.1832
361.6341	0.1771
361.8426	0.1846
362.051	0.1775
362.2594	0.1825
362.4678	0.1716
362.6762	0.1811
362.8846	0.1716
363.093	0.187
363.3014	0.1774
363.5097	0.1786
363.718	0.2017
363.9264	0.2046
364.1347	0.181
364.343	0.19
364.5513	0.1893
364.7595	0.2003
364.9678	0.1995
365.176	0.2037
365.3842	0.1978
365.5925	0.1729
365.8007	0.1996
366.0089	0.1684
366.217	0.192
366.4252	0.219
366.6333	0.2097
366.8415	0.1988
367.0496	0.1907
367.2577	0.2133
367.4658	0.2106
367.6739	0.2088
367.882	0.1887
368.09	0.2163
368.2981	0.2097
368.5061	0.2164
368.7141	0.1982
368.9221	0.2049
369.1301	0.2132
369.3381	0.2191
369.5461	0.2164
369.754	0.207
369.962	0.1984
370.1699	0.2144
370.3778	0.2264
370.5857	0.2237
370.7936	0.2101
371.0015	0.2178
371.2093	0.2258
371.4172	0.2015
371.625	0.2184
371.8328	0.2328
372.0406	0.2143
372.2484	0.218
372.4562	0.2235
372.664	0.2195
372.8717	0.2024
373.0795	0.2115
373.2872	0.2204
373.4949	0.2062
373.7026	0.2222
373.9103	0.2317
374.118	0.2261
374.3256	0.236
374.5333	0.2389
374.7409	0.2139
374.9485	0.2217
375.1561	0.2271
375.3637	0.2199
375.5713	0.2171
375.7789	0.2181
375.9864	0.2254
376.194	0.2239
376.4015	0.2224
376.609	0.2263
376.8165	0.2287
377.024	0.227
377.2315	0.2216
377.4389	0.2411
377.6464	0.2349
377.8538	0.2101
378.0612	0.231
378.2686	0.2516
378.476	0.2358
378.6834	0.2253
378.8908	0.2217
379.0981	0.2469
379.3055	0.2462
379.5128	0.2269
379.7201	0.2573
379.9274	0.2361
380.1347	0.2298
380.342	0.2298
380.5492	0.2509
380.7565	0.246
380.9637	0.254
381.1709	0.2343
381.3781	0.246
381.5853	0.2524
381.7925	0.2433
381.9997	0.2331
382.2068	0.2445
382.4139	0.2544
382.6211	0.2518
382.8282	0.2363
383.0353	0.2234
383.2424	0.2433
383.4494	0.2478
383.6565	0.2642
383.8635	0.2358
384.0706	0.2547
384.2776	0.2613
384.4846	0.2289
384.6916	0.2663
384.8986	0.2391
385.1055	0.2406
385.3125	0.2176
385.5194	0.2378
385.7263	0.2386
385.9333	0.2396
386.1402	0.2443
386.347	0.2432
386.5539	0.253
386.7608	0.242
386.9676	0.2284
387.1744	0.2224
387.3813	0.2378
387.5881	0.2474
387.7948	0.2367
388.0016	0.2413
388.2084	0.2435
388.4151	0.2468
388.6219	0.2654
388.8286	0.2177
389.0353	0.2249
389.242	0.2386
389.4487	0.2365
389.6553	0.2397
389.862	0.2552
390.0686	0.2346
390.2753	0.2544
390.4819	0.2455
390.6885	0.2478
390.8951	0.2157
391.1016	0.2251
391.3082	0.2256
391.5147	0.2052
391.7213	0.2209
391.9278	0.226
392.1343	0.2241
392.3408	0.2178
392.5473	0.2148
392.7537	0.2174
392.9602	0.2239
393.1666	0.2222
393.373	0.1965
393.5794	0.2201
393.7858	0.2011
393.9922	0.2197
394.1986	0.2273
394.4049	0.2204
394.6113	0.2012
394.8176	0.2153
395.0239	0.2119
395.2302	0.2071
395.4365	0.2093
395.6428	0.2254
395.8491	0.2055
396.0553	0.2237
396.2615	0.2062
396.4678	0.2143
396.674	0.1894
396.8802	0.204
397.0863	0.2001
397.2925	0.194
397.4987	0.219
397.7048	0.2086
397.9109	0.2137
398.117	0.2067
398.3231	0.2008
398.5292	0.2014
398.7353	0.2201
398.9413	0.185
399.1474	0.1855
399.3534	0.1993
399.5594	0.2242
399.7654	0.2068
399.9714	0.2092
400.1774	0.1987
400.3833	0.2032
400.5893	0.1893
400.7952	0.2243
401.0011	0.2204
401.207	0.1964
401.4129	0.1987
401.6188	0.1944
401.8247	0.2022
402.0305	0.209
402.2364	0.2172
402.4422	0.2125
402.648	0.1864
402.8538	0.1918
403.0596	0.1898
403.2654	0.2158
403.4711	0.2034
403.6768	0.1914
403.8826	0.2123
404.0883	0.2029
404.294	0.2111
404.4997	0.1972
404.7054	0.1892
404.911	0.2027
405.1167	0.1919
405.3223	0.1876
405.5279	0.1981
405.7335	0.2146
405.9391	0.2143
406.1447	0.2114
406.3502	0.2064
406.5558	0.1859
406.7613	0.2174
406.9668	0.1881
407.1724	0.2038
407.3778	0.2007
407.5833	0.2019
407.7888	0.2045
407.9942	0.1833
408.1997	0.2128
408.4051	0.1984
408.6105	0.1807
408.8159	0.2015
409.0213	0.1976
409.2267	0.1922
409.432	0.2115
409.6374	0.2025
409.8427	0.1987
410.048	0.1989
410.2533	0.1868
410.4586	0.196
410.6639	0.1974
410.8691	0.1841
411.0744	0.1991
411.2796	0.193
411.4848	0.2005
411.69	0.2015
411.8952	0.2007
412.1004	0.189
412.3056	0.1971
412.5107	0.1757
412.7158	0.2004
412.921	0.2056
413.1261	0.2004
413.3312	0.1911
413.5362	0.2095
413.7413	0.1951
413.9464	0.1969
414.1514	0.1956
414.3564	0.1826
414.5614	0.1776
414.7664	0.2027
414.9714	0.2037
415.1764	0.1928
415.3813	0.1912
415.5863	0.1957
415.7912	0.1841
415.9961	0.2005
416.201	0.194
416.4059	0.1696
416.6108	0.1883
416.8156	0.1954
417.0205	0.1731
417.2253	0.1844
417.4301	0.1975
417.6349	0.1867
417.8397	0.1768
418.0445	0.1797
418.2492	0.1849
418.454	0.194
418.6587	0.1885
418.8634	0.1929
419.0681	0.1903
419.2728	0.1716
419.4775	0.1866
419.6822	0.1942
419.8868	0.2002
420.0915	0.1571
420.2961	0.1918
420.5007	0.1881
420.7053	0.1842
420.9099	0.1965
421.1144	0.1992
421.319	0.1903
421.5235	0.2003
421.728	0.1892
421.9325	0.1765
422.137	0.1849
422.3415	0.1728
422.546	0.1746
422.7504	0.1887
422.9549	0.1661
423.1593	0.1747
423.3637	0.1882
423.5681	0.1584
423.7725	0.1693
423.9769	0.1822
424.1812	0.1612
424.3856	0.1616
424.5899	0.1724
424.7942	0.1739
424.9985	0.1751
425.2028	0.1574
425.4071	0.1622
425.6113	0.165
425.8156	0.1875
426.0198	0.1677
426.224	0.165
426.4282	0.1655
