Data from MonoPyChalIsomerACN10uM400nmA_Absorbance_12-08-44-028.txt Node
Date: Fri Jul 05 12:08:44 BST 2024
User: LASERRRRR
Spectrometer: FLMT03099
Trigger mode: 0
Integration Time (sec): 1.000000E-1
Scans to average: 1
Electric dark correction enabled: true
Nonlinearity correction enabled: false
Boxcar width: 0
XAxis mode: Wavelengths
Number of Pixels in Spectrum: 3648
>>>>>Begin Spectral Data<<<<<
179.3399	-0.0207
179.5586	-0.0207
179.7771	-0.0207
179.9957	0.4918
180.2143	-0
180.4329	-0.0444
180.6514	-0.1654
180.8699	-0.2681
181.0885	0.0461
181.307	-0.0882
181.5255	-0.2022
181.744	-0.1223
181.9625	-0
182.181	0.1135
182.3994	-0.3833
182.6179	-0.092
182.8363	-0.4266
183.0547	0.0251
183.2732	0.4044
183.4916	0.1072
183.71	0.2417
183.9284	0.1986
184.1467	-0.0211
184.3651	-0.0112
184.5835	0.3572
184.8018	0.0321
185.0201	0.0893
185.2385	-0.109
185.4568	0.0629
185.6751	0.0712
185.8934	-0.0294
186.1117	0.2329
186.3299	0.1344
186.5482	0.0727
186.7664	0.2191
186.9847	0.3734
187.2029	-0.0669
187.4211	0.1723
187.6393	0.1015
187.8575	0.1839
188.0757	0.2271
188.2939	0.1554
188.512	0.0766
188.7302	-0.127
188.9483	0.0946
189.1665	0.0574
189.3846	0.0097
189.6027	0.1078
189.8208	0.1479
190.0389	0.1546
190.257	0.2111
190.475	0.4677
190.6931	0.3026
190.9111	0.1681
191.1292	0.4847
191.3472	0.3685
191.5652	0.0885
191.7832	0.3448
192.0012	0.5227
192.2192	0.1628
192.4371	0.9003
192.6551	0.4816
192.873	0.4965
193.091	0.4744
193.3089	0.2916
193.5268	0.5404
193.7447	0.56
193.9626	0.5985
194.1805	0.501
194.3984	0.5
194.6162	0.5051
194.8341	0.4994
195.0519	0.775
195.2697	0.5232
195.4875	0.9128
195.7054	0.6405
195.9231	0.5422
196.1409	0.324
196.3587	0.6965
196.5765	0.639
196.7942	0.7044
197.012	0.9047
197.2297	0.688
197.4474	0.7189
197.6651	0.661
197.8828	0.537
198.1005	0.6155
198.3182	1.003
198.5358	0.82
198.7535	0.6994
198.9711	0.6919
199.1888	0.7401
199.4064	0.7951
199.624	0.7852
199.8416	0.7376
200.0592	0.7837
200.2767	0.6768
200.4943	0.7109
200.7119	0.7272
200.9294	0.6503
201.1469	0.8055
201.3645	0.7687
201.582	0.8561
201.7995	0.9301
202.017	0.7766
202.2344	0.8022
202.4519	0.8677
202.6694	0.9156
202.8868	0.7852
203.1042	0.6554
203.3217	0.735
203.5391	0.8088
203.7565	0.9081
203.9739	0.7264
204.1913	0.906
204.4086	0.8163
204.626	0.8277
204.8433	0.9348
205.0607	0.7184
205.278	0.8567
205.4953	0.9638
205.7126	0.6458
205.9299	0.831
206.1472	0.7244
206.3644	0.6838
206.5817	0.7564
206.7989	0.7045
207.0162	0.7701
207.2334	0.7618
207.4506	0.8017
207.6678	0.8813
207.885	0.7553
208.1022	0.8659
208.3194	0.7307
208.5365	0.7729
208.7537	0.8528
208.9708	0.712
209.1879	0.9107
209.405	0.7038
209.6222	0.7906
209.8392	0.7608
210.0563	0.7756
210.2734	0.7125
210.4905	0.8268
210.7075	0.8299
210.9245	0.8165
211.1416	0.7897
211.3586	0.7572
211.5756	0.7907
211.7926	0.724
212.0096	0.7182
212.2265	0.7613
212.4435	0.7009
212.6604	0.6988
212.8774	0.6734
213.0943	0.7524
213.3112	0.6817
213.5281	0.6672
213.745	0.7333
213.9619	0.7009
214.1788	0.6991
214.3956	0.6401
214.6125	0.6136
214.8293	0.7066
215.0461	0.6876
215.2629	0.6724
215.4798	0.617
215.6965	0.6896
215.9133	0.6508
216.1301	0.6293
216.3469	0.6765
216.5636	0.6473
216.7803	0.6473
216.9971	0.6288
217.2138	0.6999
217.4305	0.6198
217.6472	0.5924
217.8639	0.6004
218.0805	0.6329
218.2972	0.5873
218.5138	0.597
218.7305	0.5657
218.9471	0.5621
219.1637	0.5957
219.3803	0.5278
219.5969	0.5681
219.8135	0.5532
220.0301	0.5858
220.2466	0.5868
220.4632	0.529
220.6797	0.5454
220.8962	0.5637
221.1127	0.5524
221.3292	0.502
221.5457	0.5921
221.7622	0.5566
221.9787	0.5771
222.1951	0.55
222.4116	0.521
222.628	0.5911
222.8444	0.5679
223.0608	0.5272
223.2772	0.5567
223.4936	0.5848
223.71	0.5332
223.9264	0.5574
224.1427	0.5595
224.3591	0.5662
224.5754	0.5622
224.7917	0.5356
225.008	0.5935
225.2243	0.5304
225.4406	0.5862
225.6569	0.5548
225.8732	0.5856
226.0894	0.5566
226.3057	0.5373
226.5219	0.5219
226.7381	0.5875
226.9543	0.6109
227.1705	0.5402
227.3867	0.5713
227.6029	0.5554
227.8191	0.5285
228.0352	0.5523
228.2513	0.5618
228.4675	0.5815
228.6836	0.6118
228.8997	0.5661
229.1158	0.5457
229.3319	0.6016
229.548	0.6236
229.764	0.6042
229.9801	0.5596
230.1961	0.5714
230.4121	0.5865
230.6282	0.5828
230.8442	0.5655
231.0602	0.5604
231.2761	0.5545
231.4921	0.6034
231.7081	0.5699
231.924	0.5829
232.14	0.5978
232.3559	0.6015
232.5718	0.5768
232.7877	0.5942
233.0036	0.577
233.2195	0.5643
233.4353	0.5933
233.6512	0.5448
233.867	0.5621
234.0829	0.5512
234.2987	0.5901
234.5145	0.5494
234.7303	0.5834
234.9461	0.5699
235.1619	0.5528
235.3776	0.5717
235.5934	0.5905
235.8091	0.5576
236.0249	0.5496
236.2406	0.5679
236.4563	0.5738
236.672	0.5595
236.8877	0.5491
237.1034	0.5179
237.319	0.5388
237.5347	0.5675
237.7503	0.5752
237.966	0.5204
238.1816	0.5761
238.3972	0.5857
238.6128	0.5351
238.8284	0.5507
239.0439	0.5468
239.2595	0.5395
239.475	0.5501
239.6906	0.5204
239.9061	0.5089
240.1216	0.515
240.3371	0.5267
240.5526	0.5321
240.7681	0.5459
240.9836	0.5574
241.199	0.5052
241.4145	0.5103
241.6299	0.4754
241.8453	0.4893
242.0607	0.4846
242.2761	0.4876
242.4915	0.4634
242.7069	0.4712
242.9223	0.466
243.1376	0.4484
243.353	0.4592
243.5683	0.4531
243.7836	0.4181
243.9989	0.4391
244.2142	0.422
244.4295	0.4129
244.6448	0.395
244.86	0.3754
245.0753	0.3768
245.2905	0.3743
245.5057	0.3633
245.721	0.3522
245.9362	0.3426
246.1514	0.3529
246.3665	0.3361
246.5817	0.3398
246.7969	0.3434
247.012	0.322
247.2271	0.3217
247.4423	0.3092
247.6574	0.3129
247.8725	0.2865
248.0876	0.2956
248.3026	0.2836
248.5177	0.3083
248.7328	0.279
248.9478	0.281
249.1628	0.2654
249.3779	0.2557
249.5929	0.2633
249.8079	0.2725
250.0228	0.2572
250.2378	0.2585
250.4528	0.2436
250.6677	0.2389
250.8827	0.2485
251.0976	0.231
251.3125	0.2415
251.5274	0.2309
251.7423	0.2407
251.9572	0.2289
252.172	0.2177
252.3869	0.2328
252.6017	0.2354
252.8166	0.2096
253.0314	0.2199
253.2462	0.212
253.461	0.2086
253.6758	0.1976
253.8906	0.2139
254.1053	0.2053
254.3201	0.2103
254.5348	0.2068
254.7496	0.2089
254.9643	0.204
255.179	0.2051
255.3937	0.2112
255.6083	0.2031
255.823	0.2023
256.0377	0.19
256.2523	0.1978
256.467	0.1979
256.6816	0.1999
256.8962	0.1939
257.1108	0.2133
257.3254	0.2029
257.54	0.1863
257.7545	0.1955
257.9691	0.2018
258.1836	0.1814
258.3981	0.1925
258.6127	0.1809
258.8272	0.1898
259.0417	0.1937
259.2561	0.1766
259.4706	0.1979
259.6851	0.1861
259.8995	0.193
260.114	0.1727
260.3284	0.1763
260.5428	0.1967
260.7572	0.2014
260.9716	0.1907
261.186	0.2048
261.4003	0.1895
261.6147	0.2026
261.829	0.1892
262.0433	0.191
262.2577	0.184
262.472	0.1938
262.6863	0.1903
262.9005	0.1822
263.1148	0.1864
263.3291	0.1843
263.5433	0.1973
263.7576	0.1972
263.9718	0.1847
264.186	0.1913
264.4002	0.1964
264.6144	0.1858
264.8286	0.2
265.0427	0.2044
265.2569	0.1944
265.471	0.1916
265.6851	0.1724
265.8993	0.1994
266.1134	0.1855
266.3275	0.1877
266.5415	0.1794
266.7556	0.1941
266.9697	0.1867
267.1837	0.1891
267.3978	0.1938
267.6118	0.1861
267.8258	0.2017
268.0398	0.1974
268.2538	0.1981
268.4677	0.1931
268.6817	0.1871
268.8957	0.1906
269.1096	0.1811
269.3235	0.1938
269.5374	0.1881
269.7514	0.1762
269.9652	0.1821
270.1791	0.1793
270.393	0.1748
270.6068	0.1845
270.8207	0.1809
271.0345	0.1669
271.2483	0.18
271.4622	0.1867
271.676	0.1739
271.8897	0.18
272.1035	0.1697
272.3173	0.178
272.531	0.1795
272.7448	0.1744
272.9585	0.1789
273.1722	0.1908
273.3859	0.1829
273.5996	0.1793
273.8133	0.1866
274.0269	0.1821
274.2406	0.1734
274.4542	0.1764
274.6679	0.1812
274.8815	0.1849
275.0951	0.1831
275.3087	0.1675
275.5223	0.1706
275.7358	0.1945
275.9494	0.1848
276.1629	0.1808
276.3765	0.1662
276.59	0.1817
276.8035	0.1802
277.017	0.1794
277.2305	0.1762
277.444	0.1743
277.6574	0.1784
277.8709	0.1688
278.0843	0.1922
278.2978	0.1779
278.5112	0.1917
278.7246	0.1867
278.938	0.1864
279.1513	0.1884
279.3647	0.1552
279.5781	0.1771
279.7914	0.1957
280.0047	0.1857
280.2181	0.1843
280.4314	0.1859
280.6447	0.1916
280.8579	0.1909
281.0712	0.2061
281.2845	0.1949
281.4977	0.1942
281.711	0.1831
281.9242	0.194
282.1374	0.1787
282.3506	0.1737
282.5638	0.1997
282.7769	0.1847
282.9901	0.1865
283.2033	0.1874
283.4164	0.1827
283.6295	0.1744
283.8426	0.1964
284.0557	0.1808
284.2688	0.1726
284.4819	0.1863
284.695	0.1825
284.908	0.2034
285.1211	0.1906
285.3341	0.1885
285.5471	0.188
285.7601	0.1874
285.9731	0.1982
286.1861	0.198
286.3991	0.1786
286.612	0.179
286.825	0.1854
287.0379	0.1816
287.2508	0.1741
287.4637	0.1884
287.6766	0.1751
287.8895	0.18
288.1024	0.1861
288.3152	0.1799
288.5281	0.1805
288.7409	0.1854
288.9538	0.1816
289.1666	0.1787
289.3794	0.1778
289.5922	0.1754
289.8049	0.1669
290.0177	0.1764
290.2304	0.1726
290.4432	0.1709
290.6559	0.1933
290.8686	0.1742
291.0813	0.1766
291.294	0.1864
291.5067	0.2002
291.7194	0.1799
291.932	0.1867
292.1447	0.184
292.3573	0.1925
292.5699	0.1855
292.7825	0.1728
292.9951	0.1898
293.2077	0.184
293.4203	0.189
293.6328	0.1783
293.8454	0.1746
294.0579	0.1767
294.2704	0.1791
294.4829	0.1848
294.6954	0.1863
294.9079	0.18
295.1204	0.1794
295.3328	0.1692
295.5453	0.1601
295.7577	0.1704
295.9701	0.1793
296.1825	0.1637
296.3949	0.1745
296.6073	0.1828
296.8197	0.1704
297.0321	0.1671
297.2444	0.1653
297.4567	0.1725
297.6691	0.1689
297.8814	0.1888
298.0937	0.1801
298.306	0.1723
298.5182	0.1699
298.7305	0.1771
298.9428	0.1745
299.155	0.1755
299.3672	0.1676
299.5794	0.174
299.7916	0.1694
300.0038	0.1661
300.216	0.1663
300.4282	0.1796
300.6403	0.1784
300.8525	0.1698
301.0646	0.1736
301.2767	0.177
301.4888	0.1625
301.7009	0.1694
301.913	0.1804
302.125	0.1709
302.3371	0.1781
302.5491	0.1708
302.7612	0.1659
302.9732	0.1785
303.1852	0.1748
303.3972	0.1673
303.6092	0.1696
303.8211	0.1717
304.0331	0.1602
304.245	0.1665
304.457	0.1689
304.6689	0.1605
304.8808	0.1529
305.0927	0.1528
305.3046	0.1465
305.5164	0.1765
305.7283	0.1731
305.9401	0.1522
306.152	0.1507
306.3638	0.1576
306.5756	0.1519
306.7874	0.1499
306.9992	0.1532
307.2109	0.1428
307.4227	0.144
307.6344	0.1472
307.8462	0.1334
308.0579	0.1427
308.2696	0.155
308.4813	0.1357
308.693	0.146
308.9046	0.1332
309.1163	0.1466
309.328	0.1372
309.5396	0.1352
309.7512	0.1272
309.9628	0.1286
310.1744	0.1294
310.386	0.1321
310.5976	0.1311
310.8091	0.131
311.0207	0.1225
311.2322	0.1191
311.4437	0.1209
311.6552	0.1239
311.8667	0.1158
312.0782	0.1203
312.2897	0.1167
312.5012	0.1086
312.7126	0.1244
312.924	0.1157
313.1355	0.1207
313.3469	0.1129
313.5583	0.1175
313.7696	0.1176
313.981	0.1239
314.1924	0.1199
314.4037	0.1211
314.6151	0.1133
314.8264	0.126
315.0377	0.1096
315.249	0.1093
315.4603	0.0965
315.6716	0.1211
315.8828	0.1024
316.0941	0.1009
316.3053	0.1088
316.5165	0.1094
316.7277	0.098
316.9389	0.1058
317.1501	0.1096
317.3613	0.0919
317.5724	0.1165
317.7836	0.1026
317.9947	0.1125
318.2058	0.107
318.417	0.1135
318.6281	0.1066
318.8391	0.0991
319.0502	0.1091
319.2613	0.1129
319.4723	0.1043
319.6834	0.1126
319.8944	0.0989
320.1054	0.1024
320.3164	0.1165
320.5274	0.0939
320.7383	0.1119
320.9493	0.1017
321.1602	0.1098
321.3712	0.0998
321.5821	0.1097
321.793	0.105
322.0039	0.1002
322.2148	0.1053
322.4257	0.1093
322.6365	0.1048
322.8474	0.1016
323.0582	0.1212
323.269	0.1055
323.4798	0.1201
323.6906	0.1056
323.9014	0.1062
324.1122	0.1197
324.3229	0.1079
324.5337	0.1203
324.7444	0.119
324.9551	0.1229
325.1658	0.1189
325.3765	0.1074
325.5872	0.1219
325.7979	0.1152
326.0085	0.1014
326.2192	0.0885
326.4298	0.1088
326.6404	0.1139
326.851	0.1174
327.0616	0.1113
327.2722	0.1224
327.4828	0.1288
327.6933	0.1176
327.9039	0.1179
328.1144	0.1071
328.3249	0.102
328.5354	0.1098
328.7459	0.1228
328.9564	0.1135
329.1669	0.1252
329.3773	0.1074
329.5878	0.1092
329.7982	0.1076
330.0086	0.1237
330.219	0.106
330.4294	0.1159
330.6398	0.1115
330.8502	0.1128
331.0605	0.1277
331.2708	0.1103
331.4812	0.1124
331.6915	0.1114
331.9018	0.1129
332.1121	0.0996
332.3224	0.1141
332.5326	0.1117
332.7429	0.1055
332.9531	0.1082
333.1633	0.1224
333.3735	0.1157
333.5837	0.1127
333.7939	0.115
334.0041	0.1305
334.2143	0.1206
334.4244	0.1252
334.6346	0.1013
334.8447	0.1173
335.0548	0.114
335.2649	0.1199
335.475	0.1122
335.685	0.1157
335.8951	0.1235
336.1051	0.1199
336.3152	0.1157
336.5252	0.1235
336.7352	0.1252
336.9452	0.1354
337.1552	0.1255
337.3652	0.1209
337.5751	0.1222
337.7851	0.1191
337.995	0.1102
338.2049	0.1205
338.4148	0.12
338.6247	0.1113
338.8346	0.122
339.0445	0.1223
339.2543	0.1206
339.4642	0.1258
339.674	0.1255
339.8838	0.1171
340.0936	0.1255
340.3034	0.1229
340.5132	0.1305
340.7229	0.1387
340.9327	0.1225
341.1424	0.1234
341.3522	0.1191
341.5619	0.1188
341.7716	0.1263
341.9813	0.1242
342.1909	0.1297
342.4006	0.1272
342.6102	0.1094
342.8199	0.1272
343.0295	0.1312
343.2391	0.1237
343.4487	0.1304
343.6583	0.1237
343.8679	0.1286
344.0774	0.1455
344.287	0.131
344.4965	0.1335
344.706	0.138
344.9155	0.1311
345.125	0.1318
345.3345	0.1278
345.544	0.1403
345.7534	0.1228
345.9629	0.1386
346.1723	0.1338
346.3817	0.1313
346.5911	0.1406
346.8005	0.14
347.0099	0.139
347.2193	0.1418
347.4286	0.1365
347.638	0.144
347.8473	0.1411
348.0566	0.1311
348.2659	0.1381
348.4752	0.1408
348.6845	0.1423
348.8937	0.1411
349.103	0.1494
349.3122	0.1368
349.5214	0.1511
349.7306	0.1373
349.9398	0.1423
350.149	0.1504
350.3582	0.1399
350.5674	0.1424
350.7765	0.134
350.9856	0.1367
351.1948	0.1491
351.4039	0.1645
351.613	0.1474
351.822	0.1453
352.0311	0.1468
352.2402	0.1498
352.4492	0.1566
352.6582	0.1524
352.8672	0.1487
353.0762	0.1487
353.2852	0.1432
353.4942	0.147
353.7032	0.1542
353.9121	0.1529
354.1211	0.149
354.33	0.1591
354.5389	0.149
354.7478	0.1512
354.9567	0.1729
355.1655	0.1545
355.3744	0.1516
355.5833	0.1651
355.7921	0.1545
356.0009	0.158
356.2097	0.1446
356.4185	0.1295
356.6273	0.1537
356.8361	0.1654
357.0448	0.1543
357.2536	0.1748
357.4623	0.1562
357.671	0.1579
357.8797	0.1489
358.0884	0.1708
358.2971	0.1526
358.5057	0.1622
358.7144	0.1536
358.923	0.1472
359.1316	0.1617
359.3402	0.1805
359.5488	0.178
359.7574	0.177
359.966	0.1734
360.1746	0.1602
360.3831	0.1558
360.5916	0.1845
360.8002	0.1788
361.0087	0.1873
361.2172	0.1683
361.4256	0.1775
361.6341	0.1798
361.8426	0.1808
362.051	0.1728
362.2594	0.1917
362.4678	0.1875
362.6762	0.1741
362.8846	0.1594
363.093	0.1849
363.3014	0.1806
363.5097	0.1657
363.718	0.1885
363.9264	0.1932
364.1347	0.1805
364.343	0.2012
364.5513	0.1906
364.7595	0.2017
364.9678	0.1991
365.176	0.2027
365.3842	0.1807
365.5925	0.1765
365.8007	0.1932
366.0089	0.1834
366.217	0.1861
366.4252	0.1907
366.6333	0.1911
366.8415	0.1922
367.0496	0.1924
367.2577	0.1924
367.4658	0.2053
367.6739	0.1899
367.882	0.1941
368.09	0.2009
368.2981	0.1993
368.5061	0.2014
368.7141	0.217
368.9221	0.2007
369.1301	0.1948
369.3381	0.2156
369.5461	0.2054
369.754	0.1877
369.962	0.2069
370.1699	0.1846
370.3778	0.2141
370.5857	0.2164
370.7936	0.1968
371.0015	0.2212
371.2093	0.2229
371.4172	0.2057
371.625	0.2128
371.8328	0.209
372.0406	0.2034
372.2484	0.2095
372.4562	0.2197
372.664	0.2202
372.8717	0.2126
373.0795	0.2162
373.2872	0.2155
373.4949	0.2158
373.7026	0.2136
373.9103	0.2128
374.118	0.2165
374.3256	0.2305
374.5333	0.2256
374.7409	0.1929
374.9485	0.2092
375.1561	0.2197
375.3637	0.2015
375.5713	0.227
375.7789	0.2142
375.9864	0.2278
376.194	0.2041
376.4015	0.2174
376.609	0.2205
376.8165	0.2272
377.024	0.2109
377.2315	0.2264
377.4389	0.218
377.6464	0.2301
377.8538	0.2127
378.0612	0.2229
378.2686	0.2289
378.476	0.2267
378.6834	0.2222
378.8908	0.2021
379.0981	0.2237
379.3055	0.23
379.5128	0.2433
379.7201	0.228
379.9274	0.2122
380.1347	0.2239
380.342	0.2194
380.5492	0.2275
380.7565	0.24
380.9637	0.2466
381.1709	0.2317
381.3781	0.2323
381.5853	0.2499
381.7925	0.2472
381.9997	0.2161
382.2068	0.2522
382.4139	0.2332
382.6211	0.2363
382.8282	0.2545
383.0353	0.2303
383.2424	0.2313
383.4494	0.2213
383.6565	0.2277
383.8635	0.241
384.0706	0.2516
384.2776	0.2399
384.4846	0.2255
384.6916	0.2447
384.8986	0.2454
385.1055	0.2337
385.3125	0.2488
385.5194	0.233
385.7263	0.2577
385.9333	0.2295
386.1402	0.2353
386.347	0.2515
386.5539	0.2361
386.7608	0.243
386.9676	0.2129
387.1744	0.2379
387.3813	0.2349
387.5881	0.225
387.7948	0.2468
388.0016	0.2297
388.2084	0.2345
388.4151	0.2432
388.6219	0.2427
388.8286	0.2081
389.0353	0.2266
389.242	0.2322
389.4487	0.2088
389.6553	0.2025
389.862	0.2271
390.0686	0.2289
390.2753	0.2316
390.4819	0.2235
390.6885	0.2376
390.8951	0.2211
391.1016	0.2267
391.3082	0.2247
391.5147	0.2265
391.7213	0.2078
391.9278	0.2338
392.1343	0.2106
392.3408	0.2221
392.5473	0.2189
392.7537	0.2185
392.9602	0.2233
393.1666	0.2148
393.373	0.209
393.5794	0.1916
393.7858	0.2034
393.9922	0.2189
394.1986	0.2223
394.4049	0.2021
394.6113	0.2135
394.8176	0.2032
395.0239	0.2234
395.2302	0.1782
395.4365	0.2051
395.6428	0.2219
395.8491	0.1972
396.0553	0.197
396.2615	0.2038
396.4678	0.1988
396.674	0.1861
396.8802	0.2005
397.0863	0.1941
397.2925	0.1898
397.4987	0.2031
397.7048	0.1974
397.9109	0.2184
398.117	0.1981
398.3231	0.1748
398.5292	0.203
398.7353	0.2032
398.9413	0.1893
399.1474	0.196
399.3534	0.1834
399.5594	0.2018
399.7654	0.1921
399.9714	0.196
400.1774	0.1854
400.3833	0.2138
400.5893	0.185
400.7952	0.2121
401.0011	0.1995
401.207	0.2016
401.4129	0.1888
401.6188	0.1843
401.8247	0.1934
402.0305	0.2
402.2364	0.2109
402.4422	0.2087
402.648	0.2014
402.8538	0.2017
403.0596	0.1847
403.2654	0.188
403.4711	0.1911
403.6768	0.1866
403.8826	0.1957
404.0883	0.1957
404.294	0.2105
404.4997	0.1841
404.7054	0.1991
404.911	0.184
405.1167	0.1799
405.3223	0.1873
405.5279	0.1846
405.7335	0.2029
405.9391	0.2087
406.1447	0.1919
406.3502	0.1983
406.5558	0.1961
406.7613	0.2087
406.9668	0.2017
407.1724	0.1974
407.3778	0.2041
407.5833	0.1948
407.7888	0.1965
407.9942	0.1878
408.1997	0.1854
408.4051	0.1803
408.6105	0.1807
408.8159	0.202
409.0213	0.199
409.2267	0.1886
409.432	0.1941
409.6374	0.1787
409.8427	0.1918
410.048	0.193
410.2533	0.1876
410.4586	0.1726
410.6639	0.2047
410.8691	0.1851
411.0744	0.1852
411.2796	0.1871
411.4848	0.2005
411.69	0.1789
411.8952	0.199
412.1004	0.1757
412.3056	0.1743
412.5107	0.1825
412.7158	0.1834
412.921	0.1881
413.1261	0.1974
413.3312	0.1824
413.5362	0.1824
413.7413	0.2003
413.9464	0.2029
414.1514	0.1845
414.3564	0.1953
414.5614	0.158
414.7664	0.1795
414.9714	0.199
415.1764	0.1877
415.3813	0.1672
415.5863	0.186
415.7912	0.1936
415.9961	0.203
416.201	0.1741
416.4059	0.1882
416.6108	0.1869
416.8156	0.1788
417.0205	0.1841
417.2253	0.1669
417.4301	0.1782
417.6349	0.1811
417.8397	0.1716
418.0445	0.1793
418.2492	0.1882
418.454	0.1714
418.6587	0.1908
418.8634	0.19
419.0681	0.1938
419.2728	0.1748
419.4775	0.166
419.6822	0.1998
419.8868	0.1794
420.0915	0.1684
420.2961	0.1846
420.5007	0.1747
420.7053	0.1721
420.9099	0.1785
421.1144	0.1856
421.319	0.1792
421.5235	0.1995
421.728	0.1679
421.9325	0.1631
422.137	0.1715
422.3415	0.1616
422.546	0.1651
422.7504	0.1674
422.9549	0.1877
423.1593	0.1598
423.3637	0.1787
423.5681	0.1514
423.7725	0.1604
423.9769	0.1602
424.1812	0.1514
424.3856	0.1767
424.5899	0.1642
424.7942	0.1639
424.9985	0.1655
425.2028	0.1378
425.4071	0.1433
425.6113	0.1562
425.8156	0.178
426.0198	0.1551
426.224	0.1678
426.4282	0.1667
