Data from MonoPyChalIsomerACN10uM400nmA_Absorbance_12-08-45-028.txt Node
Date: Fri Jul 05 12:08:45 BST 2024
User: LASERRRRR
Spectrometer: FLMT03099
Trigger mode: 0
Integration Time (sec): 1.000000E-1
Scans to average: 1
Electric dark correction enabled: true
Nonlinearity correction enabled: false
Boxcar width: 0
XAxis mode: Wavelengths
Number of Pixels in Spectrum: 3648
>>>>>Begin Spectral Data<<<<<
179.3399	0.2818
179.5586	0.2818
179.7771	0.2818
179.9957	-0
180.2143	-0
180.4329	-0
180.6514	-0
180.8699	-0.4285
181.0885	0.2105
181.307	0.4785
181.5255	-0.3289
181.744	-0
181.9625	-0.2033
182.181	-0
182.3994	0.0675
182.6179	-0.1902
182.8363	-0.3742
183.0547	0.3863
183.2732	0.3657
183.4916	0.0932
183.71	0.1199
183.9284	0.1096
184.1467	0.0184
184.3651	0.0175
184.5835	0.149
184.8018	0.1523
185.0201	0.0786
185.2385	-0.054
185.4568	0.2505
185.6751	0.0447
185.8934	-0.0421
186.1117	0.1194
186.3299	0.3572
186.5482	0.006
186.7664	0.1117
186.9847	0.1208
187.2029	0.1687
187.4211	-0.3714
187.6393	0.0975
187.8575	0.1698
188.0757	0.1008
188.2939	0.1783
188.512	0.0292
188.7302	0.0084
188.9483	0.0907
189.1665	0.1381
189.3846	-0.0666
189.6027	0.2662
189.8208	0.1527
190.0389	0.4302
190.257	0.154
190.475	0.2733
190.6931	0.8092
190.9111	0.0959
191.1292	0.468
191.3472	0.6061
191.5652	0.1663
191.7832	0.3522
192.0012	0.2845
192.2192	0.2338
192.4371	0.2338
192.6551	0.4718
192.873	0.2775
193.091	0.5297
193.3089	0.36
193.5268	1.1774
193.7447	0.6032
193.9626	0.6613
194.1805	0.755
194.3984	0.4826
194.6162	0.3539
194.8341	0.801
195.0519	0.5863
195.2697	0.8286
195.4875	0.8124
195.7054	0.6312
195.9231	0.6199
196.1409	0.6821
196.3587	0.5507
196.5765	0.5694
196.7942	0.8234
197.012	0.881
197.2297	0.6315
197.4474	0.693
197.6651	0.9014
197.8828	0.7235
198.1005	0.7021
198.3182	0.8386
198.5358	0.7192
198.7535	0.7078
198.9711	0.636
199.1888	0.7104
199.4064	0.924
199.624	0.8904
199.8416	0.637
200.0592	0.654
200.2767	0.619
200.4943	0.6828
200.7119	0.7054
200.9294	0.725
201.1469	0.8284
201.3645	0.5772
201.582	0.8335
201.7995	0.7639
202.017	0.9347
202.2344	0.7208
202.4519	0.8005
202.6694	0.7432
202.8868	0.7624
203.1042	0.7638
203.3217	0.6939
203.5391	0.9178
203.7565	1.0171
203.9739	0.7502
204.1913	0.9931
204.4086	0.8736
204.626	0.9093
204.8433	0.8245
205.0607	0.6547
205.278	0.8823
205.4953	0.8008
205.7126	0.7206
205.9299	0.8893
206.1472	0.7415
206.3644	0.6574
206.5817	0.718
206.7989	0.633
207.0162	0.7501
207.2334	0.8207
207.4506	0.7708
207.6678	0.7846
207.885	0.7181
208.1022	0.7714
208.3194	0.7213
208.5365	0.7222
208.7537	0.7885
208.9708	0.7142
209.1879	0.8657
209.405	0.6951
209.6222	0.8068
209.8392	0.7427
210.0563	0.8587
210.2734	0.752
210.4905	0.745
210.7075	0.884
210.9245	0.6993
211.1416	0.7937
211.3586	0.7726
211.5756	0.7251
211.7926	0.6891
212.0096	0.6539
212.2265	0.7375
212.4435	0.6852
212.6604	0.7825
212.8774	0.7461
213.0943	0.6996
213.3112	0.7602
213.5281	0.7326
213.745	0.8173
213.9619	0.6648
214.1788	0.6717
214.3956	0.6919
214.6125	0.6068
214.8293	0.6731
215.0461	0.6282
215.2629	0.6232
215.4798	0.6747
215.6965	0.6472
215.9133	0.7205
216.1301	0.6188
216.3469	0.6694
216.5636	0.655
216.7803	0.6484
216.9971	0.5759
217.2138	0.6777
217.4305	0.6057
217.6472	0.6142
217.8639	0.615
218.0805	0.6055
218.2972	0.5509
218.5138	0.6191
218.7305	0.6014
218.9471	0.5351
219.1637	0.5713
219.3803	0.5704
219.5969	0.5758
219.8135	0.5469
220.0301	0.5904
220.2466	0.5845
220.4632	0.5464
220.6797	0.5595
220.8962	0.5501
221.1127	0.5686
221.3292	0.5126
221.5457	0.5639
221.7622	0.5688
221.9787	0.5145
222.1951	0.5624
222.4116	0.5713
222.628	0.6341
222.8444	0.5416
223.0608	0.5585
223.2772	0.5535
223.4936	0.5487
223.71	0.5395
223.9264	0.5354
224.1427	0.5307
224.3591	0.5484
224.5754	0.5592
224.7917	0.5739
225.008	0.5552
225.2243	0.5423
225.4406	0.5232
225.6569	0.5277
225.8732	0.5726
226.0894	0.5327
226.3057	0.5605
226.5219	0.5424
226.7381	0.5893
226.9543	0.5383
227.1705	0.5455
227.3867	0.5669
227.6029	0.5603
227.8191	0.5463
228.0352	0.565
228.2513	0.5709
228.4675	0.5709
228.6836	0.583
228.8997	0.5699
229.1158	0.5929
229.3319	0.5713
229.548	0.6009
229.764	0.5867
229.9801	0.5705
230.1961	0.5897
230.4121	0.6048
230.6282	0.5475
230.8442	0.5622
231.0602	0.5466
231.2761	0.5655
231.4921	0.5723
231.7081	0.5439
231.924	0.592
232.14	0.5949
232.3559	0.5885
232.5718	0.5826
232.7877	0.5562
233.0036	0.5515
233.2195	0.5634
233.4353	0.5829
233.6512	0.5917
233.867	0.5743
234.0829	0.5661
234.2987	0.5911
234.5145	0.5482
234.7303	0.5907
234.9461	0.5576
235.1619	0.5809
235.3776	0.5917
235.5934	0.5471
235.8091	0.546
236.0249	0.5434
236.2406	0.5397
236.4563	0.5982
236.672	0.5599
236.8877	0.569
237.1034	0.5463
237.319	0.5447
237.5347	0.6019
237.7503	0.5476
237.966	0.5296
238.1816	0.5402
238.3972	0.5697
238.6128	0.5185
238.8284	0.5195
239.0439	0.5305
239.2595	0.5684
239.475	0.5717
239.6906	0.5379
239.9061	0.5232
240.1216	0.5294
240.3371	0.5414
240.5526	0.521
240.7681	0.5145
240.9836	0.5448
241.199	0.5178
241.4145	0.5277
241.6299	0.4805
241.8453	0.4804
242.0607	0.4978
242.2761	0.467
242.4915	0.4589
242.7069	0.4508
242.9223	0.4772
243.1376	0.4438
243.353	0.4639
243.5683	0.4436
243.7836	0.4224
243.9989	0.4452
244.2142	0.4185
244.4295	0.404
244.6448	0.3858
244.86	0.3759
245.0753	0.3876
245.2905	0.3939
245.5057	0.3706
245.721	0.3699
245.9362	0.35
246.1514	0.3415
246.3665	0.3436
246.5817	0.3307
246.7969	0.3162
247.012	0.3214
247.2271	0.3407
247.4423	0.3178
247.6574	0.3185
247.8725	0.2991
248.0876	0.2949
248.3026	0.2718
248.5177	0.3122
248.7328	0.2774
248.9478	0.2788
249.1628	0.2665
249.3779	0.267
249.5929	0.2605
249.8079	0.2487
250.0228	0.2584
250.2378	0.2659
250.4528	0.261
250.6677	0.2433
250.8827	0.2313
251.0976	0.2372
251.3125	0.2377
251.5274	0.2289
251.7423	0.2382
251.9572	0.227
252.172	0.2256
252.3869	0.2174
252.6017	0.2283
252.8166	0.2123
253.0314	0.2105
253.2462	0.2277
253.461	0.2195
253.6758	0.202
253.8906	0.2213
254.1053	0.197
254.3201	0.217
254.5348	0.205
254.7496	0.205
254.9643	0.1958
255.179	0.2005
255.3937	0.1975
255.6083	0.1996
255.823	0.1945
256.0377	0.1858
256.2523	0.1923
256.467	0.2124
256.6816	0.2008
256.8962	0.1956
257.1108	0.2021
257.3254	0.1979
257.54	0.1792
257.7545	0.194
257.9691	0.1987
258.1836	0.19
258.3981	0.1872
258.6127	0.193
258.8272	0.1842
259.0417	0.1906
259.2561	0.1848
259.4706	0.1813
259.6851	0.1859
259.8995	0.1968
260.114	0.1909
260.3284	0.1959
260.5428	0.1907
260.7572	0.1917
260.9716	0.1875
261.186	0.191
261.4003	0.184
261.6147	0.199
261.829	0.1866
262.0433	0.1848
262.2577	0.1746
262.472	0.1855
262.6863	0.1913
262.9005	0.1854
263.1148	0.1803
263.3291	0.1933
263.5433	0.177
263.7576	0.203
263.9718	0.176
264.186	0.1908
264.4002	0.1987
264.6144	0.187
264.8286	0.1987
265.0427	0.1862
265.2569	0.206
265.471	0.1947
265.6851	0.1765
265.8993	0.1866
266.1134	0.1856
266.3275	0.1779
266.5415	0.1894
266.7556	0.1907
266.9697	0.1946
267.1837	0.2066
267.3978	0.2041
267.6118	0.1861
267.8258	0.2038
268.0398	0.2005
268.2538	0.2021
268.4677	0.1873
268.6817	0.1843
268.8957	0.1922
269.1096	0.1746
269.3235	0.1817
269.5374	0.1804
269.7514	0.1901
269.9652	0.1778
270.1791	0.1794
270.393	0.1722
270.6068	0.1925
270.8207	0.1919
271.0345	0.1686
271.2483	0.1765
271.4622	0.1915
271.676	0.1812
271.8897	0.1815
272.1035	0.1783
272.3173	0.1836
272.531	0.173
272.7448	0.1732
272.9585	0.166
273.1722	0.1803
273.3859	0.1889
273.5996	0.1841
273.8133	0.1774
274.0269	0.184
274.2406	0.1785
274.4542	0.1819
274.6679	0.1815
274.8815	0.1881
275.0951	0.1948
275.3087	0.1843
275.5223	0.1811
275.7358	0.1855
275.9494	0.1801
276.1629	0.1811
276.3765	0.1754
276.59	0.1872
276.8035	0.177
277.017	0.1741
277.2305	0.191
277.444	0.1697
277.6574	0.1825
277.8709	0.1737
278.0843	0.1917
278.2978	0.1945
278.5112	0.1894
278.7246	0.1908
278.938	0.1821
279.1513	0.1938
279.3647	0.179
279.5781	0.1799
279.7914	0.1879
280.0047	0.1858
280.2181	0.1786
280.4314	0.1863
280.6447	0.1819
280.8579	0.1907
281.0712	0.1894
281.2845	0.1887
281.4977	0.1811
281.711	0.1893
281.9242	0.1921
282.1374	0.1802
282.3506	0.1914
282.5638	0.1927
282.7769	0.1777
282.9901	0.1947
283.2033	0.1833
283.4164	0.1741
283.6295	0.1801
283.8426	0.1807
284.0557	0.1884
284.2688	0.1904
284.4819	0.1835
284.695	0.1836
284.908	0.1785
285.1211	0.1961
285.3341	0.1849
285.5471	0.1896
285.7601	0.1854
285.9731	0.1902
286.1861	0.1912
286.3991	0.189
286.612	0.1892
286.825	0.1905
287.0379	0.1883
287.2508	0.1784
287.4637	0.1934
287.6766	0.1806
287.8895	0.1755
288.1024	0.1807
288.3152	0.1772
288.5281	0.1777
288.7409	0.1777
288.9538	0.1753
289.1666	0.1794
289.3794	0.183
289.5922	0.1791
289.8049	0.1564
290.0177	0.1863
290.2304	0.1837
290.4432	0.1686
290.6559	0.192
290.8686	0.1687
291.0813	0.1779
291.294	0.1892
291.5067	0.1852
291.7194	0.169
291.932	0.1826
292.1447	0.1966
292.3573	0.1839
292.5699	0.1831
292.7825	0.1691
292.9951	0.19
293.2077	0.1771
293.4203	0.1798
293.6328	0.1809
293.8454	0.169
294.0579	0.1826
294.2704	0.1762
294.4829	0.1888
294.6954	0.1833
294.9079	0.1774
295.1204	0.1795
295.3328	0.1718
295.5453	0.1645
295.7577	0.1664
295.9701	0.1703
296.1825	0.1659
296.3949	0.1629
296.6073	0.1733
296.8197	0.1708
297.0321	0.1672
297.2444	0.1684
297.4567	0.1704
297.6691	0.1689
297.8814	0.1687
298.0937	0.1716
298.306	0.1775
298.5182	0.1699
298.7305	0.1778
298.9428	0.1702
299.155	0.1694
299.3672	0.1648
299.5794	0.1777
299.7916	0.1699
300.0038	0.1748
300.216	0.1611
300.4282	0.165
300.6403	0.1795
300.8525	0.1735
301.0646	0.18
301.2767	0.178
301.4888	0.1728
301.7009	0.1722
301.913	0.1719
302.125	0.1673
302.3371	0.1679
302.5491	0.1719
302.7612	0.1695
302.9732	0.1658
303.1852	0.1759
303.3972	0.1761
303.6092	0.1727
303.8211	0.1675
304.0331	0.1582
304.245	0.1596
304.457	0.1566
304.6689	0.1622
304.8808	0.1534
305.0927	0.1629
305.3046	0.1662
305.5164	0.1585
305.7283	0.1636
305.9401	0.1516
306.152	0.156
306.3638	0.1522
306.5756	0.1543
306.7874	0.1473
306.9992	0.1481
307.2109	0.1488
307.4227	0.1491
307.6344	0.152
307.8462	0.1341
308.0579	0.1433
308.2696	0.1564
308.4813	0.136
308.693	0.1392
308.9046	0.139
309.1163	0.1297
309.328	0.1357
309.5396	0.1372
309.7512	0.1207
309.9628	0.1247
310.1744	0.1268
310.386	0.1174
310.5976	0.1262
310.8091	0.1215
311.0207	0.1348
311.2322	0.1196
311.4437	0.1174
311.6552	0.121
311.8667	0.1226
312.0782	0.1144
312.2897	0.1064
312.5012	0.1289
312.7126	0.1238
312.924	0.1111
313.1355	0.1348
313.3469	0.1191
313.5583	0.1175
313.7696	0.1204
313.981	0.1292
314.1924	0.1187
314.4037	0.1029
314.6151	0.113
314.8264	0.1138
315.0377	0.1069
315.249	0.1151
315.4603	0.1056
315.6716	0.1191
315.8828	0.1137
316.0941	0.0965
316.3053	0.0981
316.5165	0.1079
316.7277	0.108
316.9389	0.1158
317.1501	0.1083
317.3613	0.0998
317.5724	0.1104
317.7836	0.1071
317.9947	0.11
318.2058	0.12
318.417	0.109
318.6281	0.1076
318.8391	0.1093
319.0502	0.104
319.2613	0.1181
319.4723	0.1057
319.6834	0.1131
319.8944	0.0965
320.1054	0.1227
320.3164	0.116
320.5274	0.0958
320.7383	0.1103
320.9493	0.1033
321.1602	0.1244
321.3712	0.108
321.5821	0.1128
321.793	0.1066
322.0039	0.106
322.2148	0.1062
322.4257	0.0995
322.6365	0.1082
322.8474	0.0984
323.0582	0.1215
323.269	0.1069
323.4798	0.1138
323.6906	0.1062
323.9014	0.1182
324.1122	0.1141
324.3229	0.1088
324.5337	0.1193
324.7444	0.1144
324.9551	0.1148
325.1658	0.1166
325.3765	0.1179
325.5872	0.114
325.7979	0.1098
326.0085	0.1104
326.2192	0.096
326.4298	0.1186
326.6404	0.1216
326.851	0.1116
327.0616	0.1154
327.2722	0.1174
327.4828	0.1222
327.6933	0.111
327.9039	0.1054
328.1144	0.1085
328.3249	0.1073
328.5354	0.1076
328.7459	0.1068
328.9564	0.1141
329.1669	0.1216
329.3773	0.1058
329.5878	0.1163
329.7982	0.1091
330.0086	0.111
330.219	0.1143
330.4294	0.1049
330.6398	0.1146
330.8502	0.1203
331.0605	0.1107
331.2708	0.1062
331.4812	0.1192
331.6915	0.1138
331.9018	0.1217
332.1121	0.1127
332.3224	0.1101
332.5326	0.1061
332.7429	0.1009
332.9531	0.1139
333.1633	0.1111
333.3735	0.1083
333.5837	0.1194
333.7939	0.1118
334.0041	0.1206
334.2143	0.1219
334.4244	0.1276
334.6346	0.097
334.8447	0.1177
335.0548	0.1214
335.2649	0.1228
335.475	0.1239
335.685	0.1047
335.8951	0.1257
336.1051	0.123
336.3152	0.1303
336.5252	0.1228
336.7352	0.1216
336.9452	0.1193
337.1552	0.119
337.3652	0.1177
337.5751	0.1357
337.7851	0.1059
337.995	0.1252
338.2049	0.1119
338.4148	0.1237
338.6247	0.1103
338.8346	0.1192
339.0445	0.1174
339.2543	0.1319
339.4642	0.1234
339.674	0.128
339.8838	0.1254
340.0936	0.1309
340.3034	0.13
340.5132	0.138
340.7229	0.1375
340.9327	0.1257
341.1424	0.1192
341.3522	0.1148
341.5619	0.1143
341.7716	0.1292
341.9813	0.1332
342.1909	0.1264
342.4006	0.1342
342.6102	0.1226
342.8199	0.132
343.0295	0.1374
343.2391	0.1311
343.4487	0.13
343.6583	0.1274
343.8679	0.1371
344.0774	0.1412
344.287	0.1276
344.4965	0.1381
344.706	0.1333
344.9155	0.1206
345.125	0.128
345.3345	0.1333
345.544	0.1482
345.7534	0.1537
345.9629	0.1351
346.1723	0.1392
346.3817	0.1589
346.5911	0.1332
346.8005	0.1325
347.0099	0.138
347.2193	0.126
347.4286	0.135
347.638	0.1417
347.8473	0.1402
348.0566	0.1339
348.2659	0.1508
348.4752	0.1489
348.6845	0.1412
348.8937	0.1448
349.103	0.1359
349.3122	0.1394
349.5214	0.1358
349.7306	0.1467
349.9398	0.1462
350.149	0.1349
350.3582	0.1442
350.5674	0.1533
350.7765	0.1392
350.9856	0.1354
351.1948	0.153
351.4039	0.1559
351.613	0.1469
351.822	0.1454
352.0311	0.1497
352.2402	0.1477
352.4492	0.1485
352.6582	0.1546
352.8672	0.1521
353.0762	0.1465
353.2852	0.1423
353.4942	0.1456
353.7032	0.1608
353.9121	0.1503
354.1211	0.1382
354.33	0.1529
354.5389	0.152
354.7478	0.1616
354.9567	0.1542
355.1655	0.1563
355.3744	0.1509
355.5833	0.1597
355.7921	0.1693
356.0009	0.1551
356.2097	0.1442
356.4185	0.148
356.6273	0.163
356.8361	0.157
357.0448	0.1492
357.2536	0.1582
357.4623	0.162
357.671	0.1654
357.8797	0.1552
358.0884	0.1772
358.2971	0.1633
358.5057	0.1802
358.7144	0.1678
358.923	0.1717
359.1316	0.17
359.3402	0.1805
359.5488	0.1632
359.7574	0.1782
359.966	0.1561
360.1746	0.1599
360.3831	0.1589
360.5916	0.1782
360.8002	0.1909
361.0087	0.1938
361.2172	0.1653
361.4256	0.1786
361.6341	0.1901
361.8426	0.1916
362.051	0.1756
362.2594	0.1744
362.4678	0.1835
362.6762	0.173
362.8846	0.185
363.093	0.1666
363.3014	0.1766
363.5097	0.2001
363.718	0.1977
363.9264	0.1934
364.1347	0.1689
364.343	0.1854
364.5513	0.1763
364.7595	0.1915
364.9678	0.177
365.176	0.1929
365.3842	0.1804
365.5925	0.1681
365.8007	0.1811
366.0089	0.1903
366.217	0.1844
366.4252	0.1887
366.6333	0.2017
366.8415	0.1983
367.0496	0.1924
367.2577	0.205
367.4658	0.194
367.6739	0.2098
367.882	0.2008
368.09	0.2123
368.2981	0.1873
368.5061	0.1989
368.7141	0.197
368.9221	0.1929
369.1301	0.2012
369.3381	0.2046
369.5461	0.2099
369.754	0.1896
369.962	0.1947
370.1699	0.2048
370.3778	0.1989
370.5857	0.2191
370.7936	0.212
371.0015	0.2009
371.2093	0.2104
371.4172	0.2053
371.625	0.2005
371.8328	0.2222
372.0406	0.191
372.2484	0.194
372.4562	0.2185
372.664	0.2029
372.8717	0.1919
373.0795	0.2241
373.2872	0.2025
373.4949	0.2133
373.7026	0.2047
373.9103	0.215
374.118	0.1959
374.3256	0.2151
374.5333	0.213
374.7409	0.1945
374.9485	0.2181
375.1561	0.2346
375.3637	0.1984
375.5713	0.2241
375.7789	0.2142
375.9864	0.2169
376.194	0.2157
376.4015	0.2208
376.609	0.206
376.8165	0.2114
377.024	0.2154
377.2315	0.2046
377.4389	0.2166
377.6464	0.2122
377.8538	0.219
378.0612	0.2164
378.2686	0.2232
378.476	0.2055
378.6834	0.221
378.8908	0.2076
379.0981	0.2204
379.3055	0.2208
379.5128	0.2473
379.7201	0.2256
379.9274	0.2086
380.1347	0.2163
380.342	0.2381
380.5492	0.2282
380.7565	0.2345
380.9637	0.2214
381.1709	0.2155
381.3781	0.2278
381.5853	0.2367
381.7925	0.2243
381.9997	0.2187
382.2068	0.2238
382.4139	0.2245
382.6211	0.2363
382.8282	0.231
383.0353	0.2312
383.2424	0.2258
383.4494	0.2149
383.6565	0.2337
383.8635	0.2363
384.0706	0.2464
384.2776	0.2492
384.4846	0.2239
384.6916	0.2507
384.8986	0.2333
385.1055	0.2388
385.3125	0.225
385.5194	0.2293
385.7263	0.2328
385.9333	0.2283
386.1402	0.2239
386.347	0.2541
386.5539	0.2148
386.7608	0.2246
386.9676	0.2194
387.1744	0.2465
387.3813	0.2311
387.5881	0.2124
387.7948	0.2235
388.0016	0.2177
388.2084	0.235
388.4151	0.2202
388.6219	0.2289
388.8286	0.2164
389.0353	0.2171
389.242	0.2242
389.4487	0.2197
389.6553	0.2132
389.862	0.2227
390.0686	0.2233
390.2753	0.2335
390.4819	0.2186
390.6885	0.2252
390.8951	0.2232
391.1016	0.2157
391.3082	0.2281
391.5147	0.2016
391.7213	0.2078
391.9278	0.2135
392.1343	0.2001
392.3408	0.2106
392.5473	0.1994
392.7537	0.2151
392.9602	0.2154
393.1666	0.1992
393.373	0.1861
393.5794	0.2066
393.7858	0.2066
393.9922	0.2187
394.1986	0.2072
394.4049	0.2008
394.6113	0.1964
394.8176	0.1962
395.0239	0.2054
395.2302	0.1878
395.4365	0.202
395.6428	0.2195
395.8491	0.1719
396.0553	0.2047
396.2615	0.1876
396.4678	0.1986
396.674	0.1888
396.8802	0.1914
397.0863	0.191
397.2925	0.1682
397.4987	0.2057
397.7048	0.1984
397.9109	0.1953
398.117	0.1825
398.3231	0.1991
398.5292	0.1964
398.7353	0.1889
398.9413	0.177
399.1474	0.1932
399.3534	0.1802
399.5594	0.201
399.7654	0.1957
399.9714	0.1715
400.1774	0.1909
400.3833	0.1918
400.5893	0.1748
400.7952	0.1998
401.0011	0.2062
401.207	0.1789
401.4129	0.1771
401.6188	0.1863
401.8247	0.1829
402.0305	0.1801
402.2364	0.1917
402.4422	0.1934
402.648	0.1855
402.8538	0.1894
403.0596	0.1775
403.2654	0.1922
403.4711	0.182
403.6768	0.1725
403.8826	0.172
404.0883	0.1796
404.294	0.188
404.4997	0.1716
404.7054	0.1867
404.911	0.1694
405.1167	0.1805
405.3223	0.1858
405.5279	0.1988
405.7335	0.1913
405.9391	0.1783
406.1447	0.1867
406.3502	0.1983
406.5558	0.2023
406.7613	0.1942
406.9668	0.1708
407.1724	0.1898
407.3778	0.2104
407.5833	0.1863
407.7888	0.1887
407.9942	0.1948
408.1997	0.1856
408.4051	0.1768
408.6105	0.1787
408.8159	0.1757
409.0213	0.1821
409.2267	0.1759
409.432	0.2055
409.6374	0.1887
409.8427	0.1804
410.048	0.1801
410.2533	0.1922
410.4586	0.1633
410.6639	0.1944
410.8691	0.1742
411.0744	0.1803
411.2796	0.1645
411.4848	0.1913
411.69	0.1733
411.8952	0.1811
412.1004	0.1703
412.3056	0.1704
412.5107	0.1516
412.7158	0.1729
412.921	0.1872
413.1261	0.1721
413.3312	0.1731
413.5362	0.1867
413.7413	0.1668
413.9464	0.1991
414.1514	0.1682
414.3564	0.1697
414.5614	0.1551
414.7664	0.1774
414.9714	0.1766
415.1764	0.1758
415.3813	0.1686
415.5863	0.1658
415.7912	0.1842
415.9961	0.1805
416.201	0.1819
416.4059	0.1877
416.6108	0.1729
416.8156	0.1746
417.0205	0.1865
417.2253	0.1767
417.4301	0.1807
417.6349	0.1754
417.8397	0.1853
418.0445	0.157
418.2492	0.1652
418.454	0.1543
418.6587	0.1744
418.8634	0.1814
419.0681	0.1865
419.2728	0.1673
419.4775	0.1832
419.6822	0.1729
419.8868	0.1757
420.0915	0.1532
420.2961	0.1614
420.5007	0.1624
420.7053	0.176
420.9099	0.1569
421.1144	0.1746
421.319	0.154
421.5235	0.1831
421.728	0.1577
421.9325	0.1664
422.137	0.1685
422.3415	0.1739
422.546	0.1534
422.7504	0.1687
422.9549	0.1774
423.1593	0.1541
423.3637	0.1712
423.5681	0.1432
423.7725	0.1704
423.9769	0.1524
424.1812	0.1641
424.3856	0.1758
424.5899	0.1607
424.7942	0.1729
424.9985	0.1571
425.2028	0.1402
425.4071	0.1547
425.6113	0.1515
425.8156	0.1601
426.0198	0.1622
426.224	0.1635
426.4282	0.1341
426.6324	0.1636
426.8366	0.1517
