Data from MonoPyChalIsomerACN10uM400nmA_Absorbance_12-08-45-828.txt Node
Date: Fri Jul 05 12:08:45 BST 2024
User: LASERRRRR
Spectrometer: FLMT03099
Trigger mode: 0
Integration Time (sec): 1.000000E-1
Scans to average: 1
Electric dark correction enabled: true
Nonlinearity correction enabled: false
Boxcar width: 0
XAxis mode: Wavelengths
Number of Pixels in Spectrum: 3648
>>>>>Begin Spectral Data<<<<<
179.3399	0.0186
179.5586	0.0186
179.7771	0.0186
179.9957	0.7284
180.2143	0.1122
180.4329	-0
180.6514	-0
180.8699	-0.3698
181.0885	-0.0228
181.307	0.1036
181.5255	-0.8743
181.744	-0
181.9625	-0.7374
182.181	-0.0504
182.3994	-0.448
182.6179	0.635
182.8363	0.1816
183.0547	0.4731
183.2732	0.1497
183.4916	0.2155
183.71	0.1882
183.9284	0.1433
184.1467	-0.0235
184.3651	-0.1356
184.5835	0.1205
184.8018	-0.031
185.0201	0.2087
185.2385	0.1296
185.4568	0.4554
185.6751	0.0614
185.8934	0.1456
186.1117	0.1948
186.3299	0.0004
186.5482	0.2995
186.7664	0.1755
186.9847	0.1906
187.2029	0.1532
187.4211	-0.1582
187.6393	-0.0915
187.8575	0.211
188.0757	0.1083
188.2939	0.3348
188.512	-0.0244
188.7302	0.1778
188.9483	0.0144
189.1665	0.1289
189.3846	-0.0179
189.6027	0.2627
189.8208	0.27
190.0389	0.6505
190.257	0.1237
190.475	0.1146
190.6931	0.1743
190.9111	0.3762
191.1292	0.386
191.3472	0.3108
191.5652	0.3263
191.7832	0.5436
192.0012	0.3651
192.2192	0.3585
192.4371	0.5313
192.6551	0.2771
192.873	0.4467
193.091	0.4233
193.3089	0.4721
193.5268	0.6945
193.7447	0.5715
193.9626	0.6379
194.1805	0.6758
194.3984	0.459
194.6162	0.6517
194.8341	0.5534
195.0519	0.812
195.2697	0.4993
195.4875	1.3457
195.7054	0.6142
195.9231	0.7616
196.1409	0.7311
196.3587	0.5865
196.5765	0.7915
196.7942	0.8893
197.012	0.9924
197.2297	0.7314
197.4474	0.9123
197.6651	0.773
197.8828	0.7465
198.1005	0.6494
198.3182	0.9372
198.5358	0.8338
198.7535	0.7614
198.9711	0.7855
199.1888	0.6264
199.4064	1.1222
199.624	0.6918
199.8416	0.6948
200.0592	0.9019
200.2767	0.7457
200.4943	0.7685
200.7119	0.8662
200.9294	0.6608
201.1469	0.89
201.3645	0.7421
201.582	0.7462
201.7995	0.8505
202.017	0.948
202.2344	0.589
202.4519	0.7905
202.6694	1.1366
202.8868	0.6924
203.1042	0.6445
203.3217	0.7304
203.5391	1.0591
203.7565	0.7362
203.9739	0.9193
204.1913	0.9952
204.4086	0.7674
204.626	0.755
204.8433	1.2315
205.0607	0.9019
205.278	0.8952
205.4953	0.8711
205.7126	0.7016
205.9299	0.9454
206.1472	0.7575
206.3644	0.6891
206.5817	0.7974
206.7989	0.7117
207.0162	0.8237
207.2334	0.7069
207.4506	0.7427
207.6678	0.8235
207.885	0.7521
208.1022	0.8273
208.3194	0.7599
208.5365	0.7872
208.7537	0.7871
208.9708	0.8081
209.1879	0.8138
209.405	0.7343
209.6222	0.7917
209.8392	0.726
210.0563	0.7851
210.2734	0.8137
210.4905	0.9658
210.7075	0.8239
210.9245	0.7576
211.1416	0.8247
211.3586	0.8936
211.5756	0.7917
211.7926	0.754
212.0096	0.7261
212.2265	0.7466
212.4435	0.7581
212.6604	0.7963
212.8774	0.7383
213.0943	0.7445
213.3112	0.7446
213.5281	0.6566
213.745	0.7698
213.9619	0.6973
214.1788	0.6944
214.3956	0.6858
214.6125	0.6644
214.8293	0.7265
215.0461	0.6468
215.2629	0.6693
215.4798	0.6691
215.6965	0.7176
215.9133	0.6848
216.1301	0.6266
216.3469	0.6445
216.5636	0.6677
216.7803	0.6391
216.9971	0.571
217.2138	0.6101
217.4305	0.5879
217.6472	0.6354
217.8639	0.6072
218.0805	0.6305
218.2972	0.6068
218.5138	0.6129
218.7305	0.5798
218.9471	0.6024
219.1637	0.5926
219.3803	0.5635
219.5969	0.6166
219.8135	0.5522
220.0301	0.5389
220.2466	0.5787
220.4632	0.5293
220.6797	0.5562
220.8962	0.5729
221.1127	0.5735
221.3292	0.5696
221.5457	0.5932
221.7622	0.5418
221.9787	0.5293
222.1951	0.5613
222.4116	0.5825
222.628	0.5503
222.8444	0.5518
223.0608	0.5544
223.2772	0.5597
223.4936	0.5865
223.71	0.63
223.9264	0.528
224.1427	0.5555
224.3591	0.5609
224.5754	0.565
224.7917	0.53
225.008	0.5984
225.2243	0.5352
225.4406	0.5523
225.6569	0.5444
225.8732	0.5752
226.0894	0.5529
226.3057	0.5512
226.5219	0.5841
226.7381	0.5943
226.9543	0.5633
227.1705	0.5905
227.3867	0.5688
227.6029	0.5605
227.8191	0.5571
228.0352	0.5977
228.2513	0.5375
228.4675	0.6439
228.6836	0.5969
228.8997	0.5799
229.1158	0.5538
229.3319	0.6047
229.548	0.6175
229.764	0.6034
229.9801	0.5862
230.1961	0.5853
230.4121	0.5733
230.6282	0.5706
230.8442	0.592
231.0602	0.5486
231.2761	0.5692
231.4921	0.5856
231.7081	0.5886
231.924	0.6029
232.14	0.5742
232.3559	0.5784
232.5718	0.5951
232.7877	0.5677
233.0036	0.5852
233.2195	0.5582
233.4353	0.598
233.6512	0.569
233.867	0.5912
234.0829	0.5456
234.2987	0.6061
234.5145	0.5738
234.7303	0.596
234.9461	0.5843
235.1619	0.5755
235.3776	0.584
235.5934	0.552
235.8091	0.5365
236.0249	0.5354
236.2406	0.5673
236.4563	0.561
236.672	0.5721
236.8877	0.5335
237.1034	0.5505
237.319	0.5477
237.5347	0.5689
237.7503	0.5509
237.966	0.5588
238.1816	0.5861
238.3972	0.5859
238.6128	0.529
238.8284	0.5138
239.0439	0.5474
239.2595	0.5408
239.475	0.5545
239.6906	0.5031
239.9061	0.5119
240.1216	0.5469
240.3371	0.5491
240.5526	0.5145
240.7681	0.5486
240.9836	0.5403
241.199	0.4982
241.4145	0.5062
241.6299	0.4857
241.8453	0.5037
242.0607	0.4905
242.2761	0.4856
242.4915	0.4623
242.7069	0.4526
242.9223	0.4676
243.1376	0.4502
243.353	0.4712
243.5683	0.444
243.7836	0.4316
243.9989	0.4328
244.2142	0.4381
244.4295	0.3916
244.6448	0.4005
244.86	0.3996
245.0753	0.38
245.2905	0.3847
245.5057	0.3795
245.721	0.3758
245.9362	0.3575
246.1514	0.3462
246.3665	0.3394
246.5817	0.3522
246.7969	0.3365
247.012	0.3406
247.2271	0.3391
247.4423	0.3052
247.6574	0.3002
247.8725	0.3137
248.0876	0.3027
248.3026	0.2984
248.5177	0.2918
248.7328	0.295
248.9478	0.2761
249.1628	0.2658
249.3779	0.2687
249.5929	0.267
249.8079	0.2666
250.0228	0.2557
250.2378	0.2566
250.4528	0.2601
250.6677	0.248
250.8827	0.2418
251.0976	0.2587
251.3125	0.2417
251.5274	0.2545
251.7423	0.2397
251.9572	0.23
252.172	0.2242
252.3869	0.2288
252.6017	0.2208
252.8166	0.2084
253.0314	0.2117
253.2462	0.2159
253.461	0.2178
253.6758	0.2142
253.8906	0.2251
254.1053	0.2027
254.3201	0.2195
254.5348	0.2053
254.7496	0.2009
254.9643	0.1935
255.179	0.2077
255.3937	0.2005
255.6083	0.209
255.823	0.1956
256.0377	0.1966
256.2523	0.1859
256.467	0.2023
256.6816	0.1898
256.8962	0.1973
257.1108	0.2017
257.3254	0.1981
257.54	0.1832
257.7545	0.1893
257.9691	0.2093
258.1836	0.1921
258.3981	0.1875
258.6127	0.2053
258.8272	0.2015
259.0417	0.1853
259.2561	0.1899
259.4706	0.1946
259.6851	0.1892
259.8995	0.1842
260.114	0.1824
260.3284	0.189
260.5428	0.1844
260.7572	0.2011
260.9716	0.1918
261.186	0.1981
261.4003	0.1952
261.6147	0.2001
261.829	0.1881
262.0433	0.182
262.2577	0.1842
262.472	0.1869
262.6863	0.2067
262.9005	0.1961
263.1148	0.1876
263.3291	0.1986
263.5433	0.1782
263.7576	0.2013
263.9718	0.182
264.186	0.1938
264.4002	0.1975
264.6144	0.1976
264.8286	0.1956
265.0427	0.1845
265.2569	0.1915
265.471	0.1987
265.6851	0.1795
265.8993	0.1995
266.1134	0.1835
266.3275	0.1926
266.5415	0.1825
266.7556	0.1957
266.9697	0.1946
267.1837	0.2091
267.3978	0.1973
267.6118	0.1947
267.8258	0.2015
268.0398	0.1873
268.2538	0.197
268.4677	0.1937
268.6817	0.1906
268.8957	0.1898
269.1096	0.184
269.3235	0.1943
269.5374	0.1924
269.7514	0.1721
269.9652	0.1976
270.1791	0.1837
270.393	0.1718
270.6068	0.1906
270.8207	0.1961
271.0345	0.1765
271.2483	0.1852
271.4622	0.1876
271.676	0.1787
271.8897	0.1841
272.1035	0.1841
272.3173	0.1878
272.531	0.176
272.7448	0.1849
272.9585	0.1804
273.1722	0.1835
273.3859	0.1913
273.5996	0.1771
273.8133	0.1888
274.0269	0.1807
274.2406	0.1865
274.4542	0.1699
274.6679	0.1767
274.8815	0.1827
275.0951	0.189
275.3087	0.1881
275.5223	0.1806
275.7358	0.1864
275.9494	0.1824
276.1629	0.1798
276.3765	0.1927
276.59	0.1856
276.8035	0.1852
277.017	0.1733
277.2305	0.1902
277.444	0.1784
277.6574	0.1969
277.8709	0.1799
278.0843	0.1892
278.2978	0.1891
278.5112	0.1984
278.7246	0.1893
278.938	0.18
279.1513	0.1884
279.3647	0.1873
279.5781	0.1873
279.7914	0.1882
280.0047	0.1983
280.2181	0.1903
280.4314	0.1797
280.6447	0.1918
280.8579	0.1992
281.0712	0.2009
281.2845	0.1816
281.4977	0.1913
281.711	0.1938
281.9242	0.1896
282.1374	0.1793
282.3506	0.1952
282.5638	0.1985
282.7769	0.1927
282.9901	0.1902
283.2033	0.1818
283.4164	0.1807
283.6295	0.1837
283.8426	0.1846
284.0557	0.1927
284.2688	0.19
284.4819	0.1834
284.695	0.1905
284.908	0.1971
285.1211	0.2055
285.3341	0.1886
285.5471	0.1952
285.7601	0.2007
285.9731	0.1936
286.1861	0.1886
286.3991	0.186
286.612	0.1886
286.825	0.1886
287.0379	0.187
287.2508	0.1867
287.4637	0.1945
287.6766	0.1828
287.8895	0.1736
288.1024	0.1878
288.3152	0.1862
288.5281	0.1783
288.7409	0.1747
288.9538	0.1833
289.1666	0.1864
289.3794	0.1796
289.5922	0.1727
289.8049	0.1818
290.0177	0.1884
290.2304	0.1803
290.4432	0.1719
290.6559	0.1906
290.8686	0.18
291.0813	0.169
291.294	0.1819
291.5067	0.1824
291.7194	0.1738
291.932	0.1828
292.1447	0.1808
292.3573	0.1892
292.5699	0.182
292.7825	0.1726
292.9951	0.1929
293.2077	0.193
293.4203	0.1826
293.6328	0.1795
293.8454	0.1656
294.0579	0.1828
294.2704	0.1677
294.4829	0.1719
294.6954	0.1773
294.9079	0.166
295.1204	0.1818
295.3328	0.1655
295.5453	0.1662
295.7577	0.168
295.9701	0.1697
296.1825	0.1581
296.3949	0.1767
296.6073	0.1681
296.8197	0.1835
297.0321	0.1658
297.2444	0.1664
297.4567	0.1688
297.6691	0.1694
297.8814	0.162
298.0937	0.1613
298.306	0.1712
298.5182	0.175
298.7305	0.1681
298.9428	0.1688
299.155	0.1732
299.3672	0.1652
299.5794	0.1708
299.7916	0.1553
300.0038	0.1568
300.216	0.17
300.4282	0.1608
300.6403	0.1898
300.8525	0.1761
301.0646	0.1688
301.2767	0.1657
301.4888	0.1666
301.7009	0.1733
301.913	0.1756
302.125	0.1611
302.3371	0.1757
302.5491	0.1664
302.7612	0.1707
302.9732	0.1708
303.1852	0.1513
303.3972	0.166
303.6092	0.1577
303.8211	0.1629
304.0331	0.1527
304.245	0.1667
304.457	0.1586
304.6689	0.1603
304.8808	0.152
305.0927	0.1548
305.3046	0.1495
305.5164	0.1669
305.7283	0.1593
305.9401	0.1494
306.152	0.1456
306.3638	0.1616
306.5756	0.1438
306.7874	0.1626
306.9992	0.1482
307.2109	0.1476
307.4227	0.1454
307.6344	0.1494
307.8462	0.1245
308.0579	0.1449
308.2696	0.1511
308.4813	0.1358
308.693	0.1461
308.9046	0.1353
309.1163	0.137
309.328	0.142
309.5396	0.1368
309.7512	0.1203
309.9628	0.1316
310.1744	0.1372
310.386	0.126
310.5976	0.1275
310.8091	0.1244
311.0207	0.1247
311.2322	0.1145
311.4437	0.1313
311.6552	0.126
311.8667	0.1227
312.0782	0.127
312.2897	0.1116
312.5012	0.1199
312.7126	0.1246
312.924	0.1103
313.1355	0.1347
313.3469	0.1085
313.5583	0.1241
313.7696	0.1064
313.981	0.1192
314.1924	0.1199
314.4037	0.1237
314.6151	0.1184
314.8264	0.1126
315.0377	0.1083
315.249	0.1094
315.4603	0.1198
315.6716	0.1103
315.8828	0.1114
316.0941	0.1111
316.3053	0.1014
316.5165	0.1222
316.7277	0.1053
316.9389	0.1221
317.1501	0.1011
317.3613	0.0993
317.5724	0.1123
317.7836	0.1072
317.9947	0.1248
318.2058	0.1166
318.417	0.1168
318.6281	0.1179
318.8391	0.1051
319.0502	0.1106
319.2613	0.1122
319.4723	0.1138
319.6834	0.1097
319.8944	0.1095
320.1054	0.1144
320.3164	0.119
320.5274	0.1038
320.7383	0.1086
320.9493	0.112
321.1602	0.1233
321.3712	0.1088
321.5821	0.114
321.793	0.1109
322.0039	0.1182
322.2148	0.1102
322.4257	0.1149
322.6365	0.1159
322.8474	0.0961
323.0582	0.1307
323.269	0.1082
323.4798	0.1238
323.6906	0.0985
323.9014	0.1269
324.1122	0.1078
324.3229	0.1252
324.5337	0.1178
324.7444	0.1274
324.9551	0.1225
325.1658	0.1125
325.3765	0.1125
325.5872	0.1225
325.7979	0.1187
326.0085	0.1085
326.2192	0.098
326.4298	0.111
326.6404	0.1152
326.851	0.1181
327.0616	0.1086
327.2722	0.1266
327.4828	0.1308
327.6933	0.1299
327.9039	0.1166
328.1144	0.1062
328.3249	0.1061
328.5354	0.1141
328.7459	0.1307
328.9564	0.1175
329.1669	0.1215
329.3773	0.1223
329.5878	0.1233
329.7982	0.1064
330.0086	0.108
330.219	0.1218
330.4294	0.1212
330.6398	0.1154
330.8502	0.1253
331.0605	0.1221
331.2708	0.1185
331.4812	0.1218
331.6915	0.119
331.9018	0.1296
332.1121	0.1271
332.3224	0.1213
332.5326	0.1207
332.7429	0.1077
332.9531	0.1202
333.1633	0.1295
333.3735	0.1086
333.5837	0.1197
333.7939	0.1158
334.0041	0.1254
334.2143	0.1277
334.4244	0.1237
334.6346	0.1004
334.8447	0.1082
335.0548	0.126
335.2649	0.1291
335.475	0.1119
335.685	0.1166
335.8951	0.1227
336.1051	0.1204
336.3152	0.1239
336.5252	0.1269
336.7352	0.1365
336.9452	0.1282
337.1552	0.1289
337.3652	0.1211
337.5751	0.12
337.7851	0.1102
337.995	0.1214
338.2049	0.1256
338.4148	0.133
338.6247	0.1211
338.8346	0.1287
339.0445	0.1266
339.2543	0.1357
339.4642	0.1325
339.674	0.1166
339.8838	0.1402
340.0936	0.1387
340.3034	0.135
340.5132	0.1279
340.7229	0.1377
340.9327	0.1282
341.1424	0.1243
341.3522	0.1278
341.5619	0.1184
341.7716	0.1427
341.9813	0.1389
342.1909	0.1223
342.4006	0.1408
342.6102	0.1307
342.8199	0.1161
343.0295	0.1285
343.2391	0.1299
343.4487	0.1384
343.6583	0.1269
343.8679	0.1471
344.0774	0.1309
344.287	0.1396
344.4965	0.1428
344.706	0.1496
344.9155	0.1295
345.125	0.1204
345.3345	0.1428
345.544	0.1406
345.7534	0.13
345.9629	0.133
346.1723	0.1307
346.3817	0.129
346.5911	0.1375
346.8005	0.1361
347.0099	0.143
347.2193	0.1404
347.4286	0.1406
347.638	0.1388
347.8473	0.1354
348.0566	0.1343
348.2659	0.1556
348.4752	0.1368
348.6845	0.1407
348.8937	0.1362
349.103	0.1462
349.3122	0.1453
349.5214	0.1511
349.7306	0.1358
349.9398	0.1507
350.149	0.1393
350.3582	0.1447
350.5674	0.1476
350.7765	0.1373
350.9856	0.137
351.1948	0.1497
351.4039	0.1604
351.613	0.1515
351.822	0.142
352.0311	0.1401
352.2402	0.1458
352.4492	0.1566
352.6582	0.155
352.8672	0.1497
353.0762	0.1449
353.2852	0.1465
353.4942	0.1469
353.7032	0.1616
353.9121	0.1536
354.1211	0.1549
354.33	0.1599
354.5389	0.1567
354.7478	0.1601
354.9567	0.1676
355.1655	0.1614
355.3744	0.151
355.5833	0.1632
355.7921	0.1624
356.0009	0.167
356.2097	0.141
356.4185	0.144
356.6273	0.1512
356.8361	0.1604
357.0448	0.1667
357.2536	0.1628
357.4623	0.1697
357.671	0.1795
357.8797	0.1598
358.0884	0.1754
358.2971	0.1687
358.5057	0.1806
358.7144	0.1653
358.923	0.1677
359.1316	0.1615
359.3402	0.1849
359.5488	0.1621
359.7574	0.1679
359.966	0.1564
360.1746	0.178
360.3831	0.1719
360.5916	0.1966
360.8002	0.1832
361.0087	0.1743
361.2172	0.1678
361.4256	0.1863
361.6341	0.1746
361.8426	0.1856
362.051	0.1733
362.2594	0.1864
362.4678	0.1847
362.6762	0.1699
362.8846	0.1796
363.093	0.1694
363.3014	0.1821
363.5097	0.1782
363.718	0.2061
363.9264	0.1984
364.1347	0.1691
364.343	0.1827
364.5513	0.1896
364.7595	0.1656
364.9678	0.1773
365.176	0.2002
365.3842	0.1944
365.5925	0.1658
365.8007	0.1847
366.0089	0.1997
366.217	0.19
366.4252	0.1933
366.6333	0.1967
366.8415	0.1897
367.0496	0.1812
367.2577	0.2123
367.4658	0.187
367.6739	0.2002
367.882	0.2013
368.09	0.2065
368.2981	0.2057
368.5061	0.1854
368.7141	0.1972
368.9221	0.1809
369.1301	0.1904
369.3381	0.2059
369.5461	0.1958
369.754	0.205
369.962	0.1938
370.1699	0.1958
370.3778	0.1989
370.5857	0.2091
370.7936	0.2084
371.0015	0.2126
371.2093	0.2121
371.4172	0.2079
371.625	0.1972
371.8328	0.2074
372.0406	0.2015
372.2484	0.2015
372.4562	0.2263
372.664	0.2044
372.8717	0.1825
373.0795	0.2006
373.2872	0.2068
373.4949	0.2045
373.7026	0.2079
373.9103	0.2199
374.118	0.195
374.3256	0.2083
374.5333	0.2236
374.7409	0.1932
374.9485	0.2057
375.1561	0.204
375.3637	0.1997
375.5713	0.216
375.7789	0.2214
375.9864	0.2055
376.194	0.2126
376.4015	0.2137
376.609	0.2117
376.8165	0.2026
377.024	0.2048
377.2315	0.2051
377.4389	0.2256
377.6464	0.2215
377.8538	0.2117
378.0612	0.2028
378.2686	0.2298
378.476	0.2137
378.6834	0.2221
378.8908	0.2096
379.0981	0.2215
379.3055	0.2275
379.5128	0.2077
379.7201	0.233
379.9274	0.2168
380.1347	0.214
380.342	0.239
380.5492	0.2266
380.7565	0.226
380.9637	0.232
381.1709	0.2124
381.3781	0.227
381.5853	0.2283
381.7925	0.2283
381.9997	0.2007
382.2068	0.2376
382.4139	0.2303
382.6211	0.2244
382.8282	0.236
383.0353	0.22
383.2424	0.2215
383.4494	0.2082
383.6565	0.2434
383.8635	0.2327
384.0706	0.2526
384.2776	0.231
384.4846	0.2302
384.6916	0.2234
384.8986	0.2136
385.1055	0.2064
385.3125	0.2098
385.5194	0.2221
385.7263	0.2315
385.9333	0.2213
386.1402	0.233
386.347	0.2402
386.5539	0.2355
386.7608	0.2166
386.9676	0.2032
387.1744	0.2151
387.3813	0.218
387.5881	0.2283
387.7948	0.2386
388.0016	0.2246
388.2084	0.217
388.4151	0.2238
388.6219	0.2215
388.8286	0.2156
389.0353	0.2008
389.242	0.221
389.4487	0.2265
389.6553	0.2133
389.862	0.2443
390.0686	0.2187
390.2753	0.2295
390.4819	0.209
390.6885	0.2368
390.8951	0.1938
391.1016	0.2138
391.3082	0.2091
391.5147	0.2045
391.7213	0.2085
391.9278	0.2212
392.1343	0.2147
392.3408	0.1996
392.5473	0.1879
392.7537	0.2142
392.9602	0.2206
393.1666	0.1989
393.373	0.1859
393.5794	0.1845
393.7858	0.1998
393.9922	0.215
394.1986	0.1937
394.4049	0.1952
394.6113	0.1988
394.8176	0.209
395.0239	0.2053
395.2302	0.1904
395.4365	0.1855
395.6428	0.2065
395.8491	0.1709
396.0553	0.1976
396.2615	0.1996
396.4678	0.1845
396.674	0.1878
396.8802	0.1822
397.0863	0.1888
397.2925	0.1701
397.4987	0.214
397.7048	0.1893
397.9109	0.1838
398.117	0.1852
398.3231	0.1882
398.5292	0.2064
398.7353	0.1896
398.9413	0.1796
399.1474	0.1852
399.3534	0.1769
399.5594	0.1996
399.7654	0.1932
399.9714	0.194
400.1774	0.1804
400.3833	0.1885
400.5893	0.1814
400.7952	0.1813
401.0011	0.1846
401.207	0.19
401.4129	0.1867
401.6188	0.1835
401.8247	0.1788
402.0305	0.1702
402.2364	0.1832
402.4422	0.1876
402.648	0.1718
402.8538	0.1931
403.0596	0.1907
403.2654	0.1763
403.4711	0.1843
403.6768	0.1941
403.8826	0.1871
404.0883	0.1683
404.294	0.1955
404.4997	0.1709
404.7054	0.1853
404.911	0.1709
405.1167	0.1804
405.3223	0.1857
405.5279	0.1897
405.7335	0.1866
405.9391	0.1943
406.1447	0.1843
406.3502	0.1829
406.5558	0.1914
406.7613	0.1812
406.9668	0.1827
407.1724	0.1932
407.3778	0.1825
407.5833	0.1642
407.7888	0.186
407.9942	0.184
408.1997	0.1855
408.4051	0.1844
408.6105	0.154
408.8159	0.1891
409.0213	0.1791
409.2267	0.1771
409.432	0.1838
409.6374	0.1708
409.8427	0.1648
410.048	0.1743
410.2533	0.1809
410.4586	0.1538
410.6639	0.1886
410.8691	0.1596
411.0744	0.1671
411.2796	0.1772
411.4848	0.1869
411.69	0.1883
411.8952	0.1865
412.1004	0.1615
412.3056	0.1748
412.5107	0.165
412.7158	0.1723
412.921	0.1898
413.1261	0.1815
413.3312	0.1703
413.5362	0.1712
413.7413	0.185
413.9464	0.1869
414.1514	0.18
414.3564	0.1541
414.5614	0.1625
414.7664	0.1887
414.9714	0.1657
415.1764	0.1816
415.3813	0.1709
415.5863	0.1655
415.7912	0.1774
415.9961	0.1801
416.201	0.1783
416.4059	0.1651
416.6108	0.1718
416.8156	0.1792
417.0205	0.1711
417.2253	0.1822
417.4301	0.1679
417.6349	0.1596
417.8397	0.15
418.0445	0.1615
418.2492	0.168
418.454	0.157
418.6587	0.1752
418.8634	0.1768
419.0681	0.1849
419.2728	0.1467
419.4775	0.1825
419.6822	0.161
419.8868	0.1669
420.0915	0.1459
420.2961	0.1635
420.5007	0.1504
420.7053	0.1604
420.9099	0.1681
421.1144	0.183
421.319	0.1548
421.5235	0.1729
421.728	0.1513
421.9325	0.1632
422.137	0.143
422.3415	0.1534
422.546	0.1445
422.7504	0.1686
422.9549	0.1607
423.1593	0.1672
423.3637	0.1614
423.5681	0.1552
423.7725	0.1509
423.9769	0.1417
424.1812	0.1579
424.3856	0.151
424.5899	0.1696
424.7942	0.1636
424.9985	0.1581
425.2028	0.1412
425.4071	0.1396
425.6113	0.1361
425.8156	0.1479
426.0198	0.149
426.224	0.1554
426.4282	0.1674
426.6324	0.154
