Data from MonoPyChalIsomerACN10uM400nmA_Absorbance_12-08-47-328.txt Node
Date: Fri Jul 05 12:08:47 BST 2024
User: LASERRRRR
Spectrometer: FLMT03099
Trigger mode: 0
Integration Time (sec): 1.000000E-1
Scans to average: 1
Electric dark correction enabled: true
Nonlinearity correction enabled: false
Boxcar width: 0
XAxis mode: Wavelengths
Number of Pixels in Spectrum: 3648
>>>>>Begin Spectral Data<<<<<
179.3399	0.1441
179.5586	0.1441
179.7771	0.1441
179.9957	0.6701
180.2143	-0
180.4329	-0
180.6514	-0.92
180.8699	-0
181.0885	0.3316
181.307	-0.1366
181.5255	-0.0438
181.744	0.0332
181.9625	-0.8506
182.181	-0
182.3994	-0.5337
182.6179	-0.2731
182.8363	-0.1504
183.0547	0.1881
183.2732	0.1269
183.4916	0.0979
183.71	-0.0153
183.9284	0.0284
184.1467	-0.0465
184.3651	-0.1075
184.5835	0.2628
184.8018	0.0702
185.0201	0.0589
185.2385	0.0103
185.4568	0.1058
185.6751	0.1057
185.8934	-0.1195
186.1117	0.1812
186.3299	-0.1816
186.5482	0.4225
186.7664	0.0386
186.9847	0.1171
187.2029	0.1241
187.4211	-0.1651
187.6393	-0.0917
187.8575	0.052
188.0757	-0.0203
188.2939	0.077
188.512	0.0217
188.7302	-0.1179
188.9483	0.2691
189.1665	0.0356
189.3846	0.5812
189.6027	0.0513
189.8208	0.0703
190.0389	0.085
190.257	0.0178
190.475	0.2254
190.6931	0.1033
190.9111	0.2638
191.1292	0.4884
191.3472	0.5306
191.5652	0.1883
191.7832	0.414
192.0012	0.3138
192.2192	0.2417
192.4371	0.3077
192.6551	0.3139
192.873	1.0965
193.091	0.3527
193.3089	0.3493
193.5268	0.7252
193.7447	0.3882
193.9626	0.335
194.1805	0.4785
194.3984	0.5925
194.6162	0.5198
194.8341	0.4803
195.0519	0.4304
195.2697	0.5172
195.4875	0.5124
195.7054	0.4189
195.9231	0.6634
196.1409	0.6785
196.3587	0.7197
196.5765	0.5393
196.7942	0.6507
197.012	0.7909
197.2297	0.9354
197.4474	0.6735
197.6651	0.579
197.8828	0.5159
198.1005	0.7202
198.3182	0.6341
198.5358	0.7427
198.7535	0.6277
198.9711	0.4996
199.1888	0.6001
199.4064	0.7493
199.624	0.6809
199.8416	0.7593
200.0592	0.7807
200.2767	0.5376
200.4943	0.6931
200.7119	0.7212
200.9294	0.5702
201.1469	0.7382
201.3645	0.6579
201.582	0.7963
201.7995	0.7007
202.017	0.6482
202.2344	0.8
202.4519	0.5864
202.6694	0.985
202.8868	0.8448
203.1042	0.6396
203.3217	0.5876
203.5391	0.8143
203.7565	0.8511
203.9739	0.7481
204.1913	0.7324
204.4086	0.7671
204.626	0.7722
204.8433	0.8324
205.0607	0.6671
205.278	0.9065
205.4953	0.7034
205.7126	0.6243
205.9299	0.8291
206.1472	0.7573
206.3644	0.6482
206.5817	0.6329
206.7989	0.6424
207.0162	0.7293
207.2334	0.7463
207.4506	0.7172
207.6678	0.9042
207.885	0.7392
208.1022	0.7115
208.3194	0.6681
208.5365	0.8493
208.7537	0.854
208.9708	0.7906
209.1879	0.7354
209.405	0.6071
209.6222	0.8786
209.8392	0.7394
210.0563	0.6943
210.2734	0.7391
210.4905	0.7197
210.7075	0.8309
210.9245	0.7148
211.1416	0.7067
211.3586	0.827
211.5756	0.7751
211.7926	0.7538
212.0096	0.6822
212.2265	0.7075
212.4435	0.6569
212.6604	0.7597
212.8774	0.6527
213.0943	0.6473
213.3112	0.6963
213.5281	0.6741
213.745	0.7067
213.9619	0.6774
214.1788	0.6379
214.3956	0.6502
214.6125	0.6118
214.8293	0.6471
215.0461	0.7006
215.2629	0.6424
215.4798	0.5873
215.6965	0.6598
215.9133	0.6618
216.1301	0.5887
216.3469	0.6444
216.5636	0.6424
216.7803	0.6161
216.9971	0.5675
217.2138	0.5978
217.4305	0.6349
217.6472	0.5783
217.8639	0.6362
218.0805	0.6003
218.2972	0.5877
218.5138	0.5565
218.7305	0.6052
218.9471	0.5487
219.1637	0.5692
219.3803	0.55
219.5969	0.5455
219.8135	0.575
220.0301	0.5582
220.2466	0.5463
220.4632	0.5639
220.6797	0.5648
220.8962	0.5229
221.1127	0.5089
221.3292	0.4971
221.5457	0.5458
221.7622	0.5549
221.9787	0.5073
222.1951	0.5458
222.4116	0.5479
222.628	0.5656
222.8444	0.5244
223.0608	0.5358
223.2772	0.5288
223.4936	0.5522
223.71	0.5949
223.9264	0.5465
224.1427	0.5585
224.3591	0.5535
224.5754	0.5283
224.7917	0.5224
225.008	0.5472
225.2243	0.5374
225.4406	0.5321
225.6569	0.5494
225.8732	0.5561
226.0894	0.5076
226.3057	0.5601
226.5219	0.533
226.7381	0.5854
226.9543	0.5561
227.1705	0.5742
227.3867	0.5336
227.6029	0.5365
227.8191	0.5538
228.0352	0.5819
228.2513	0.5641
228.4675	0.5668
228.6836	0.5832
228.8997	0.5641
229.1158	0.5622
229.3319	0.6001
229.548	0.5875
229.764	0.5928
229.9801	0.5739
230.1961	0.5847
230.4121	0.5764
230.6282	0.5731
230.8442	0.5756
231.0602	0.5373
231.2761	0.5518
231.4921	0.5686
231.7081	0.5595
231.924	0.5826
232.14	0.5701
232.3559	0.5759
232.5718	0.5671
232.7877	0.5398
233.0036	0.5694
233.2195	0.5437
233.4353	0.5659
233.6512	0.5512
233.867	0.5735
234.0829	0.5501
234.2987	0.5633
234.5145	0.5388
234.7303	0.5592
234.9461	0.5671
235.1619	0.5624
235.3776	0.5585
235.5934	0.5601
235.8091	0.5411
236.0249	0.5164
236.2406	0.5527
236.4563	0.5369
236.672	0.5464
236.8877	0.5342
237.1034	0.5351
237.319	0.5328
237.5347	0.5442
237.7503	0.5297
237.966	0.5459
238.1816	0.5264
238.3972	0.561
238.6128	0.5316
238.8284	0.512
239.0439	0.5512
239.2595	0.525
239.475	0.5454
239.6906	0.5317
239.9061	0.5122
240.1216	0.5327
240.3371	0.5244
240.5526	0.4975
240.7681	0.5217
240.9836	0.5239
241.199	0.4865
241.4145	0.5078
241.6299	0.4957
241.8453	0.498
242.0607	0.4986
242.2761	0.4994
242.4915	0.4806
242.7069	0.4626
242.9223	0.4649
243.1376	0.4439
243.353	0.4605
243.5683	0.4479
243.7836	0.4291
243.9989	0.4156
244.2142	0.4251
244.4295	0.403
244.6448	0.3856
244.86	0.3876
245.0753	0.3814
245.2905	0.3863
245.5057	0.3668
245.721	0.3721
245.9362	0.3492
246.1514	0.3636
246.3665	0.3219
246.5817	0.3541
246.7969	0.3302
247.012	0.3281
247.2271	0.329
247.4423	0.319
247.6574	0.3077
247.8725	0.3047
248.0876	0.3125
248.3026	0.2845
248.5177	0.2941
248.7328	0.2948
248.9478	0.2811
249.1628	0.2714
249.3779	0.2659
249.5929	0.2648
249.8079	0.2694
250.0228	0.2623
250.2378	0.262
250.4528	0.2524
250.6677	0.2494
250.8827	0.2196
251.0976	0.232
251.3125	0.2417
251.5274	0.238
251.7423	0.2334
251.9572	0.2275
252.172	0.2165
252.3869	0.2211
252.6017	0.222
252.8166	0.2247
253.0314	0.2082
253.2462	0.2107
253.461	0.2088
253.6758	0.2198
253.8906	0.2185
254.1053	0.1968
254.3201	0.2006
254.5348	0.211
254.7496	0.2163
254.9643	0.1946
255.179	0.195
255.3937	0.2032
255.6083	0.1786
255.823	0.1864
256.0377	0.1853
256.2523	0.1952
256.467	0.2033
256.6816	0.1951
256.8962	0.1907
257.1108	0.1856
257.3254	0.1928
257.54	0.1808
257.7545	0.1856
257.9691	0.193
258.1836	0.1911
258.3981	0.1797
258.6127	0.1829
258.8272	0.1871
259.0417	0.1732
259.2561	0.181
259.4706	0.1719
259.6851	0.1871
259.8995	0.1849
260.114	0.1824
260.3284	0.1959
260.5428	0.1837
260.7572	0.1854
260.9716	0.1922
261.186	0.2113
261.4003	0.1976
261.6147	0.1989
261.829	0.201
262.0433	0.1872
262.2577	0.1807
262.472	0.188
262.6863	0.1999
262.9005	0.1807
263.1148	0.1876
263.3291	0.1914
263.5433	0.1898
263.7576	0.1999
263.9718	0.1736
264.186	0.188
264.4002	0.2045
264.6144	0.192
264.8286	0.1891
265.0427	0.2042
265.2569	0.1849
265.471	0.189
265.6851	0.179
265.8993	0.1861
266.1134	0.1776
266.3275	0.1869
266.5415	0.1964
266.7556	0.191
266.9697	0.1935
267.1837	0.189
267.3978	0.1924
267.6118	0.1904
267.8258	0.2009
268.0398	0.1951
268.2538	0.1884
268.4677	0.1897
268.6817	0.1878
268.8957	0.2013
269.1096	0.1853
269.3235	0.1877
269.5374	0.1866
269.7514	0.1655
269.9652	0.1865
270.1791	0.1838
270.393	0.1906
270.6068	0.1793
270.8207	0.1915
271.0345	0.1805
271.2483	0.1791
271.4622	0.1862
271.676	0.1803
271.8897	0.2032
272.1035	0.1833
272.3173	0.1841
272.531	0.1709
272.7448	0.1693
272.9585	0.1854
273.1722	0.1891
273.3859	0.1722
273.5996	0.1836
273.8133	0.1741
274.0269	0.1776
274.2406	0.1886
274.4542	0.1779
274.6679	0.1878
274.8815	0.17
275.0951	0.1911
275.3087	0.1791
275.5223	0.1935
275.7358	0.187
275.9494	0.1745
276.1629	0.1801
276.3765	0.1853
276.59	0.1884
276.8035	0.1936
277.017	0.183
277.2305	0.1846
277.444	0.1908
277.6574	0.1783
277.8709	0.1706
278.0843	0.1907
278.2978	0.1921
278.5112	0.205
278.7246	0.2056
278.938	0.1899
279.1513	0.2081
279.3647	0.1786
279.5781	0.1946
279.7914	0.1945
280.0047	0.1936
280.2181	0.1973
280.4314	0.1913
280.6447	0.1967
280.8579	0.1939
281.0712	0.1872
281.2845	0.1976
281.4977	0.1932
281.711	0.1877
281.9242	0.1834
282.1374	0.1769
282.3506	0.187
282.5638	0.1866
282.7769	0.1855
282.9901	0.1934
283.2033	0.1896
283.4164	0.1841
283.6295	0.1783
283.8426	0.197
284.0557	0.1906
284.2688	0.1797
284.4819	0.1916
284.695	0.1899
284.908	0.1899
285.1211	0.194
285.3341	0.2004
285.5471	0.1921
285.7601	0.1872
285.9731	0.1971
286.1861	0.1913
286.3991	0.1759
286.612	0.1778
286.825	0.1814
287.0379	0.1964
287.2508	0.1854
287.4637	0.1841
287.6766	0.1916
287.8895	0.1819
288.1024	0.1725
288.3152	0.1873
288.5281	0.1749
288.7409	0.1755
288.9538	0.1744
289.1666	0.1693
289.3794	0.1834
289.5922	0.1715
289.8049	0.166
290.0177	0.1823
290.2304	0.165
290.4432	0.1796
290.6559	0.1798
290.8686	0.1892
291.0813	0.1725
291.294	0.1713
291.5067	0.1815
291.7194	0.1704
291.932	0.18
292.1447	0.1869
292.3573	0.1821
292.5699	0.1754
292.7825	0.1642
292.9951	0.182
293.2077	0.1748
293.4203	0.1734
293.6328	0.174
293.8454	0.1651
294.0579	0.1727
294.2704	0.1743
294.4829	0.1738
294.6954	0.1789
294.9079	0.1762
295.1204	0.1831
295.3328	0.1621
295.5453	0.1638
295.7577	0.1584
295.9701	0.1561
296.1825	0.1724
296.3949	0.1579
296.6073	0.1647
296.8197	0.166
297.0321	0.1571
297.2444	0.165
297.4567	0.1563
297.6691	0.1698
297.8814	0.1738
298.0937	0.1719
298.306	0.1654
298.5182	0.1624
298.7305	0.173
298.9428	0.1584
299.155	0.1556
299.3672	0.1563
299.5794	0.1644
299.7916	0.1608
300.0038	0.1602
300.216	0.1527
300.4282	0.1608
300.6403	0.1689
300.8525	0.173
301.0646	0.1655
301.2767	0.1654
301.4888	0.1666
301.7009	0.1625
301.913	0.1689
302.125	0.1698
302.3371	0.175
302.5491	0.1601
302.7612	0.1589
302.9732	0.1546
303.1852	0.1706
303.3972	0.1587
303.6092	0.1634
303.8211	0.1612
304.0331	0.1522
304.245	0.1549
304.457	0.153
304.6689	0.1604
304.8808	0.1571
305.0927	0.1409
305.3046	0.148
305.5164	0.1501
305.7283	0.1564
305.9401	0.1521
306.152	0.1292
306.3638	0.14
306.5756	0.143
306.7874	0.1457
306.9992	0.155
307.2109	0.1519
307.4227	0.142
307.6344	0.1425
307.8462	0.1324
308.0579	0.138
308.2696	0.1534
308.4813	0.1314
308.693	0.1408
308.9046	0.1272
309.1163	0.1366
309.328	0.1179
309.5396	0.137
309.7512	0.1296
309.9628	0.1221
310.1744	0.1249
310.386	0.1226
310.5976	0.1243
310.8091	0.1232
311.0207	0.1221
311.2322	0.1201
311.4437	0.1205
311.6552	0.1214
311.8667	0.1136
312.0782	0.1259
312.2897	0.1068
312.5012	0.1176
312.7126	0.1141
312.924	0.1147
313.1355	0.1376
313.3469	0.1126
313.5583	0.1152
313.7696	0.1151
313.981	0.1127
314.1924	0.1135
314.4037	0.1206
314.6151	0.1166
314.8264	0.115
315.0377	0.1166
315.249	0.1148
315.4603	0.1219
315.6716	0.119
315.8828	0.1069
316.0941	0.1014
316.3053	0.1032
316.5165	0.1127
316.7277	0.1018
316.9389	0.1157
317.1501	0.1206
317.3613	0.0988
317.5724	0.1159
317.7836	0.1039
317.9947	0.107
318.2058	0.116
318.417	0.1166
318.6281	0.1066
318.8391	0.1093
319.0502	0.1147
319.2613	0.1255
319.4723	0.1137
319.6834	0.1163
319.8944	0.1156
320.1054	0.1161
320.3164	0.1131
320.5274	0.1064
320.7383	0.1166
320.9493	0.1013
321.1602	0.1141
321.3712	0.1076
321.5821	0.1137
321.793	0.1148
322.0039	0.1113
322.2148	0.1085
322.4257	0.1028
322.6365	0.1131
322.8474	0.1064
323.0582	0.1154
323.269	0.1224
323.4798	0.1127
323.6906	0.1061
323.9014	0.123
324.1122	0.1124
324.3229	0.1209
324.5337	0.1193
324.7444	0.123
324.9551	0.1238
325.1658	0.12
325.3765	0.1167
325.5872	0.1242
325.7979	0.1238
326.0085	0.0992
326.2192	0.0982
326.4298	0.1257
326.6404	0.1352
326.851	0.1073
327.0616	0.1166
327.2722	0.1148
327.4828	0.1217
327.6933	0.1249
327.9039	0.1215
328.1144	0.1075
328.3249	0.1118
328.5354	0.111
328.7459	0.1236
328.9564	0.1148
329.1669	0.1278
329.3773	0.1245
329.5878	0.1155
329.7982	0.1089
330.0086	0.12
330.219	0.1258
330.4294	0.1137
330.6398	0.1207
330.8502	0.1191
331.0605	0.1382
331.2708	0.1125
331.4812	0.1137
331.6915	0.1173
331.9018	0.1149
332.1121	0.1183
332.3224	0.1124
332.5326	0.127
332.7429	0.1236
332.9531	0.1121
333.1633	0.1288
333.3735	0.1084
333.5837	0.1184
333.7939	0.1117
334.0041	0.1259
334.2143	0.1157
334.4244	0.1266
334.6346	0.0961
334.8447	0.1168
335.0548	0.1193
335.2649	0.136
335.475	0.118
335.685	0.1078
335.8951	0.1232
336.1051	0.115
336.3152	0.1275
336.5252	0.1189
336.7352	0.132
336.9452	0.1335
337.1552	0.1382
337.3652	0.1192
337.5751	0.128
337.7851	0.1172
337.995	0.1344
338.2049	0.1154
338.4148	0.1236
338.6247	0.1248
338.8346	0.1297
339.0445	0.1148
339.2543	0.1355
339.4642	0.1367
339.674	0.1316
339.8838	0.1355
340.0936	0.1387
340.3034	0.1293
340.5132	0.1249
340.7229	0.1287
340.9327	0.1129
341.1424	0.1344
341.3522	0.1307
341.5619	0.1286
341.7716	0.1289
341.9813	0.1406
342.1909	0.1193
342.4006	0.1309
342.6102	0.1245
342.8199	0.1318
343.0295	0.129
343.2391	0.1228
343.4487	0.1421
343.6583	0.1257
343.8679	0.1426
344.0774	0.1363
344.287	0.1314
344.4965	0.139
344.706	0.1375
344.9155	0.1368
345.125	0.1269
345.3345	0.1532
345.544	0.1443
345.7534	0.129
345.9629	0.1287
346.1723	0.1354
346.3817	0.1352
346.5911	0.1422
346.8005	0.1346
347.0099	0.1411
347.2193	0.1422
347.4286	0.1346
347.638	0.1465
347.8473	0.1423
348.0566	0.1363
348.2659	0.1352
348.4752	0.1432
348.6845	0.1335
348.8937	0.1498
349.103	0.1339
349.3122	0.1311
349.5214	0.1567
349.7306	0.1378
349.9398	0.1433
350.149	0.1466
350.3582	0.1391
350.5674	0.1541
350.7765	0.141
350.9856	0.1386
351.1948	0.1412
351.4039	0.1484
351.613	0.1449
351.822	0.1421
352.0311	0.1383
352.2402	0.1375
352.4492	0.153
352.6582	0.1425
352.8672	0.1523
353.0762	0.1395
353.2852	0.1561
353.4942	0.1448
353.7032	0.1585
353.9121	0.1441
354.1211	0.1503
354.33	0.1554
354.5389	0.1426
354.7478	0.1607
354.9567	0.1715
355.1655	0.1488
355.3744	0.1401
355.5833	0.1639
355.7921	0.1587
356.0009	0.1618
356.2097	0.1455
356.4185	0.1374
356.6273	0.1608
356.8361	0.1648
357.0448	0.1451
357.2536	0.1482
357.4623	0.1695
357.671	0.1653
357.8797	0.1569
358.0884	0.1648
358.2971	0.1598
358.5057	0.1762
358.7144	0.1622
358.923	0.1572
359.1316	0.1651
359.3402	0.1733
359.5488	0.1758
359.7574	0.1677
359.966	0.1599
360.1746	0.1604
360.3831	0.1681
360.5916	0.1808
360.8002	0.1745
361.0087	0.1884
361.2172	0.1585
361.4256	0.1747
361.6341	0.1739
361.8426	0.1704
362.051	0.1684
362.2594	0.1717
362.4678	0.1708
362.6762	0.1666
362.8846	0.1726
363.093	0.1623
363.3014	0.1759
363.5097	0.1672
363.718	0.1775
363.9264	0.1835
364.1347	0.1664
364.343	0.1714
364.5513	0.1791
364.7595	0.177
364.9678	0.1891
365.176	0.1922
365.3842	0.1634
365.5925	0.1773
365.8007	0.1836
366.0089	0.1963
366.217	0.1715
366.4252	0.1755
366.6333	0.1962
366.8415	0.1798
367.0496	0.1657
367.2577	0.1936
367.4658	0.193
367.6739	0.1983
367.882	0.1848
368.09	0.2031
368.2981	0.1899
368.5061	0.1907
368.7141	0.183
368.9221	0.1863
369.1301	0.1846
369.3381	0.1997
369.5461	0.182
369.754	0.1868
369.962	0.1867
370.1699	0.1854
370.3778	0.1881
370.5857	0.2094
370.7936	0.1938
371.0015	0.1889
371.2093	0.216
371.4172	0.1842
371.625	0.1958
371.8328	0.2088
372.0406	0.1858
372.2484	0.1972
372.4562	0.2041
372.664	0.1915
372.8717	0.1619
373.0795	0.2006
373.2872	0.2053
373.4949	0.2136
373.7026	0.2037
373.9103	0.2128
374.118	0.1811
374.3256	0.2007
374.5333	0.1925
374.7409	0.2017
374.9485	0.2071
375.1561	0.1939
375.3637	0.1759
375.5713	0.2096
375.7789	0.212
375.9864	0.2098
376.194	0.1933
376.4015	0.2104
376.609	0.1869
376.8165	0.2135
377.024	0.1964
377.2315	0.1847
377.4389	0.1963
377.6464	0.2068
377.8538	0.1833
378.0612	0.2046
378.2686	0.2128
378.476	0.1999
378.6834	0.2024
378.8908	0.1914
379.0981	0.2141
379.3055	0.2105
379.5128	0.2035
379.7201	0.2142
379.9274	0.1962
380.1347	0.2048
380.342	0.2029
380.5492	0.2137
380.7565	0.2283
380.9637	0.2114
381.1709	0.2207
381.3781	0.2224
381.5853	0.2076
381.7925	0.2259
381.9997	0.2036
382.2068	0.2015
382.4139	0.2218
382.6211	0.2053
382.8282	0.2053
383.0353	0.2047
383.2424	0.2117
383.4494	0.2035
383.6565	0.2228
383.8635	0.2217
384.0706	0.2389
384.2776	0.2217
384.4846	0.2029
384.6916	0.2254
384.8986	0.2035
385.1055	0.2002
385.3125	0.2225
385.5194	0.2091
385.7263	0.2192
385.9333	0.2046
386.1402	0.2008
386.347	0.2169
386.5539	0.206
386.7608	0.2172
386.9676	0.1915
387.1744	0.2062
387.3813	0.2072
387.5881	0.2119
387.7948	0.1955
388.0016	0.2167
388.2084	0.2075
388.4151	0.2013
388.6219	0.2107
388.8286	0.2066
389.0353	0.2065
389.242	0.207
389.4487	0.2113
389.6553	0.1999
389.862	0.2022
390.0686	0.1902
390.2753	0.2012
390.4819	0.1983
390.6885	0.2151
390.8951	0.1953
391.1016	0.1825
391.3082	0.2105
391.5147	0.2017
391.7213	0.1747
391.9278	0.1839
392.1343	0.1638
392.3408	0.1889
392.5473	0.1938
392.7537	0.2092
392.9602	0.2074
393.1666	0.1793
393.373	0.1725
393.5794	0.192
393.7858	0.1884
393.9922	0.1928
394.1986	0.1989
394.4049	0.1837
394.6113	0.1799
394.8176	0.1855
395.0239	0.1783
395.2302	0.18
395.4365	0.1781
395.6428	0.2007
395.8491	0.1682
396.0553	0.1848
396.2615	0.1763
396.4678	0.1839
396.674	0.1758
396.8802	0.1836
397.0863	0.1779
397.2925	0.1647
397.4987	0.1884
397.7048	0.1752
397.9109	0.1795
398.117	0.1738
398.3231	0.1716
398.5292	0.1801
398.7353	0.1755
398.9413	0.1473
399.1474	0.157
399.3534	0.1654
399.5594	0.1703
399.7654	0.1744
399.9714	0.1619
400.1774	0.1611
400.3833	0.185
400.5893	0.1784
400.7952	0.1887
401.0011	0.18
401.207	0.1656
401.4129	0.1616
401.6188	0.1633
401.8247	0.174
402.0305	0.1639
402.2364	0.1688
402.4422	0.1604
402.648	0.1801
402.8538	0.1582
403.0596	0.1563
403.2654	0.1806
403.4711	0.1832
403.6768	0.1472
403.8826	0.1719
404.0883	0.1666
404.294	0.1703
404.4997	0.1452
404.7054	0.1648
404.911	0.1625
405.1167	0.1595
405.3223	0.1654
405.5279	0.1874
405.7335	0.184
405.9391	0.1806
406.1447	0.177
406.3502	0.1678
406.5558	0.1661
406.7613	0.1807
406.9668	0.1536
407.1724	0.1719
407.3778	0.1584
407.5833	0.1679
407.7888	0.1622
407.9942	0.1659
408.1997	0.1675
408.4051	0.1632
408.6105	0.1465
408.8159	0.1661
409.0213	0.1588
409.2267	0.1527
409.432	0.1637
409.6374	0.1681
409.8427	0.1667
410.048	0.1775
410.2533	0.1523
410.4586	0.1409
410.6639	0.1592
410.8691	0.1499
411.0744	0.1552
411.2796	0.1489
411.4848	0.1594
411.69	0.143
411.8952	0.1484
412.1004	0.1403
412.3056	0.1615
412.5107	0.1456
412.7158	0.1625
412.921	0.1605
413.1261	0.165
413.3312	0.1639
413.5362	0.1752
413.7413	0.1562
413.9464	0.1807
414.1514	0.1614
414.3564	0.1538
414.5614	0.1397
414.7664	0.1639
414.9714	0.176
415.1764	0.1621
415.3813	0.1701
415.5863	0.1654
415.7912	0.1757
415.9961	0.1611
416.201	0.1738
416.4059	0.1396
416.6108	0.1509
416.8156	0.1589
417.0205	0.1596
417.2253	0.147
417.4301	0.1603
417.6349	0.154
417.8397	0.149
418.0445	0.1376
418.2492	0.1631
418.454	0.1472
418.6587	0.1554
418.8634	0.1597
419.0681	0.1725
419.2728	0.1341
419.4775	0.1661
419.6822	0.161
419.8868	0.1671
420.0915	0.1191
420.2961	0.1486
420.5007	0.153
420.7053	0.1438
420.9099	0.1446
421.1144	0.1574
421.319	0.151
421.5235	0.1723
421.728	0.1262
421.9325	0.1472
422.137	0.149
422.3415	0.1343
422.546	0.1376
422.7504	0.147
422.9549	0.1603
423.1593	0.1248
423.3637	0.1492
423.5681	0.136
423.7725	0.1331
423.9769	0.1485
424.1812	0.1452
424.3856	0.1353
424.5899	0.1495
424.7942	0.1384
424.9985	0.1409
425.2028	0.1429
425.4071	0.1258
425.6113	0.1441
425.8156	0.1283
426.0198	0.1474
426.224	0.1343
426.4282	0.1304
