Data from MonoPyChalIsomerACN10uM400nmA_Absorbance_12-08-43-028.txt Node
Date: Fri Jul 05 12:08:43 BST 2024
User: LASERRRRR
Spectrometer: FLMT03099
Trigger mode: 0
Integration Time (sec): 1.000000E-1
Scans to average: 1
Electric dark correction enabled: true
Nonlinearity correction enabled: false
Boxcar width: 0
XAxis mode: Wavelengths
Number of Pixels in Spectrum: 3648
>>>>>Begin Spectral Data<<<<<
179.3399	-0.0643
179.5586	-0.0643
179.7771	-0.0643
179.9957	1.0147
180.2143	-0
180.4329	-0
180.6514	-0.4876
180.8699	0.4131
181.0885	0.3338
181.307	0.0531
181.5255	-0.9265
181.744	-0.1342
181.9625	0.5708
182.181	0.6486
182.3994	0.6659
182.6179	0.3588
182.8363	0.1574
183.0547	0.1439
183.2732	0.0086
183.4916	0.1275
183.71	0.0748
183.9284	-0.0226
184.1467	-0.0881
184.3651	-0.0225
184.5835	0.142
184.8018	-0.0816
185.0201	-0.0474
185.2385	-0.0909
185.4568	0.2957
185.6751	0.1857
185.8934	-0.1045
186.1117	-0.0663
186.3299	0.0309
186.5482	0.015
186.7664	0.2676
186.9847	0.1525
187.2029	0.4816
187.4211	-0.3659
187.6393	-0.0746
187.8575	0.0053
188.0757	0.0775
188.2939	0.0922
188.512	0.1274
188.7302	0.0892
188.9483	0.0326
189.1665	0.2548
189.3846	-0.0144
189.6027	0.14
189.8208	0.2643
190.0389	0.2213
190.257	0.0975
190.475	0.3257
190.6931	0.2443
190.9111	0.3529
191.1292	0.3145
191.3472	0.4408
191.5652	0.178
191.7832	0.493
192.0012	0.2197
192.2192	0.3242
192.4371	0.363
192.6551	0.3744
192.873	0.3351
193.091	0.2636
193.3089	0.4877
193.5268	0.6797
193.7447	0.4334
193.9626	0.5787
194.1805	0.5297
194.3984	0.459
194.6162	0.4592
194.8341	0.6609
195.0519	0.449
195.2697	0.5774
195.4875	0.5515
195.7054	0.5262
195.9231	0.5843
196.1409	0.3553
196.3587	0.6551
196.5765	0.654
196.7942	0.6468
197.012	0.7545
197.2297	0.7769
197.4474	0.7122
197.6651	0.509
197.8828	0.6262
198.1005	0.7798
198.3182	0.782
198.5358	0.7811
198.7535	0.6049
198.9711	0.6577
199.1888	0.6638
199.4064	0.9338
199.624	0.745
199.8416	0.7203
200.0592	0.7473
200.2767	0.591
200.4943	0.6186
200.7119	0.8312
200.9294	0.7674
201.1469	0.9468
201.3645	0.6725
201.582	0.888
201.7995	0.7503
202.017	0.8266
202.2344	0.6978
202.4519	0.6826
202.6694	1.0042
202.8868	0.8008
203.1042	0.6768
203.3217	0.5747
203.5391	0.9726
203.7565	0.7805
203.9739	0.8062
204.1913	0.8426
204.4086	0.6835
204.626	0.6965
204.8433	0.8159
205.0607	0.8312
205.278	0.8728
205.4953	0.7631
205.7126	0.5466
205.9299	0.8729
206.1472	0.7048
206.3644	0.6202
206.5817	0.7283
206.7989	0.7201
207.0162	0.7248
207.2334	0.6924
207.4506	0.7603
207.6678	0.7247
207.885	0.7564
208.1022	0.7837
208.3194	0.7901
208.5365	0.7985
208.7537	0.857
208.9708	0.6912
209.1879	0.7067
209.405	0.7047
209.6222	0.8245
209.8392	0.7639
210.0563	0.7384
210.2734	0.7431
210.4905	0.786
210.7075	0.7787
210.9245	0.7787
211.1416	0.6807
211.3586	0.7833
211.5756	0.7386
211.7926	0.7298
212.0096	0.6904
212.2265	0.7622
212.4435	0.709
212.6604	0.7634
212.8774	0.7434
213.0943	0.6586
213.3112	0.7109
213.5281	0.6143
213.745	0.7372
213.9619	0.6734
214.1788	0.6971
214.3956	0.6407
214.6125	0.6073
214.8293	0.7099
215.0461	0.7063
215.2629	0.6025
215.4798	0.6274
215.6965	0.7387
215.9133	0.6595
216.1301	0.5706
216.3469	0.6279
216.5636	0.6279
216.7803	0.6132
216.9971	0.6176
217.2138	0.6291
217.4305	0.6252
217.6472	0.6088
217.8639	0.6063
218.0805	0.6218
218.2972	0.6305
218.5138	0.5948
218.7305	0.5406
218.9471	0.5735
219.1637	0.6057
219.3803	0.5129
219.5969	0.5692
219.8135	0.5522
220.0301	0.5832
220.2466	0.581
220.4632	0.5459
220.6797	0.5591
220.8962	0.5766
221.1127	0.5471
221.3292	0.5284
221.5457	0.5886
221.7622	0.5529
221.9787	0.541
222.1951	0.5497
222.4116	0.5189
222.628	0.5987
222.8444	0.5492
223.0608	0.5804
223.2772	0.5415
223.4936	0.5342
223.71	0.5829
223.9264	0.5187
224.1427	0.5604
224.3591	0.5653
224.5754	0.5502
224.7917	0.5466
225.008	0.5736
225.2243	0.5313
225.4406	0.584
225.6569	0.5494
225.8732	0.5938
226.0894	0.5506
226.3057	0.5636
226.5219	0.5176
226.7381	0.6052
226.9543	0.5672
227.1705	0.5581
227.3867	0.553
227.6029	0.5557
227.8191	0.5363
228.0352	0.5683
228.2513	0.5787
228.4675	0.5894
228.6836	0.6007
228.8997	0.5894
229.1158	0.5909
229.3319	0.5471
229.548	0.5968
229.764	0.5995
229.9801	0.5928
230.1961	0.5527
230.4121	0.5688
230.6282	0.5732
230.8442	0.5747
231.0602	0.5569
231.2761	0.5465
231.4921	0.592
231.7081	0.5736
231.924	0.6071
232.14	0.61
232.3559	0.5997
232.5718	0.5901
232.7877	0.5416
233.0036	0.5627
233.2195	0.5654
233.4353	0.5831
233.6512	0.5732
233.867	0.5672
234.0829	0.5586
234.2987	0.5703
234.5145	0.5471
234.7303	0.5726
234.9461	0.5676
235.1619	0.5742
235.3776	0.5736
235.5934	0.555
235.8091	0.5382
236.0249	0.5477
236.2406	0.5758
236.4563	0.5266
236.672	0.552
236.8877	0.5509
237.1034	0.5724
237.319	0.5363
237.5347	0.5657
237.7503	0.532
237.966	0.5429
238.1816	0.5775
238.3972	0.5666
238.6128	0.5179
238.8284	0.5155
239.0439	0.55
239.2595	0.5485
239.475	0.5485
239.6906	0.5593
239.9061	0.5098
240.1216	0.5173
240.3371	0.5356
240.5526	0.5104
240.7681	0.5446
240.9836	0.5136
241.199	0.5176
241.4145	0.5075
241.6299	0.4715
241.8453	0.5115
242.0607	0.4928
242.2761	0.4779
242.4915	0.4557
242.7069	0.4313
242.9223	0.4546
243.1376	0.4064
243.353	0.4562
243.5683	0.4301
243.7836	0.4274
243.9989	0.4325
244.2142	0.4364
244.4295	0.396
244.6448	0.3964
244.86	0.3908
245.0753	0.367
245.2905	0.3719
245.5057	0.3645
245.721	0.3705
245.9362	0.3388
246.1514	0.3466
246.3665	0.3143
246.5817	0.3273
246.7969	0.3264
247.012	0.3185
247.2271	0.3198
247.4423	0.2889
247.6574	0.3142
247.8725	0.2977
248.0876	0.2999
248.3026	0.279
248.5177	0.293
248.7328	0.2803
248.9478	0.2813
249.1628	0.2673
249.3779	0.2612
249.5929	0.2661
249.8079	0.248
250.0228	0.254
250.2378	0.2528
250.4528	0.2414
250.6677	0.2333
250.8827	0.2326
251.0976	0.2457
251.3125	0.2341
251.5274	0.2208
251.7423	0.2358
251.9572	0.2205
252.172	0.232
252.3869	0.225
252.6017	0.2308
252.8166	0.2043
253.0314	0.2175
253.2462	0.2147
253.461	0.2084
253.6758	0.2053
253.8906	0.2104
254.1053	0.1963
254.3201	0.2138
254.5348	0.2113
254.7496	0.204
254.9643	0.2032
255.179	0.1918
255.3937	0.2125
255.6083	0.1955
255.823	0.1929
256.0377	0.1817
256.2523	0.1907
256.467	0.1983
256.6816	0.187
256.8962	0.1988
257.1108	0.2064
257.3254	0.1975
257.54	0.179
257.7545	0.2007
257.9691	0.2023
258.1836	0.1893
258.3981	0.1773
258.6127	0.1842
258.8272	0.198
259.0417	0.1882
259.2561	0.1916
259.4706	0.1995
259.6851	0.1871
259.8995	0.183
260.114	0.1923
260.3284	0.1916
260.5428	0.1883
260.7572	0.1859
260.9716	0.1894
261.186	0.1836
261.4003	0.1859
261.6147	0.2112
261.829	0.2093
262.0433	0.1911
262.2577	0.1835
262.472	0.1989
262.6863	0.1918
262.9005	0.1825
263.1148	0.1897
263.3291	0.1898
263.5433	0.1788
263.7576	0.1954
263.9718	0.1838
264.186	0.1812
264.4002	0.2001
264.6144	0.1846
264.8286	0.1957
265.0427	0.1874
265.2569	0.1843
265.471	0.1814
265.6851	0.1813
265.8993	0.1797
266.1134	0.1867
266.3275	0.1873
266.5415	0.1882
266.7556	0.1794
266.9697	0.1884
267.1837	0.1935
267.3978	0.1966
267.6118	0.1893
267.8258	0.1888
268.0398	0.1913
268.2538	0.1966
268.4677	0.1923
268.6817	0.1761
268.8957	0.1828
269.1096	0.1868
269.3235	0.1743
269.5374	0.1799
269.7514	0.1739
269.9652	0.1851
270.1791	0.1785
270.393	0.1738
270.6068	0.1738
270.8207	0.1837
271.0345	0.1704
271.2483	0.1782
271.4622	0.1806
271.676	0.1704
271.8897	0.1771
272.1035	0.1711
272.3173	0.1758
272.531	0.1765
272.7448	0.1632
272.9585	0.1619
273.1722	0.1763
273.3859	0.1744
273.5996	0.1732
273.8133	0.1707
274.0269	0.1803
274.2406	0.1735
274.4542	0.1722
274.6679	0.1635
274.8815	0.1633
275.0951	0.1689
275.3087	0.1655
275.5223	0.1703
275.7358	0.1575
275.9494	0.162
276.1629	0.1732
276.3765	0.1712
276.59	0.174
276.8035	0.1661
277.017	0.1745
277.2305	0.1834
277.444	0.1734
277.6574	0.1812
277.8709	0.1606
278.0843	0.1857
278.2978	0.1841
278.5112	0.187
278.7246	0.1798
278.938	0.1796
279.1513	0.1789
279.3647	0.1781
279.5781	0.1768
279.7914	0.1861
280.0047	0.1917
280.2181	0.1707
280.4314	0.1792
280.6447	0.1932
280.8579	0.176
281.0712	0.1804
281.2845	0.182
281.4977	0.1855
281.711	0.1866
281.9242	0.1833
282.1374	0.1661
282.3506	0.1799
282.5638	0.1893
282.7769	0.1767
282.9901	0.1767
283.2033	0.1871
283.4164	0.1809
283.6295	0.186
283.8426	0.1784
284.0557	0.1728
284.2688	0.1696
284.4819	0.1783
284.695	0.1833
284.908	0.1799
285.1211	0.1833
285.3341	0.1859
285.5471	0.1916
285.7601	0.1932
285.9731	0.1967
286.1861	0.1897
286.3991	0.1782
286.612	0.1853
286.825	0.1999
287.0379	0.1849
287.2508	0.1882
287.4637	0.1734
287.6766	0.1839
287.8895	0.1827
288.1024	0.1849
288.3152	0.1834
288.5281	0.1897
288.7409	0.1775
288.9538	0.187
289.1666	0.1792
289.3794	0.185
289.5922	0.1809
289.8049	0.1853
290.0177	0.1777
290.2304	0.1678
290.4432	0.1756
290.6559	0.1792
290.8686	0.1866
291.0813	0.1748
291.294	0.1925
291.5067	0.1878
291.7194	0.1757
291.932	0.1913
292.1447	0.1868
292.3573	0.1758
292.5699	0.1912
292.7825	0.1725
292.9951	0.1862
293.2077	0.1807
293.4203	0.1826
293.6328	0.1858
293.8454	0.1748
294.0579	0.1898
294.2704	0.1825
294.4829	0.1837
294.6954	0.1872
294.9079	0.1846
295.1204	0.1924
295.3328	0.1707
295.5453	0.176
295.7577	0.1739
295.9701	0.1621
296.1825	0.1728
296.3949	0.171
296.6073	0.1815
296.8197	0.1672
297.0321	0.1828
297.2444	0.1725
297.4567	0.1824
297.6691	0.1691
297.8814	0.1805
298.0937	0.172
298.306	0.1801
298.5182	0.1876
298.7305	0.1846
298.9428	0.1778
299.155	0.1714
299.3672	0.161
299.5794	0.1767
299.7916	0.1676
300.0038	0.1794
300.216	0.1678
300.4282	0.1765
300.6403	0.1762
300.8525	0.1701
301.0646	0.1786
301.2767	0.1895
301.4888	0.1604
301.7009	0.1727
301.913	0.1771
302.125	0.1815
302.3371	0.1724
302.5491	0.1685
302.7612	0.163
302.9732	0.1667
303.1852	0.1721
303.3972	0.1759
303.6092	0.1681
303.8211	0.1748
304.0331	0.1612
304.245	0.1764
304.457	0.1681
304.6689	0.1721
304.8808	0.1679
305.0927	0.1525
305.3046	0.1707
305.5164	0.1568
305.7283	0.162
305.9401	0.1569
306.152	0.1549
306.3638	0.1489
306.5756	0.1567
306.7874	0.146
306.9992	0.1406
307.2109	0.149
307.4227	0.1425
307.6344	0.1572
307.8462	0.134
308.0579	0.1388
308.2696	0.1471
308.4813	0.1346
308.693	0.1468
308.9046	0.1319
309.1163	0.1335
309.328	0.1319
309.5396	0.137
309.7512	0.1227
309.9628	0.1257
310.1744	0.1331
310.386	0.1226
310.5976	0.1252
310.8091	0.1236
311.0207	0.1175
311.2322	0.1131
311.4437	0.1186
311.6552	0.1264
311.8667	0.1207
312.0782	0.1252
312.2897	0.1138
312.5012	0.1143
312.7126	0.1244
312.924	0.1086
313.1355	0.1304
313.3469	0.1156
313.5583	0.109
313.7696	0.1139
313.981	0.1194
314.1924	0.1127
314.4037	0.1081
314.6151	0.106
314.8264	0.1196
315.0377	0.1081
315.249	0.1021
315.4603	0.1029
315.6716	0.1078
315.8828	0.098
316.0941	0.1015
316.3053	0.1015
316.5165	0.1038
316.7277	0.0894
316.9389	0.1111
317.1501	0.1034
317.3613	0.086
317.5724	0.1124
317.7836	0.1093
317.9947	0.1154
318.2058	0.1069
318.417	0.1093
318.6281	0.1054
318.8391	0.108
319.0502	0.1051
319.2613	0.1012
319.4723	0.1032
319.6834	0.1108
319.8944	0.0961
320.1054	0.102
320.3164	0.1103
320.5274	0.0929
320.7383	0.1049
320.9493	0.1047
321.1602	0.1122
321.3712	0.0977
321.5821	0.1021
321.793	0.1051
322.0039	0.0994
322.2148	0.1051
322.4257	0.1037
322.6365	0.1121
322.8474	0.0985
323.0582	0.1182
323.269	0.1171
323.4798	0.1116
323.6906	0.0932
323.9014	0.1177
324.1122	0.0998
324.3229	0.1156
324.5337	0.108
324.7444	0.1171
324.9551	0.1191
325.1658	0.0997
325.3765	0.1078
325.5872	0.1181
325.7979	0.1156
326.0085	0.1014
326.2192	0.0923
326.4298	0.1122
326.6404	0.1112
326.851	0.117
327.0616	0.1187
327.2722	0.1143
327.4828	0.1126
327.6933	0.1087
327.9039	0.11
328.1144	0.0919
328.3249	0.1039
328.5354	0.1031
328.7459	0.114
328.9564	0.1165
329.1669	0.1172
329.3773	0.1093
329.5878	0.1105
329.7982	0.0962
330.0086	0.1011
330.219	0.1086
330.4294	0.1123
330.6398	0.1054
330.8502	0.11
331.0605	0.1228
331.2708	0.0941
331.4812	0.1095
331.6915	0.1059
331.9018	0.1045
332.1121	0.1152
332.3224	0.1027
332.5326	0.1115
332.7429	0.1079
332.9531	0.1121
333.1633	0.1154
333.3735	0.1069
333.5837	0.1024
333.7939	0.1062
334.0041	0.1099
334.2143	0.1071
334.4244	0.1221
334.6346	0.1038
334.8447	0.1116
335.0548	0.109
335.2649	0.1147
335.475	0.1046
335.685	0.1012
335.8951	0.113
336.1051	0.1097
336.3152	0.1181
336.5252	0.1075
336.7352	0.1267
336.9452	0.1218
337.1552	0.1196
337.3652	0.1133
337.5751	0.1237
337.7851	0.1158
337.995	0.1135
338.2049	0.0905
338.4148	0.1166
338.6247	0.1127
338.8346	0.1226
339.0445	0.112
339.2543	0.1278
339.4642	0.1277
339.674	0.1087
339.8838	0.1199
340.0936	0.1236
340.3034	0.1248
340.5132	0.1269
340.7229	0.1252
340.9327	0.1246
341.1424	0.1181
341.3522	0.1158
341.5619	0.1099
341.7716	0.1224
341.9813	0.1193
342.1909	0.1324
342.4006	0.1256
342.6102	0.1229
342.8199	0.1078
343.0295	0.1297
343.2391	0.1268
343.4487	0.1213
343.6583	0.1161
343.8679	0.1191
344.0774	0.1349
344.287	0.1374
344.4965	0.1287
344.706	0.1236
344.9155	0.119
345.125	0.1201
345.3345	0.1288
345.544	0.1268
345.7534	0.118
345.9629	0.1284
346.1723	0.1313
346.3817	0.1444
346.5911	0.1363
346.8005	0.1281
347.0099	0.1258
347.2193	0.1383
347.4286	0.1339
347.638	0.1252
347.8473	0.1399
348.0566	0.1272
348.2659	0.137
348.4752	0.1416
348.6845	0.1393
348.8937	0.1321
349.103	0.1251
349.3122	0.1357
349.5214	0.1508
349.7306	0.1336
349.9398	0.1324
350.149	0.1456
350.3582	0.139
350.5674	0.1465
350.7765	0.1397
350.9856	0.124
351.1948	0.1416
351.4039	0.1592
351.613	0.1408
351.822	0.138
352.0311	0.1503
352.2402	0.1272
352.4492	0.1476
352.6582	0.1419
352.8672	0.1471
353.0762	0.1474
353.2852	0.1416
353.4942	0.1621
353.7032	0.1494
353.9121	0.1433
354.1211	0.1478
354.33	0.1485
354.5389	0.141
354.7478	0.1449
354.9567	0.1622
355.1655	0.1468
355.3744	0.1553
355.5833	0.1758
355.7921	0.1572
356.0009	0.1552
356.2097	0.1584
356.4185	0.1487
356.6273	0.162
356.8361	0.1556
357.0448	0.1359
357.2536	0.1473
357.4623	0.1605
357.671	0.1645
357.8797	0.1739
358.0884	0.169
358.2971	0.1713
358.5057	0.1694
358.7144	0.17
358.923	0.1769
359.1316	0.1569
359.3402	0.1765
359.5488	0.1645
359.7574	0.1654
359.966	0.1669
360.1746	0.1684
360.3831	0.1721
360.5916	0.1893
360.8002	0.1832
361.0087	0.1913
361.2172	0.1914
361.4256	0.1916
361.6341	0.1694
361.8426	0.178
362.051	0.1694
362.2594	0.1778
362.4678	0.18
362.6762	0.1738
362.8846	0.1767
363.093	0.1676
363.3014	0.1871
363.5097	0.1775
363.718	0.199
363.9264	0.1953
364.1347	0.1798
364.343	0.1811
364.5513	0.1927
364.7595	0.1782
364.9678	0.1962
365.176	0.1973
365.3842	0.1901
365.5925	0.1819
365.8007	0.1897
366.0089	0.1924
366.217	0.1899
366.4252	0.2108
366.6333	0.204
366.8415	0.2021
367.0496	0.1858
367.2577	0.2025
367.4658	0.2096
367.6739	0.1982
367.882	0.2106
368.09	0.2056
368.2981	0.2002
368.5061	0.1954
368.7141	0.2006
368.9221	0.2097
369.1301	0.2051
369.3381	0.2108
369.5461	0.201
369.754	0.184
369.962	0.1924
370.1699	0.2078
370.3778	0.2138
370.5857	0.2056
370.7936	0.2092
371.0015	0.2089
371.2093	0.2207
371.4172	0.1954
371.625	0.2117
371.8328	0.2047
372.0406	0.2148
372.2484	0.2197
372.4562	0.2216
372.664	0.2211
372.8717	0.2054
373.0795	0.2192
373.2872	0.2338
373.4949	0.2204
373.7026	0.2116
373.9103	0.236
374.118	0.2046
374.3256	0.2111
374.5333	0.2328
374.7409	0.2021
374.9485	0.2274
375.1561	0.2251
375.3637	0.214
375.5713	0.2256
375.7789	0.2442
375.9864	0.2363
376.194	0.2156
376.4015	0.2319
376.609	0.2317
376.8165	0.2193
377.024	0.2216
377.2315	0.2175
377.4389	0.2294
377.6464	0.2262
377.8538	0.2261
378.0612	0.2197
378.2686	0.2354
378.476	0.2293
378.6834	0.2341
378.8908	0.2122
379.0981	0.2398
379.3055	0.2395
379.5128	0.2434
379.7201	0.2332
379.9274	0.2417
380.1347	0.2206
380.342	0.2294
380.5492	0.251
380.7565	0.2626
380.9637	0.2515
381.1709	0.2336
381.3781	0.2558
381.5853	0.2395
381.7925	0.2436
381.9997	0.2353
382.2068	0.2331
382.4139	0.2372
382.6211	0.2462
382.8282	0.2597
383.0353	0.2416
383.2424	0.2453
383.4494	0.2372
383.6565	0.2452
383.8635	0.2387
384.0706	0.2409
384.2776	0.265
384.4846	0.2364
384.6916	0.2431
384.8986	0.2435
385.1055	0.2385
385.3125	0.2561
385.5194	0.247
385.7263	0.2531
385.9333	0.2296
386.1402	0.2404
386.347	0.2528
386.5539	0.2167
386.7608	0.2586
386.9676	0.2583
387.1744	0.2428
387.3813	0.253
387.5881	0.224
387.7948	0.244
388.0016	0.2329
388.2084	0.2455
388.4151	0.2436
388.6219	0.2491
388.8286	0.2388
389.0353	0.2499
389.242	0.2372
389.4487	0.248
389.6553	0.2354
389.862	0.2427
390.0686	0.2408
390.2753	0.2474
390.4819	0.229
390.6885	0.2403
390.8951	0.2248
391.1016	0.2155
391.3082	0.231
391.5147	0.2164
391.7213	0.2296
391.9278	0.229
392.1343	0.2143
392.3408	0.2334
392.5473	0.2231
392.7537	0.2184
392.9602	0.2264
393.1666	0.2254
393.373	0.2026
393.5794	0.2307
393.7858	0.2136
393.9922	0.2252
394.1986	0.2367
394.4049	0.2287
394.6113	0.2065
394.8176	0.2382
395.0239	0.2297
395.2302	0.1861
395.4365	0.2188
395.6428	0.2327
395.8491	0.2055
396.0553	0.2161
396.2615	0.1965
396.4678	0.2158
396.674	0.1904
396.8802	0.1997
397.0863	0.2147
397.2925	0.2088
397.4987	0.2115
397.7048	0.2045
397.9109	0.2181
398.117	0.1934
398.3231	0.2085
398.5292	0.2421
398.7353	0.1906
398.9413	0.1977
399.1474	0.1909
399.3534	0.1889
399.5594	0.2019
399.7654	0.1956
399.9714	0.1884
400.1774	0.2158
400.3833	0.2131
400.5893	0.1971
400.7952	0.216
401.0011	0.1996
401.207	0.2008
401.4129	0.2116
401.6188	0.2088
401.8247	0.2094
402.0305	0.194
402.2364	0.1956
402.4422	0.2138
402.648	0.2032
402.8538	0.2146
403.0596	0.1938
403.2654	0.2054
403.4711	0.1935
403.6768	0.1886
403.8826	0.2034
404.0883	0.1808
404.294	0.2028
404.4997	0.199
404.7054	0.2025
404.911	0.1898
405.1167	0.1731
405.3223	0.1963
405.5279	0.1989
405.7335	0.1972
405.9391	0.2177
406.1447	0.213
406.3502	0.2056
406.5558	0.2013
406.7613	0.2159
406.9668	0.1855
407.1724	0.1961
407.3778	0.2091
407.5833	0.2115
407.7888	0.2187
407.9942	0.1911
408.1997	0.2179
408.4051	0.1853
408.6105	0.1783
408.8159	0.201
409.0213	0.1905
409.2267	0.1952
409.432	0.2054
409.6374	0.2081
409.8427	0.1914
410.048	0.2084
410.2533	0.2037
410.4586	0.1703
410.6639	0.1985
410.8691	0.1874
411.0744	0.2082
411.2796	0.1836
411.4848	0.1921
411.69	0.1897
411.8952	0.1911
412.1004	0.1946
412.3056	0.1858
412.5107	0.1686
412.7158	0.1787
412.921	0.2115
413.1261	0.2003
413.3312	0.1967
413.5362	0.2063
413.7413	0.1962
413.9464	0.208
414.1514	0.187
414.3564	0.1982
414.5614	0.1808
414.7664	0.2023
414.9714	0.1915
415.1764	0.2037
415.3813	0.1774
415.5863	0.1755
415.7912	0.1982
415.9961	0.1956
416.201	0.1876
416.4059	0.1961
416.6108	0.197
416.8156	0.1926
417.0205	0.1932
417.2253	0.1715
417.4301	0.1858
417.6349	0.1884
417.8397	0.1753
418.0445	0.1554
418.2492	0.1886
418.454	0.1977
418.6587	0.1896
418.8634	0.197
419.0681	0.2054
419.2728	0.1718
419.4775	0.1844
419.6822	0.1771
419.8868	0.1926
420.0915	0.1637
420.2961	0.1852
420.5007	0.1766
420.7053	0.1922
420.9099	0.1907
421.1144	0.1978
421.319	0.1833
421.5235	0.1994
421.728	0.1743
421.9325	0.1774
422.137	0.1932
422.3415	0.1783
422.546	0.1661
422.7504	0.1965
422.9549	0.1868
423.1593	0.169
423.3637	0.1661
423.5681	0.1681
423.7725	0.1515
423.9769	0.1728
424.1812	0.1724
424.3856	0.1715
424.5899	0.1713
424.7942	0.1677
424.9985	0.1553
425.2028	0.1587
425.4071	0.1562
425.6113	0.1679
425.8156	0.1888
426.0198	0.1548
426.224	0.1826
