Data from MonoPyChalIsomerACN10uM400nmA_Absorbance_12-08-41-832.txt Node
Date: Fri Jul 05 12:08:41 BST 2024
User: LASERRRRR
Spectrometer: FLMT03099
Trigger mode: 0
Integration Time (sec): 1.000000E-1
Scans to average: 1
Electric dark correction enabled: true
Nonlinearity correction enabled: false
Boxcar width: 0
XAxis mode: Wavelengths
Number of Pixels in Spectrum: 3648
>>>>>Begin Spectral Data<<<<<
179.3399	0.2405
179.5586	0.2405
179.7771	0.2405
179.9957	0.2614
180.2143	-0
180.4329	-0
180.6514	-0.2793
180.8699	1.1121
181.0885	0.3082
181.307	-0.0707
181.5255	-0.5639
181.744	0.9569
181.9625	-0.8916
182.181	-0
182.3994	-0.3755
182.6179	-0.4236
182.8363	-0.2872
183.0547	0.0662
183.2732	0.106
183.4916	0.0265
183.71	0.086
183.9284	0.0967
184.1467	0.2441
184.3651	-0.0729
184.5835	0.0067
184.8018	0.1013
185.0201	0.1663
185.2385	-0.0909
185.4568	0.1111
185.6751	-0.0258
185.8934	-0.1604
186.1117	0.2015
186.3299	0.3089
186.5482	0.0791
186.7664	0.1435
186.9847	0.2109
187.2029	0.103
187.4211	-0.2442
187.6393	0.0177
187.8575	-0.0881
188.0757	-0.0278
188.2939	0.0884
188.512	0.0046
188.7302	0.0263
188.9483	0.0556
189.1665	0.055
189.3846	0.1945
189.6027	0.0817
189.8208	0.0563
190.0389	0.1563
190.257	0.1395
190.475	0.3892
190.6931	0.1507
190.9111	0.4741
191.1292	0.1642
191.3472	0.4072
191.5652	0.1643
191.7832	0.577
192.0012	0.3987
192.2192	0.3326
192.4371	0.3121
192.6551	0.1352
192.873	0.4813
193.091	0.3938
193.3089	0.2828
193.5268	0.4188
193.7447	0.3395
193.9626	0.4629
194.1805	0.6912
194.3984	0.5403
194.6162	0.4746
194.8341	0.6314
195.0519	0.5635
195.2697	0.5904
195.4875	0.7996
195.7054	0.4467
195.9231	0.5541
196.1409	0.8196
196.3587	0.6741
196.5765	0.5745
196.7942	1.0635
197.012	0.5362
197.2297	0.6566
197.4474	0.606
197.6651	0.5511
197.8828	0.5453
198.1005	0.51
198.3182	0.6836
198.5358	0.6568
198.7535	0.9076
198.9711	0.6308
199.1888	0.6872
199.4064	0.9479
199.624	0.7657
199.8416	0.7241
200.0592	0.752
200.2767	0.5854
200.4943	0.7467
200.7119	0.7646
200.9294	0.7024
201.1469	0.7348
201.3645	0.6074
201.582	0.7426
201.7995	0.9002
202.017	0.6484
202.2344	0.5867
202.4519	0.5987
202.6694	0.9677
202.8868	0.7541
203.1042	0.6445
203.3217	0.6623
203.5391	0.8957
203.7565	0.7011
203.9739	0.7544
204.1913	0.8017
204.4086	0.7114
204.626	0.8161
204.8433	0.9878
205.0607	0.7198
205.278	0.8413
205.4953	0.8577
205.7126	0.6846
205.9299	0.9057
206.1472	0.7163
206.3644	0.6238
206.5817	0.803
206.7989	0.6994
207.0162	0.8386
207.2334	0.7606
207.4506	0.8615
207.6678	0.7904
207.885	0.8023
208.1022	0.7591
208.3194	0.8014
208.5365	0.6843
208.7537	0.7504
208.9708	0.705
209.1879	0.7436
209.405	0.6703
209.6222	0.7308
209.8392	0.7639
210.0563	0.7561
210.2734	0.7567
210.4905	0.6901
210.7075	0.8239
210.9245	0.7967
211.1416	0.7627
211.3586	0.812
211.5756	0.8132
211.7926	0.8048
212.0096	0.6383
212.2265	0.6676
212.4435	0.7002
212.6604	0.7444
212.8774	0.7959
213.0943	0.6643
213.3112	0.6893
213.5281	0.6468
213.745	0.7435
213.9619	0.6987
214.1788	0.6451
214.3956	0.6652
214.6125	0.6295
214.8293	0.7849
215.0461	0.6505
215.2629	0.6516
215.4798	0.6489
215.6965	0.6532
215.9133	0.7
216.1301	0.6396
216.3469	0.6735
216.5636	0.6415
216.7803	0.6445
216.9971	0.6263
217.2138	0.6324
217.4305	0.6127
217.6472	0.5947
217.8639	0.5615
218.0805	0.594
218.2972	0.5785
218.5138	0.6111
218.7305	0.6167
218.9471	0.5602
219.1637	0.5935
219.3803	0.5326
219.5969	0.58
219.8135	0.6307
220.0301	0.5583
220.2466	0.5674
220.4632	0.5334
220.6797	0.5736
220.8962	0.5236
221.1127	0.5442
221.3292	0.5189
221.5457	0.5508
221.7622	0.5179
221.9787	0.5397
222.1951	0.5581
222.4116	0.5286
222.628	0.5879
222.8444	0.5539
223.0608	0.5531
223.2772	0.5492
223.4936	0.5609
223.71	0.5354
223.9264	0.5411
224.1427	0.5263
224.3591	0.6039
224.5754	0.5383
224.7917	0.5353
225.008	0.5823
225.2243	0.5402
225.4406	0.5529
225.6569	0.541
225.8732	0.5817
226.0894	0.5506
226.3057	0.5529
226.5219	0.58
226.7381	0.5803
226.9543	0.5768
227.1705	0.5415
227.3867	0.5589
227.6029	0.5786
227.8191	0.5635
228.0352	0.5647
228.2513	0.5733
228.4675	0.5961
228.6836	0.5963
228.8997	0.6073
229.1158	0.5704
229.3319	0.5715
229.548	0.6028
229.764	0.6171
229.9801	0.5579
230.1961	0.5962
230.4121	0.5673
230.6282	0.5953
230.8442	0.5838
231.0602	0.5857
231.2761	0.5728
231.4921	0.5861
231.7081	0.5534
231.924	0.5917
232.14	0.5775
232.3559	0.5548
232.5718	0.5887
232.7877	0.5468
233.0036	0.5876
233.2195	0.552
233.4353	0.5999
233.6512	0.5832
233.867	0.5777
234.0829	0.5379
234.2987	0.5746
234.5145	0.5291
234.7303	0.5691
234.9461	0.5728
235.1619	0.5666
235.3776	0.5762
235.5934	0.5435
235.8091	0.5788
236.0249	0.5506
236.2406	0.5458
236.4563	0.5565
236.672	0.5581
236.8877	0.5393
237.1034	0.5584
237.319	0.5406
237.5347	0.5735
237.7503	0.5549
237.966	0.5502
238.1816	0.5667
238.3972	0.5638
238.6128	0.5371
238.8284	0.5335
239.0439	0.5566
239.2595	0.5371
239.475	0.5323
239.6906	0.5317
239.9061	0.547
240.1216	0.5328
240.3371	0.5545
240.5526	0.5355
240.7681	0.509
240.9836	0.545
241.199	0.4775
241.4145	0.5202
241.6299	0.4889
241.8453	0.492
242.0607	0.4921
242.2761	0.4822
242.4915	0.4648
242.7069	0.4563
242.9223	0.4459
243.1376	0.4192
243.353	0.4347
243.5683	0.4333
243.7836	0.4193
243.9989	0.4187
244.2142	0.4149
244.4295	0.3855
244.6448	0.3906
244.86	0.3769
245.0753	0.3535
245.2905	0.369
245.5057	0.3505
245.721	0.3547
245.9362	0.3137
246.1514	0.3385
246.3665	0.3416
246.5817	0.3196
246.7969	0.3114
247.012	0.3255
247.2271	0.3148
247.4423	0.3205
247.6574	0.3037
247.8725	0.297
248.0876	0.2872
248.3026	0.2995
248.5177	0.2733
248.7328	0.2742
248.9478	0.2781
249.1628	0.2617
249.3779	0.2628
249.5929	0.2709
249.8079	0.2531
250.0228	0.2543
250.2378	0.2601
250.4528	0.2461
250.6677	0.2222
250.8827	0.2312
251.0976	0.2441
251.3125	0.2419
251.5274	0.2448
251.7423	0.2359
251.9572	0.2157
252.172	0.2055
252.3869	0.2238
252.6017	0.2162
252.8166	0.2172
253.0314	0.2087
253.2462	0.2064
253.461	0.2164
253.6758	0.2095
253.8906	0.216
254.1053	0.1902
254.3201	0.209
254.5348	0.1993
254.7496	0.2069
254.9643	0.1989
255.179	0.1984
255.3937	0.2136
255.6083	0.19
255.823	0.1844
256.0377	0.1865
256.2523	0.1979
256.467	0.194
256.6816	0.1889
256.8962	0.1902
257.1108	0.1924
257.3254	0.2011
257.54	0.1876
257.7545	0.2005
257.9691	0.203
258.1836	0.1902
258.3981	0.1792
258.6127	0.1979
258.8272	0.192
259.0417	0.1851
259.2561	0.1928
259.4706	0.1783
259.6851	0.1806
259.8995	0.1964
260.114	0.1874
260.3284	0.1955
260.5428	0.1846
260.7572	0.1962
260.9716	0.1825
261.186	0.1934
261.4003	0.19
261.6147	0.1934
261.829	0.1915
262.0433	0.1715
262.2577	0.1712
262.472	0.1813
262.6863	0.1925
262.9005	0.1717
263.1148	0.1833
263.3291	0.1904
263.5433	0.1853
263.7576	0.1853
263.9718	0.1857
264.186	0.1921
264.4002	0.1849
264.6144	0.1783
264.8286	0.18
265.0427	0.1815
265.2569	0.1886
265.471	0.1757
265.6851	0.1645
265.8993	0.1888
266.1134	0.1779
266.3275	0.1864
266.5415	0.1815
266.7556	0.1857
266.9697	0.186
267.1837	0.1912
267.3978	0.1946
267.6118	0.1891
267.8258	0.1918
268.0398	0.1953
268.2538	0.1885
268.4677	0.1959
268.6817	0.1842
268.8957	0.1858
269.1096	0.18
269.3235	0.1736
269.5374	0.1759
269.7514	0.1669
269.9652	0.1868
270.1791	0.1714
270.393	0.1777
270.6068	0.1727
270.8207	0.1865
271.0345	0.1618
271.2483	0.1718
271.4622	0.1826
271.676	0.1744
271.8897	0.1754
272.1035	0.1773
272.3173	0.1749
272.531	0.1646
272.7448	0.1755
272.9585	0.1675
273.1722	0.167
273.3859	0.1669
273.5996	0.1698
273.8133	0.1627
274.0269	0.1778
274.2406	0.1753
274.4542	0.1621
274.6679	0.1672
274.8815	0.1671
275.0951	0.1824
275.3087	0.1725
275.5223	0.1743
275.7358	0.1757
275.9494	0.1681
276.1629	0.1753
276.3765	0.172
276.59	0.1786
276.8035	0.1653
277.017	0.1736
277.2305	0.1807
277.444	0.1694
277.6574	0.1722
277.8709	0.1609
278.0843	0.1791
278.2978	0.1722
278.5112	0.184
278.7246	0.1666
278.938	0.166
279.1513	0.1783
279.3647	0.1688
279.5781	0.1779
279.7914	0.1749
280.0047	0.1863
280.2181	0.1816
280.4314	0.1743
280.6447	0.1895
280.8579	0.1705
281.0712	0.1655
281.2845	0.1903
281.4977	0.182
281.711	0.172
281.9242	0.1791
282.1374	0.1616
282.3506	0.1803
282.5638	0.1758
282.7769	0.1763
282.9901	0.1872
283.2033	0.1836
283.4164	0.1716
283.6295	0.1758
283.8426	0.1814
284.0557	0.1712
284.2688	0.1714
284.4819	0.1752
284.695	0.1815
284.908	0.1955
285.1211	0.1845
285.3341	0.1734
285.5471	0.1952
285.7601	0.189
285.9731	0.1949
286.1861	0.1978
286.3991	0.1802
286.612	0.1923
286.825	0.1905
287.0379	0.1817
287.2508	0.1763
287.4637	0.1886
287.6766	0.1837
287.8895	0.1715
288.1024	0.1879
288.3152	0.1918
288.5281	0.1766
288.7409	0.1715
288.9538	0.1957
289.1666	0.191
289.3794	0.177
289.5922	0.1796
289.8049	0.17
290.0177	0.1884
290.2304	0.1791
290.4432	0.1811
290.6559	0.1896
290.8686	0.1851
291.0813	0.1756
291.294	0.1896
291.5067	0.1904
291.7194	0.1851
291.932	0.1895
292.1447	0.1905
292.3573	0.1866
292.5699	0.198
292.7825	0.1804
292.9951	0.1999
293.2077	0.1966
293.4203	0.1814
293.6328	0.1883
293.8454	0.1794
294.0579	0.1835
294.2704	0.179
294.4829	0.1823
294.6954	0.1893
294.9079	0.171
295.1204	0.1956
295.3328	0.1761
295.5453	0.1664
295.7577	0.1679
295.9701	0.1824
296.1825	0.1833
296.3949	0.1788
296.6073	0.185
296.8197	0.1871
297.0321	0.1763
297.2444	0.1802
297.4567	0.1809
297.6691	0.1809
297.8814	0.1842
298.0937	0.1856
298.306	0.186
298.5182	0.1859
298.7305	0.1774
298.9428	0.1886
299.155	0.1686
299.3672	0.1623
299.5794	0.1776
299.7916	0.1756
300.0038	0.1739
300.216	0.1614
300.4282	0.1693
300.6403	0.1938
300.8525	0.1893
301.0646	0.1766
301.2767	0.1864
301.4888	0.1705
301.7009	0.176
301.913	0.1894
302.125	0.1843
302.3371	0.1936
302.5491	0.1795
302.7612	0.1785
302.9732	0.1713
303.1852	0.1783
303.3972	0.1803
303.6092	0.1779
303.8211	0.178
304.0331	0.1696
304.245	0.168
304.457	0.1668
304.6689	0.1549
304.8808	0.1637
305.0927	0.1638
305.3046	0.1612
305.5164	0.1665
305.7283	0.1655
305.9401	0.1541
306.152	0.1583
306.3638	0.1539
306.5756	0.1567
306.7874	0.1524
306.9992	0.1478
307.2109	0.1512
307.4227	0.1563
307.6344	0.1461
307.8462	0.1344
308.0579	0.1399
308.2696	0.157
308.4813	0.1313
308.693	0.1519
308.9046	0.1354
309.1163	0.1354
309.328	0.1332
309.5396	0.133
309.7512	0.1387
309.9628	0.1288
310.1744	0.1316
310.386	0.1263
310.5976	0.1275
310.8091	0.1292
311.0207	0.1269
311.2322	0.121
311.4437	0.126
311.6552	0.1266
311.8667	0.1259
312.0782	0.1247
312.2897	0.1067
312.5012	0.1077
312.7126	0.127
312.924	0.1102
313.1355	0.1246
313.3469	0.1115
313.5583	0.1019
313.7696	0.1113
313.981	0.114
314.1924	0.1122
314.4037	0.1089
314.6151	0.1148
314.8264	0.1111
315.0377	0.0989
315.249	0.1016
315.4603	0.0992
315.6716	0.114
315.8828	0.1001
316.0941	0.1014
316.3053	0.1039
316.5165	0.1021
316.7277	0.1016
316.9389	0.099
317.1501	0.097
317.3613	0.0837
317.5724	0.1138
317.7836	0.1022
317.9947	0.1127
318.2058	0.0977
318.417	0.1105
318.6281	0.1037
318.8391	0.1053
319.0502	0.1056
319.2613	0.0937
319.4723	0.1089
319.6834	0.0983
319.8944	0.1016
320.1054	0.1049
320.3164	0.1093
320.5274	0.0941
320.7383	0.0938
320.9493	0.1046
321.1602	0.1036
321.3712	0.0882
321.5821	0.1074
321.793	0.0971
322.0039	0.1066
322.2148	0.102
322.4257	0.1009
322.6365	0.0996
322.8474	0.091
323.0582	0.1129
323.269	0.1095
323.4798	0.1056
323.6906	0.0926
323.9014	0.1005
324.1122	0.0975
324.3229	0.1014
324.5337	0.1107
324.7444	0.1062
324.9551	0.1196
325.1658	0.114
325.3765	0.0999
325.5872	0.0994
325.7979	0.1204
326.0085	0.0884
326.2192	0.0967
326.4298	0.1034
326.6404	0.1164
326.851	0.105
327.0616	0.1041
327.2722	0.1097
327.4828	0.122
327.6933	0.1096
327.9039	0.1077
328.1144	0.1084
328.3249	0.0995
328.5354	0.0938
328.7459	0.1118
328.9564	0.1059
329.1669	0.1039
329.3773	0.1067
329.5878	0.0973
329.7982	0.1025
330.0086	0.0912
330.219	0.102
330.4294	0.1003
330.6398	0.1026
330.8502	0.1119
331.0605	0.1114
331.2708	0.0998
331.4812	0.1032
331.6915	0.099
331.9018	0.0982
332.1121	0.1011
332.3224	0.1108
332.5326	0.1095
332.7429	0.1097
332.9531	0.1112
333.1633	0.1212
333.3735	0.1082
333.5837	0.1077
333.7939	0.1018
334.0041	0.1194
334.2143	0.1067
334.4244	0.1132
334.6346	0.0995
334.8447	0.1088
335.0548	0.1154
335.2649	0.1064
335.475	0.1034
335.685	0.1106
335.8951	0.1052
336.1051	0.0955
336.3152	0.1062
336.5252	0.0994
336.7352	0.1122
336.9452	0.1133
337.1552	0.12
337.3652	0.1084
337.5751	0.11
337.7851	0.1049
337.995	0.1112
338.2049	0.0943
338.4148	0.1283
338.6247	0.1162
338.8346	0.111
339.0445	0.1089
339.2543	0.1189
339.4642	0.1214
339.674	0.1035
339.8838	0.1184
340.0936	0.1283
340.3034	0.13
340.5132	0.127
340.7229	0.1144
340.9327	0.1147
341.1424	0.1127
341.3522	0.1093
341.5619	0.1154
341.7716	0.1214
341.9813	0.1251
342.1909	0.1207
342.4006	0.1153
342.6102	0.1073
342.8199	0.1146
343.0295	0.1297
343.2391	0.1101
343.4487	0.1192
343.6583	0.1141
343.8679	0.1328
344.0774	0.1226
344.287	0.1231
344.4965	0.126
344.706	0.1285
344.9155	0.1399
345.125	0.1128
345.3345	0.1232
345.544	0.142
345.7534	0.1255
345.9629	0.1271
346.1723	0.1394
346.3817	0.1242
346.5911	0.129
346.8005	0.1231
347.0099	0.1197
347.2193	0.1268
347.4286	0.1493
347.638	0.127
347.8473	0.1219
348.0566	0.1291
348.2659	0.1358
348.4752	0.1296
348.6845	0.1258
348.8937	0.138
349.103	0.1256
349.3122	0.1332
349.5214	0.1341
349.7306	0.1429
349.9398	0.1374
350.149	0.1367
350.3582	0.1439
350.5674	0.1449
350.7765	0.1353
350.9856	0.1394
351.1948	0.1351
351.4039	0.148
351.613	0.147
351.822	0.1546
352.0311	0.1409
352.2402	0.1276
352.4492	0.166
352.6582	0.1459
352.8672	0.1497
353.0762	0.1435
353.2852	0.1541
353.4942	0.1448
353.7032	0.1618
353.9121	0.1457
354.1211	0.1346
354.33	0.1639
354.5389	0.1613
354.7478	0.1654
354.9567	0.166
355.1655	0.1538
355.3744	0.144
355.5833	0.1653
355.7921	0.149
356.0009	0.1536
356.2097	0.1446
356.4185	0.1404
356.6273	0.163
356.8361	0.1653
357.0448	0.1495
357.2536	0.1444
357.4623	0.1777
357.671	0.1695
357.8797	0.1585
358.0884	0.1762
358.2971	0.151
358.5057	0.1559
358.7144	0.1634
358.923	0.1665
359.1316	0.1685
359.3402	0.1774
359.5488	0.177
359.7574	0.1714
359.966	0.1718
360.1746	0.1535
360.3831	0.1688
360.5916	0.1822
360.8002	0.1855
361.0087	0.1762
361.2172	0.1829
361.4256	0.1795
361.6341	0.1762
361.8426	0.1735
362.051	0.1835
362.2594	0.1821
362.4678	0.1892
362.6762	0.1827
362.8846	0.1943
363.093	0.1807
363.3014	0.1894
363.5097	0.1846
363.718	0.1866
363.9264	0.1981
364.1347	0.1994
364.343	0.1917
364.5513	0.1918
364.7595	0.2041
364.9678	0.1945
365.176	0.1967
365.3842	0.1898
365.5925	0.1965
365.8007	0.2005
366.0089	0.1969
366.217	0.1809
366.4252	0.2051
366.6333	0.2099
366.8415	0.1789
367.0496	0.1867
367.2577	0.2168
367.4658	0.2026
367.6739	0.1985
367.882	0.2102
368.09	0.2186
368.2981	0.1984
368.5061	0.2154
368.7141	0.2173
368.9221	0.205
369.1301	0.1989
369.3381	0.2175
369.5461	0.2043
369.754	0.2241
369.962	0.2178
370.1699	0.1987
370.3778	0.2274
370.5857	0.2298
370.7936	0.2302
371.0015	0.219
371.2093	0.2234
371.4172	0.2037
371.625	0.2012
371.8328	0.238
372.0406	0.2214
372.2484	0.2212
372.4562	0.2226
372.664	0.2163
372.8717	0.1962
373.0795	0.2184
373.2872	0.2314
373.4949	0.2349
373.7026	0.2299
373.9103	0.2265
374.118	0.2023
374.3256	0.2227
374.5333	0.2431
374.7409	0.2213
374.9485	0.2342
375.1561	0.2271
375.3637	0.2242
375.5713	0.2393
375.7789	0.2295
375.9864	0.2256
376.194	0.2437
376.4015	0.2316
376.609	0.2264
376.8165	0.2394
377.024	0.2308
377.2315	0.237
377.4389	0.2329
377.6464	0.2286
377.8538	0.2337
378.0612	0.2339
378.2686	0.2612
378.476	0.2311
378.6834	0.2403
378.8908	0.2243
379.0981	0.2631
379.3055	0.2609
379.5128	0.243
379.7201	0.2506
379.9274	0.2511
380.1347	0.2409
380.342	0.2349
380.5492	0.257
380.7565	0.261
380.9637	0.2602
381.1709	0.2556
381.3781	0.2581
381.5853	0.2636
381.7925	0.2491
381.9997	0.2389
382.2068	0.2632
382.4139	0.2564
382.6211	0.2457
382.8282	0.2719
383.0353	0.2437
383.2424	0.275
383.4494	0.2461
383.6565	0.2416
383.8635	0.2475
384.0706	0.274
384.2776	0.255
384.4846	0.2414
384.6916	0.2803
384.8986	0.2596
385.1055	0.2438
385.3125	0.2571
385.5194	0.2602
385.7263	0.26
385.9333	0.2534
386.1402	0.2564
386.347	0.2664
386.5539	0.24
386.7608	0.2591
386.9676	0.2382
387.1744	0.2561
387.3813	0.2396
387.5881	0.2471
387.7948	0.2624
388.0016	0.2496
388.2084	0.2417
388.4151	0.2636
388.6219	0.263
388.8286	0.2433
389.0353	0.238
389.242	0.2638
389.4487	0.2468
389.6553	0.2426
389.862	0.259
390.0686	0.2477
390.2753	0.2488
390.4819	0.2485
390.6885	0.2681
390.8951	0.2257
391.1016	0.2484
391.3082	0.2344
391.5147	0.2451
391.7213	0.2193
391.9278	0.2323
392.1343	0.2311
392.3408	0.2438
392.5473	0.226
392.7537	0.2372
392.9602	0.2319
393.1666	0.2261
393.373	0.2179
393.5794	0.2228
393.7858	0.2353
393.9922	0.2412
394.1986	0.2482
394.4049	0.2356
394.6113	0.2274
394.8176	0.2305
395.0239	0.2353
395.2302	0.2178
395.4365	0.1998
395.6428	0.2341
395.8491	0.2124
396.0553	0.2269
396.2615	0.2241
396.4678	0.2196
396.674	0.2103
396.8802	0.2148
397.0863	0.2259
397.2925	0.2011
397.4987	0.2212
397.7048	0.2171
397.9109	0.2304
398.117	0.2021
398.3231	0.2221
398.5292	0.2291
398.7353	0.219
398.9413	0.2103
399.1474	0.2011
399.3534	0.2129
399.5594	0.2211
399.7654	0.2145
399.9714	0.208
400.1774	0.2103
400.3833	0.2271
400.5893	0.205
400.7952	0.2202
401.0011	0.2186
401.207	0.2055
401.4129	0.2099
401.6188	0.2168
401.8247	0.2224
402.0305	0.21
402.2364	0.2359
402.4422	0.2196
402.648	0.1965
402.8538	0.2182
403.0596	0.2248
403.2654	0.2284
403.4711	0.2161
403.6768	0.2071
403.8826	0.2257
404.0883	0.2001
404.294	0.2115
404.4997	0.1962
404.7054	0.2011
404.911	0.2195
405.1167	0.2038
405.3223	0.22
405.5279	0.2157
405.7335	0.2373
405.9391	0.2082
406.1447	0.2249
406.3502	0.2223
406.5558	0.2202
406.7613	0.2324
406.9668	0.2133
407.1724	0.2094
407.3778	0.2118
407.5833	0.2117
407.7888	0.2073
407.9942	0.2122
408.1997	0.214
408.4051	0.2047
408.6105	0.2003
408.8159	0.2093
409.0213	0.2125
409.2267	0.2078
409.432	0.2283
409.6374	0.1931
409.8427	0.2086
410.048	0.2212
410.2533	0.2292
410.4586	0.2117
410.6639	0.2211
410.8691	0.2062
411.0744	0.2132
411.2796	0.2149
411.4848	0.218
411.69	0.2183
411.8952	0.1981
412.1004	0.2114
412.3056	0.2095
412.5107	0.1874
412.7158	0.2036
412.921	0.1999
413.1261	0.2156
413.3312	0.2048
413.5362	0.2143
413.7413	0.2007
413.9464	0.2222
414.1514	0.2045
414.3564	0.2016
414.5614	0.181
414.7664	0.1984
414.9714	0.2257
415.1764	0.2144
415.3813	0.2112
415.5863	0.213
415.7912	0.196
415.9961	0.2167
416.201	0.2217
416.4059	0.2013
416.6108	0.2152
416.8156	0.2057
417.0205	0.1977
417.2253	0.1992
417.4301	0.2034
417.6349	0.2024
417.8397	0.1928
418.0445	0.2094
418.2492	0.1934
418.454	0.1841
418.6587	0.208
418.8634	0.1997
419.0681	0.2072
419.2728	0.1913
419.4775	0.1994
419.6822	0.2262
419.8868	0.2004
420.0915	0.1699
420.2961	0.1887
420.5007	0.1849
420.7053	0.1845
420.9099	0.1989
421.1144	0.21
421.319	0.1907
421.5235	0.2188
421.728	0.1788
421.9325	0.1925
422.137	0.2022
422.3415	0.2063
422.546	0.1803
422.7504	0.2001
422.9549	0.1868
423.1593	0.1794
423.3637	0.1837
423.5681	0.1778
423.7725	0.1803
423.9769	0.1779
424.1812	0.1938
424.3856	0.1778
424.5899	0.1832
424.7942	0.1743
424.9985	0.1744
425.2028	0.1747
425.4071	0.1715
425.6113	0.1654
425.8156	0.1962
426.0198	0.1787
426.224	0.17
426.4282	0.1924
426.6324	0.1777
