Data from MonoPyChalIsomerACN10uM400nmA_Absorbance_12-08-46-228.txt Node
Date: Fri Jul 05 12:08:46 BST 2024
User: LASERRRRR
Spectrometer: FLMT03099
Trigger mode: 0
Integration Time (sec): 1.000000E-1
Scans to average: 1
Electric dark correction enabled: true
Nonlinearity correction enabled: false
Boxcar width: 0
XAxis mode: Wavelengths
Number of Pixels in Spectrum: 3648
>>>>>Begin Spectral Data<<<<<
179.3399	0.2521
179.5586	0.2521
179.7771	0.2521
179.9957	0.3129
180.2143	-0
180.4329	-0.651
180.6514	-0
180.8699	0.237
181.0885	0.354
181.307	0.1285
181.5255	-0.3535
181.744	0.6937
181.9625	0.5039
182.181	-0
182.3994	-0.4894
182.6179	0.0773
182.8363	-0.1855
183.0547	0.1546
183.2732	0.8304
183.4916	0.1342
183.71	0.3076
183.9284	0.153
184.1467	-0.0057
184.3651	-0.0856
184.5835	0.0794
184.8018	0.114
185.0201	-0.1097
185.2385	0.0646
185.4568	0.064
185.6751	0.2218
185.8934	-0.0786
186.1117	0.2972
186.3299	-0.0931
186.5482	0.0449
186.7664	0.0802
186.9847	0.0943
187.2029	0.1822
187.4211	-0.3861
187.6393	-0.1341
187.8575	-0.0338
188.0757	0.0293
188.2939	0.179
188.512	0.0933
188.7302	0.133
188.9483	-0.004
189.1665	0.2023
189.3846	0.3051
189.6027	0.1006
189.8208	0.2302
190.0389	0.1049
190.257	0.0518
190.475	0.2587
190.6931	0.1814
190.9111	0.5356
191.1292	0.3842
191.3472	0.5908
191.5652	0.1806
191.7832	0.4206
192.0012	0.4031
192.2192	0.5712
192.4371	0.435
192.6551	0.3694
192.873	0.2934
193.091	0.3651
193.3089	0.4241
193.5268	0.5984
193.7447	0.3877
193.9626	0.6492
194.1805	0.372
194.3984	0.356
194.6162	0.5062
194.8341	0.5219
195.0519	0.6136
195.2697	0.5893
195.4875	0.6235
195.7054	0.5329
195.9231	0.435
196.1409	0.5272
196.3587	0.627
196.5765	0.7394
196.7942	0.8377
197.012	0.753
197.2297	0.6026
197.4474	0.5653
197.6651	0.8131
197.8828	0.6172
198.1005	0.8693
198.3182	0.766
198.5358	0.9396
198.7535	0.6659
198.9711	0.6709
199.1888	0.6471
199.4064	0.9533
199.624	0.7604
199.8416	0.7194
200.0592	0.7555
200.2767	0.6135
200.4943	0.5635
200.7119	0.6583
200.9294	0.8029
201.1469	0.894
201.3645	0.6927
201.582	0.8867
201.7995	0.9149
202.017	0.6737
202.2344	0.5749
202.4519	0.6586
202.6694	0.9491
202.8868	0.8327
203.1042	0.7054
203.3217	0.6437
203.5391	0.8459
203.7565	0.6953
203.9739	0.6585
204.1913	1.0962
204.4086	0.6756
204.626	0.8564
204.8433	1.0016
205.0607	0.7408
205.278	0.8142
205.4953	0.6962
205.7126	0.7054
205.9299	0.957
206.1472	0.7134
206.3644	0.6907
206.5817	0.7348
206.7989	0.6772
207.0162	0.7312
207.2334	0.7127
207.4506	0.7853
207.6678	0.7874
207.885	0.8695
208.1022	0.6775
208.3194	0.7047
208.5365	0.7149
208.7537	0.706
208.9708	0.7642
209.1879	0.7745
209.405	0.7042
209.6222	0.9434
209.8392	0.7069
210.0563	0.7698
210.2734	0.7503
210.4905	0.8391
210.7075	0.7957
210.9245	0.7901
211.1416	0.8059
211.3586	0.7521
211.5756	0.6925
211.7926	0.7294
212.0096	0.6647
212.2265	0.692
212.4435	0.7208
212.6604	0.721
212.8774	0.743
213.0943	0.7077
213.3112	0.718
213.5281	0.6129
213.745	0.8083
213.9619	0.6663
214.1788	0.6901
214.3956	0.6816
214.6125	0.5576
214.8293	0.7137
215.0461	0.6948
215.2629	0.6837
215.4798	0.644
215.6965	0.7084
215.9133	0.6499
216.1301	0.6189
216.3469	0.6625
216.5636	0.6444
216.7803	0.641
216.9971	0.6535
217.2138	0.7131
217.4305	0.6022
217.6472	0.5991
217.8639	0.6152
218.0805	0.6056
218.2972	0.5456
218.5138	0.5571
218.7305	0.5805
218.9471	0.5647
219.1637	0.5698
219.3803	0.5673
219.5969	0.5608
219.8135	0.5435
220.0301	0.566
220.2466	0.549
220.4632	0.5416
220.6797	0.5497
220.8962	0.558
221.1127	0.5577
221.3292	0.5345
221.5457	0.5877
221.7622	0.5372
221.9787	0.533
222.1951	0.5444
222.4116	0.5193
222.628	0.5528
222.8444	0.5557
223.0608	0.515
223.2772	0.5369
223.4936	0.5296
223.71	0.5969
223.9264	0.5332
224.1427	0.5388
224.3591	0.5733
224.5754	0.534
224.7917	0.5172
225.008	0.5892
225.2243	0.5406
225.4406	0.5386
225.6569	0.5442
225.8732	0.5606
226.0894	0.5544
226.3057	0.578
226.5219	0.535
226.7381	0.5954
226.9543	0.5852
227.1705	0.5547
227.3867	0.5698
227.6029	0.5519
227.8191	0.5628
228.0352	0.5421
228.2513	0.547
228.4675	0.5971
228.6836	0.5858
228.8997	0.5641
229.1158	0.5616
229.3319	0.5657
229.548	0.5768
229.764	0.6021
229.9801	0.5552
230.1961	0.578
230.4121	0.5642
230.6282	0.5639
230.8442	0.5691
231.0602	0.5435
231.2761	0.5498
231.4921	0.5899
231.7081	0.5754
231.924	0.6106
232.14	0.5911
232.3559	0.5788
232.5718	0.603
232.7877	0.5545
233.0036	0.5762
233.2195	0.5905
233.4353	0.5868
233.6512	0.5736
233.867	0.5684
234.0829	0.5623
234.2987	0.5898
234.5145	0.5403
234.7303	0.5835
234.9461	0.5806
235.1619	0.5946
235.3776	0.5643
235.5934	0.5323
235.8091	0.559
236.0249	0.5476
236.2406	0.5514
236.4563	0.5613
236.672	0.5687
236.8877	0.5432
237.1034	0.5395
237.319	0.5293
237.5347	0.5834
237.7503	0.5501
237.966	0.5289
238.1816	0.5565
238.3972	0.5415
238.6128	0.5352
238.8284	0.5441
239.0439	0.5447
239.2595	0.5317
239.475	0.5102
239.6906	0.5208
239.9061	0.5083
240.1216	0.545
240.3371	0.5351
240.5526	0.5383
240.7681	0.5286
240.9836	0.5501
241.199	0.4809
241.4145	0.5067
241.6299	0.4982
241.8453	0.5309
242.0607	0.485
242.2761	0.4886
242.4915	0.4699
242.7069	0.4596
242.9223	0.449
243.1376	0.4424
243.353	0.4526
243.5683	0.4481
243.7836	0.4416
243.9989	0.4263
244.2142	0.421
244.4295	0.39
244.6448	0.3956
244.86	0.404
245.0753	0.3916
245.2905	0.3944
245.5057	0.3645
245.721	0.3716
245.9362	0.3672
246.1514	0.3621
246.3665	0.3225
246.5817	0.3423
246.7969	0.3287
247.012	0.3367
247.2271	0.3181
247.4423	0.3094
247.6574	0.3124
247.8725	0.2995
248.0876	0.3065
248.3026	0.2905
248.5177	0.2883
248.7328	0.2858
248.9478	0.2818
249.1628	0.2698
249.3779	0.2543
249.5929	0.2684
249.8079	0.2416
250.0228	0.2725
250.2378	0.2506
250.4528	0.2406
250.6677	0.2511
250.8827	0.249
251.0976	0.245
251.3125	0.2395
251.5274	0.2306
251.7423	0.2339
251.9572	0.2327
252.172	0.2308
252.3869	0.2157
252.6017	0.2146
252.8166	0.2173
253.0314	0.2093
253.2462	0.2136
253.461	0.2065
253.6758	0.194
253.8906	0.2169
254.1053	0.1924
254.3201	0.2124
254.5348	0.2071
254.7496	0.2128
254.9643	0.2005
255.179	0.1906
255.3937	0.2055
255.6083	0.1914
255.823	0.203
256.0377	0.1866
256.2523	0.1992
256.467	0.2021
256.6816	0.199
256.8962	0.188
257.1108	0.1974
257.3254	0.1987
257.54	0.1894
257.7545	0.2061
257.9691	0.2062
258.1836	0.1922
258.3981	0.1803
258.6127	0.1889
258.8272	0.1845
259.0417	0.177
259.2561	0.19
259.4706	0.176
259.6851	0.1883
259.8995	0.1864
260.114	0.1723
260.3284	0.1978
260.5428	0.1925
260.7572	0.2057
260.9716	0.1859
261.186	0.1897
261.4003	0.192
261.6147	0.1933
261.829	0.2098
262.0433	0.1881
262.2577	0.1785
262.472	0.1992
262.6863	0.2002
262.9005	0.1711
263.1148	0.1793
263.3291	0.1751
263.5433	0.1705
263.7576	0.1925
263.9718	0.2022
264.186	0.2021
264.4002	0.1899
264.6144	0.1904
264.8286	0.1993
265.0427	0.186
265.2569	0.1991
265.471	0.1803
265.6851	0.1758
265.8993	0.1846
266.1134	0.1852
266.3275	0.1741
266.5415	0.1883
266.7556	0.182
266.9697	0.2027
267.1837	0.197
267.3978	0.2023
267.6118	0.1905
267.8258	0.2055
268.0398	0.1936
268.2538	0.1905
268.4677	0.1952
268.6817	0.2005
268.8957	0.1883
269.1096	0.1892
269.3235	0.1966
269.5374	0.1803
269.7514	0.1784
269.9652	0.1927
270.1791	0.1905
270.393	0.1811
270.6068	0.1907
270.8207	0.1873
271.0345	0.1774
271.2483	0.1797
271.4622	0.1838
271.676	0.1802
271.8897	0.1867
272.1035	0.1674
272.3173	0.1943
272.531	0.1803
272.7448	0.1696
272.9585	0.1791
273.1722	0.1921
273.3859	0.1807
273.5996	0.1881
273.8133	0.1912
274.0269	0.1761
274.2406	0.2001
274.4542	0.183
274.6679	0.1846
274.8815	0.1884
275.0951	0.1925
275.3087	0.1865
275.5223	0.1814
275.7358	0.1868
275.9494	0.184
276.1629	0.1858
276.3765	0.1935
276.59	0.1907
276.8035	0.1822
277.017	0.1775
277.2305	0.1866
277.444	0.1737
277.6574	0.1811
277.8709	0.1723
278.0843	0.1945
278.2978	0.1892
278.5112	0.1875
278.7246	0.1823
278.938	0.1911
279.1513	0.1916
279.3647	0.1861
279.5781	0.1892
279.7914	0.1933
280.0047	0.191
280.2181	0.1941
280.4314	0.1773
280.6447	0.1914
280.8579	0.1886
281.0712	0.1959
281.2845	0.1985
281.4977	0.1909
281.711	0.1947
281.9242	0.194
282.1374	0.1879
282.3506	0.1901
282.5638	0.1919
282.7769	0.1817
282.9901	0.1934
283.2033	0.1839
283.4164	0.1902
283.6295	0.19
283.8426	0.1965
284.0557	0.176
284.2688	0.1823
284.4819	0.1857
284.695	0.1748
284.908	0.1857
285.1211	0.1906
285.3341	0.1804
285.5471	0.198
285.7601	0.1793
285.9731	0.1966
286.1861	0.1953
286.3991	0.1883
286.612	0.1839
286.825	0.1899
287.0379	0.1849
287.2508	0.1678
287.4637	0.1915
287.6766	0.1666
287.8895	0.1777
288.1024	0.1821
288.3152	0.1938
288.5281	0.172
288.7409	0.1804
288.9538	0.1724
289.1666	0.1907
289.3794	0.1841
289.5922	0.1666
289.8049	0.1752
290.0177	0.1773
290.2304	0.1881
290.4432	0.172
290.6559	0.1878
290.8686	0.1696
291.0813	0.1611
291.294	0.1988
291.5067	0.1681
291.7194	0.164
291.932	0.1791
292.1447	0.1913
292.3573	0.1791
292.5699	0.1809
292.7825	0.1716
292.9951	0.1867
293.2077	0.18
293.4203	0.1828
293.6328	0.174
293.8454	0.1676
294.0579	0.1765
294.2704	0.1692
294.4829	0.1749
294.6954	0.1768
294.9079	0.1763
295.1204	0.1801
295.3328	0.1664
295.5453	0.1683
295.7577	0.1715
295.9701	0.1635
296.1825	0.1705
296.3949	0.1609
296.6073	0.1745
296.8197	0.1613
297.0321	0.1648
297.2444	0.1621
297.4567	0.1694
297.6691	0.1689
297.8814	0.1649
298.0937	0.1577
298.306	0.1678
298.5182	0.1786
298.7305	0.1654
298.9428	0.1618
299.155	0.1663
299.3672	0.1471
299.5794	0.1639
299.7916	0.1603
300.0038	0.1645
300.216	0.1586
300.4282	0.1639
300.6403	0.1752
300.8525	0.1672
301.0646	0.1679
301.2767	0.183
301.4888	0.1607
301.7009	0.1749
301.913	0.1787
302.125	0.1608
302.3371	0.1761
302.5491	0.1617
302.7612	0.169
302.9732	0.1569
303.1852	0.1662
303.3972	0.155
303.6092	0.1611
303.8211	0.1614
304.0331	0.1612
304.245	0.1569
304.457	0.1619
304.6689	0.1505
304.8808	0.1484
305.0927	0.1508
305.3046	0.1576
305.5164	0.1499
305.7283	0.1596
305.9401	0.1445
306.152	0.1446
306.3638	0.1391
306.5756	0.1394
306.7874	0.148
306.9992	0.1467
307.2109	0.1448
307.4227	0.1521
307.6344	0.1445
307.8462	0.1319
308.0579	0.1447
308.2696	0.1453
308.4813	0.1345
308.693	0.1397
308.9046	0.1367
309.1163	0.1363
309.328	0.1415
309.5396	0.1385
309.7512	0.1276
309.9628	0.1287
310.1744	0.1248
310.386	0.1236
310.5976	0.1275
310.8091	0.1227
311.0207	0.1248
311.2322	0.1197
311.4437	0.1301
311.6552	0.1243
311.8667	0.1266
312.0782	0.1256
312.2897	0.1085
312.5012	0.1135
312.7126	0.1203
312.924	0.1156
313.1355	0.115
313.3469	0.1107
313.5583	0.1148
313.7696	0.1309
313.981	0.1112
314.1924	0.112
314.4037	0.1144
314.6151	0.1153
314.8264	0.1053
315.0377	0.1133
315.249	0.1036
315.4603	0.1019
315.6716	0.1129
315.8828	0.0924
316.0941	0.1113
316.3053	0.1152
316.5165	0.1094
316.7277	0.098
316.9389	0.1279
317.1501	0.1202
317.3613	0.0951
317.5724	0.1107
317.7836	0.1091
317.9947	0.1166
318.2058	0.1102
318.417	0.1203
318.6281	0.1184
318.8391	0.114
319.0502	0.1064
319.2613	0.1164
319.4723	0.1109
319.6834	0.1154
319.8944	0.106
320.1054	0.1154
320.3164	0.1297
320.5274	0.0959
320.7383	0.1046
320.9493	0.1037
321.1602	0.118
321.3712	0.1005
321.5821	0.1207
321.793	0.1147
322.0039	0.1107
322.2148	0.1097
322.4257	0.1027
322.6365	0.1155
322.8474	0.1133
323.0582	0.1197
323.269	0.1124
323.4798	0.1144
323.6906	0.1087
323.9014	0.1169
324.1122	0.1059
324.3229	0.1199
324.5337	0.1109
324.7444	0.1192
324.9551	0.1156
325.1658	0.1195
325.3765	0.1179
325.5872	0.1238
325.7979	0.1104
326.0085	0.1059
326.2192	0.0968
326.4298	0.1198
326.6404	0.1248
326.851	0.1214
327.0616	0.1155
327.2722	0.1181
327.4828	0.1197
327.6933	0.1257
327.9039	0.1085
328.1144	0.1232
328.3249	0.1061
328.5354	0.1027
328.7459	0.118
328.9564	0.1169
329.1669	0.118
329.3773	0.114
329.5878	0.1164
329.7982	0.1051
330.0086	0.1199
330.219	0.1086
330.4294	0.1177
330.6398	0.109
330.8502	0.112
331.0605	0.1364
331.2708	0.1104
331.4812	0.1171
331.6915	0.104
331.9018	0.1147
332.1121	0.119
332.3224	0.1228
332.5326	0.1165
332.7429	0.1118
332.9531	0.1094
333.1633	0.1287
333.3735	0.1207
333.5837	0.1167
333.7939	0.1111
334.0041	0.1323
334.2143	0.1118
334.4244	0.1289
334.6346	0.0999
334.8447	0.1185
335.0548	0.1322
335.2649	0.131
335.475	0.1233
335.685	0.1137
335.8951	0.1206
336.1051	0.1194
336.3152	0.1276
336.5252	0.1183
336.7352	0.1337
336.9452	0.1154
337.1552	0.142
337.3652	0.1272
337.5751	0.125
337.7851	0.1169
337.995	0.1199
338.2049	0.1032
338.4148	0.1263
338.6247	0.1216
338.8346	0.1246
339.0445	0.1181
339.2543	0.1315
339.4642	0.1322
339.674	0.1373
339.8838	0.1297
340.0936	0.1235
340.3034	0.1334
340.5132	0.1362
340.7229	0.1371
340.9327	0.1255
341.1424	0.1371
341.3522	0.1294
341.5619	0.1292
341.7716	0.1171
341.9813	0.139
342.1909	0.1343
342.4006	0.1346
342.6102	0.1311
342.8199	0.125
343.0295	0.1304
343.2391	0.1306
343.4487	0.1329
343.6583	0.111
343.8679	0.1373
344.0774	0.1376
344.287	0.1295
344.4965	0.1412
344.706	0.1339
344.9155	0.1284
345.125	0.1231
345.3345	0.1367
345.544	0.1437
345.7534	0.1441
345.9629	0.1307
346.1723	0.1451
346.3817	0.1382
346.5911	0.1367
346.8005	0.1355
347.0099	0.1337
347.2193	0.1344
347.4286	0.1313
347.638	0.1443
347.8473	0.151
348.0566	0.1443
348.2659	0.1445
348.4752	0.1469
348.6845	0.1396
348.8937	0.1464
349.103	0.1307
349.3122	0.1383
349.5214	0.1427
349.7306	0.1467
349.9398	0.1485
350.149	0.1471
350.3582	0.14
350.5674	0.1527
350.7765	0.1382
350.9856	0.1268
351.1948	0.1328
351.4039	0.1616
351.613	0.1513
351.822	0.1557
352.0311	0.1573
352.2402	0.1437
352.4492	0.1503
352.6582	0.1384
352.8672	0.1406
353.0762	0.1402
353.2852	0.1676
353.4942	0.1546
353.7032	0.1529
353.9121	0.1407
354.1211	0.1509
354.33	0.1577
354.5389	0.152
354.7478	0.1552
354.9567	0.1586
355.1655	0.1627
355.3744	0.1465
355.5833	0.167
355.7921	0.1535
356.0009	0.1473
356.2097	0.1448
356.4185	0.143
356.6273	0.1542
356.8361	0.1628
357.0448	0.162
357.2536	0.1472
357.4623	0.1566
357.671	0.1673
357.8797	0.1611
358.0884	0.1782
358.2971	0.1573
358.5057	0.1636
358.7144	0.1649
358.923	0.1732
359.1316	0.1613
359.3402	0.1703
359.5488	0.1786
359.7574	0.1757
359.966	0.1756
360.1746	0.1626
360.3831	0.1703
360.5916	0.1758
360.8002	0.1822
361.0087	0.1727
361.2172	0.1701
361.4256	0.1767
361.6341	0.1596
361.8426	0.1826
362.051	0.1715
362.2594	0.1838
362.4678	0.185
362.6762	0.1821
362.8846	0.1854
363.093	0.1702
363.3014	0.1794
363.5097	0.1751
363.718	0.1873
363.9264	0.2021
364.1347	0.1741
364.343	0.1823
364.5513	0.1848
364.7595	0.171
364.9678	0.1919
365.176	0.1994
365.3842	0.1738
365.5925	0.175
365.8007	0.1755
366.0089	0.1845
366.217	0.1942
366.4252	0.1933
366.6333	0.201
366.8415	0.1913
367.0496	0.1827
367.2577	0.2164
367.4658	0.2016
367.6739	0.1941
367.882	0.2052
368.09	0.2071
368.2981	0.1789
368.5061	0.197
368.7141	0.2075
368.9221	0.1958
369.1301	0.1993
369.3381	0.1943
369.5461	0.1976
369.754	0.1905
369.962	0.1828
370.1699	0.1954
370.3778	0.2067
370.5857	0.2068
370.7936	0.2056
371.0015	0.1959
371.2093	0.2249
371.4172	0.2051
371.625	0.1946
371.8328	0.2084
372.0406	0.2009
372.2484	0.2002
372.4562	0.2147
372.664	0.2309
372.8717	0.1874
373.0795	0.2069
373.2872	0.2061
373.4949	0.2005
373.7026	0.2037
373.9103	0.2106
374.118	0.1929
374.3256	0.2189
374.5333	0.2036
374.7409	0.19
374.9485	0.1983
375.1561	0.1945
375.3637	0.1873
375.5713	0.2233
375.7789	0.215
375.9864	0.2057
376.194	0.2033
376.4015	0.1989
376.609	0.2071
376.8165	0.2003
377.024	0.2011
377.2315	0.1985
377.4389	0.2168
377.6464	0.2131
377.8538	0.2057
378.0612	0.2081
378.2686	0.2072
378.476	0.2154
378.6834	0.2328
378.8908	0.2127
379.0981	0.217
379.3055	0.219
379.5128	0.2233
379.7201	0.2051
379.9274	0.2087
380.1347	0.2157
380.342	0.209
380.5492	0.2101
380.7565	0.227
380.9637	0.2298
381.1709	0.2046
381.3781	0.2304
381.5853	0.2322
381.7925	0.227
381.9997	0.2126
382.2068	0.2364
382.4139	0.2185
382.6211	0.2129
382.8282	0.2107
383.0353	0.2013
383.2424	0.2245
383.4494	0.2143
383.6565	0.2194
383.8635	0.2241
384.0706	0.2354
384.2776	0.2066
384.4846	0.2341
384.6916	0.2284
384.8986	0.2281
385.1055	0.218
385.3125	0.2267
385.5194	0.2169
385.7263	0.2265
385.9333	0.2065
386.1402	0.221
386.347	0.2353
386.5539	0.2149
386.7608	0.2221
386.9676	0.2276
387.1744	0.2265
387.3813	0.24
387.5881	0.2145
387.7948	0.2205
388.0016	0.2141
388.2084	0.2034
388.4151	0.2124
388.6219	0.2263
388.8286	0.1977
389.0353	0.2057
389.242	0.2207
389.4487	0.2032
389.6553	0.1955
389.862	0.2141
390.0686	0.212
390.2753	0.2065
390.4819	0.2121
390.6885	0.2155
390.8951	0.2055
391.1016	0.2107
391.3082	0.2034
391.5147	0.1947
391.7213	0.2061
391.9278	0.2137
392.1343	0.1895
392.3408	0.2025
392.5473	0.1922
392.7537	0.1976
392.9602	0.2146
393.1666	0.1973
393.373	0.1781
393.5794	0.1696
393.7858	0.1812
393.9922	0.198
394.1986	0.1937
394.4049	0.1874
394.6113	0.1736
394.8176	0.1926
395.0239	0.1939
395.2302	0.1635
395.4365	0.167
395.6428	0.2011
395.8491	0.1734
396.0553	0.1967
396.2615	0.198
396.4678	0.1841
396.674	0.1769
396.8802	0.1933
397.0863	0.188
397.2925	0.1636
397.4987	0.1901
397.7048	0.1859
397.9109	0.196
398.117	0.1729
398.3231	0.1881
398.5292	0.1809
398.7353	0.1959
398.9413	0.1648
399.1474	0.1753
399.3534	0.1785
399.5594	0.1813
399.7654	0.1956
399.9714	0.1832
400.1774	0.1695
400.3833	0.202
400.5893	0.1725
400.7952	0.1821
401.0011	0.1874
401.207	0.1775
401.4129	0.1776
401.6188	0.1796
401.8247	0.1783
402.0305	0.1708
402.2364	0.1922
402.4422	0.1817
402.648	0.1627
402.8538	0.1857
403.0596	0.1751
403.2654	0.1784
403.4711	0.1573
403.6768	0.175
403.8826	0.1828
404.0883	0.1792
404.294	0.2016
404.4997	0.153
404.7054	0.1656
404.911	0.1654
405.1167	0.1655
405.3223	0.1765
405.5279	0.1732
405.7335	0.1802
405.9391	0.1783
406.1447	0.1888
406.3502	0.1792
406.5558	0.1846
406.7613	0.1692
406.9668	0.169
407.1724	0.1755
407.3778	0.1716
407.5833	0.1781
407.7888	0.1834
407.9942	0.1615
408.1997	0.1579
408.4051	0.16
408.6105	0.1688
408.8159	0.1656
409.0213	0.1738
409.2267	0.1697
409.432	0.1822
409.6374	0.1781
409.8427	0.187
410.048	0.1669
410.2533	0.1738
410.4586	0.161
410.6639	0.1702
410.8691	0.1609
411.0744	0.17
411.2796	0.1631
411.4848	0.1814
411.69	0.1745
411.8952	0.1693
412.1004	0.1678
412.3056	0.1778
412.5107	0.1516
412.7158	0.1624
412.921	0.1927
413.1261	0.1656
413.3312	0.1656
413.5362	0.1707
413.7413	0.1729
413.9464	0.1782
414.1514	0.1735
414.3564	0.1735
414.5614	0.1456
414.7664	0.1834
414.9714	0.1762
415.1764	0.182
415.3813	0.1613
415.5863	0.1596
415.7912	0.1715
415.9961	0.1863
416.201	0.1794
416.4059	0.1746
416.6108	0.1574
416.8156	0.1627
417.0205	0.1685
417.2253	0.1577
417.4301	0.1761
417.6349	0.1623
417.8397	0.1535
418.0445	0.1579
418.2492	0.1572
418.454	0.1424
418.6587	0.1679
418.8634	0.1512
419.0681	0.1543
419.2728	0.1526
419.4775	0.183
419.6822	0.1639
419.8868	0.1619
420.0915	0.1304
420.2961	0.1462
420.5007	0.1408
420.7053	0.173
420.9099	0.1507
421.1144	0.1743
421.319	0.1551
421.5235	0.17
421.728	0.1478
421.9325	0.1564
422.137	0.1513
422.3415	0.1481
422.546	0.1592
422.7504	0.1695
422.9549	0.1593
423.1593	0.155
423.3637	0.1548
423.5681	0.1484
423.7725	0.1533
423.9769	0.1412
424.1812	0.1491
424.3856	0.1579
424.5899	0.1535
424.7942	0.1512
424.9985	0.1362
425.2028	0.1299
425.4071	0.1391
425.6113	0.1511
425.8156	0.1544
426.0198	0.148
426.224	0.1509
426.4282	0.1423
426.6324	0.1592
