Data from MonoPyChalIsomerACN10uM400nmA_Absorbance_12-08-44-728.txt Node
Date: Fri Jul 05 12:08:44 BST 2024
User: LASERRRRR
Spectrometer: FLMT03099
Trigger mode: 0
Integration Time (sec): 1.000000E-1
Scans to average: 1
Electric dark correction enabled: true
Nonlinearity correction enabled: false
Boxcar width: 0
XAxis mode: Wavelengths
Number of Pixels in Spectrum: 3648
>>>>>Begin Spectral Data<<<<<
179.3399	-0.0767
179.5586	-0.0767
179.7771	-0.0767
179.9957	0.8826
180.2143	-0
180.4329	-0
180.6514	-0.7176
180.8699	0.3942
181.0885	-0.0839
181.307	0.2665
181.5255	-0.8511
181.744	0.7972
181.9625	-0.846
182.181	-0.0666
182.3994	-0.4436
182.6179	-0.4509
182.8363	0.0414
183.0547	0.2487
183.2732	0.2137
183.4916	0.1645
183.71	0.0543
183.9284	0.1914
184.1467	-0.1177
184.3651	0.1266
184.5835	0.1852
184.8018	0.2606
185.0201	0.2111
185.2385	0.232
185.4568	0.1869
185.6751	0.1722
185.8934	0.1683
186.1117	-0.0108
186.3299	0.1538
186.5482	-0.0127
186.7664	0.212
186.9847	0.5571
187.2029	0.0596
187.4211	-0.2629
187.6393	-0.0679
187.8575	0.3122
188.0757	0.132
188.2939	-0.0313
188.512	0.1293
188.7302	-0.0224
188.9483	0.0491
189.1665	0.047
189.3846	0.0366
189.6027	0.2891
189.8208	-0.0049
190.0389	0.304
190.257	0.0879
190.475	0.3458
190.6931	0.1369
190.9111	0.5196
191.1292	0.2198
191.3472	0.4607
191.5652	0.2472
191.7832	0.7502
192.0012	0.4773
192.2192	0.4224
192.4371	0.2465
192.6551	0.3677
192.873	0.3818
193.091	0.3813
193.3089	0.3682
193.5268	0.6019
193.7447	0.6663
193.9626	0.64
194.1805	0.649
194.3984	0.3953
194.6162	0.5087
194.8341	0.5508
195.0519	0.6336
195.2697	0.7078
195.4875	0.632
195.7054	0.681
195.9231	0.6185
196.1409	0.3667
196.3587	0.6082
196.5765	0.5441
196.7942	0.8416
197.012	0.9118
197.2297	0.8297
197.4474	0.7761
197.6651	0.6647
197.8828	0.9005
198.1005	0.6416
198.3182	0.7497
198.5358	0.7311
198.7535	0.7318
198.9711	0.5437
199.1888	0.6013
199.4064	0.7794
199.624	0.7504
199.8416	0.7369
200.0592	0.7443
200.2767	0.7636
200.4943	0.667
200.7119	0.6201
200.9294	0.6047
201.1469	0.9871
201.3645	0.7231
201.582	0.719
201.7995	0.9019
202.017	0.7195
202.2344	0.6232
202.4519	0.8624
202.6694	0.8753
202.8868	0.7306
203.1042	0.6289
203.3217	0.8552
203.5391	0.888
203.7565	0.8346
203.9739	0.6454
204.1913	0.9221
204.4086	0.8157
204.626	0.8585
204.8433	0.855
205.0607	0.751
205.278	0.7218
205.4953	0.6378
205.7126	0.72
205.9299	0.8087
206.1472	0.6879
206.3644	0.6337
206.5817	0.6949
206.7989	0.6726
207.0162	0.6897
207.2334	0.8424
207.4506	0.7702
207.6678	0.8602
207.885	0.685
208.1022	0.7344
208.3194	0.8234
208.5365	0.7879
208.7537	0.7578
208.9708	0.7587
209.1879	0.8391
209.405	0.7089
209.6222	0.7619
209.8392	0.7153
210.0563	0.7608
210.2734	0.7574
210.4905	0.8241
210.7075	0.9057
210.9245	0.7311
211.1416	0.7421
211.3586	0.9128
211.5756	0.7486
211.7926	0.7654
212.0096	0.7579
212.2265	0.7404
212.4435	0.7374
212.6604	0.8184
212.8774	0.8103
213.0943	0.7399
213.3112	0.7174
213.5281	0.6284
213.745	0.7488
213.9619	0.6949
214.1788	0.6935
214.3956	0.6929
214.6125	0.6917
214.8293	0.7131
215.0461	0.6662
215.2629	0.6685
215.4798	0.6201
215.6965	0.6834
215.9133	0.6622
216.1301	0.6291
216.3469	0.6574
216.5636	0.6272
216.7803	0.6145
216.9971	0.6093
217.2138	0.6178
217.4305	0.6333
217.6472	0.6247
217.8639	0.5844
218.0805	0.6202
218.2972	0.553
218.5138	0.5625
218.7305	0.5672
218.9471	0.5851
219.1637	0.5981
219.3803	0.4889
219.5969	0.5289
219.8135	0.5776
220.0301	0.5384
220.2466	0.5459
220.4632	0.5455
220.6797	0.5607
220.8962	0.5592
221.1127	0.573
221.3292	0.537
221.5457	0.571
221.7622	0.5572
221.9787	0.52
222.1951	0.5669
222.4116	0.5239
222.628	0.5591
222.8444	0.5541
223.0608	0.5496
223.2772	0.5291
223.4936	0.5734
223.71	0.5762
223.9264	0.5189
224.1427	0.5692
224.3591	0.5775
224.5754	0.5268
224.7917	0.5308
225.008	0.5819
225.2243	0.527
225.4406	0.5485
225.6569	0.5582
225.8732	0.5637
226.0894	0.5582
226.3057	0.5464
226.5219	0.5322
226.7381	0.577
226.9543	0.5781
227.1705	0.615
227.3867	0.5825
227.6029	0.5517
227.8191	0.54
228.0352	0.5542
228.2513	0.5539
228.4675	0.5825
228.6836	0.5692
228.8997	0.5708
229.1158	0.5639
229.3319	0.566
229.548	0.5693
229.764	0.5817
229.9801	0.5762
230.1961	0.5958
230.4121	0.5997
230.6282	0.5796
230.8442	0.5679
231.0602	0.5547
231.2761	0.5409
231.4921	0.5892
231.7081	0.5655
231.924	0.5644
232.14	0.5536
232.3559	0.5638
232.5718	0.5687
232.7877	0.5628
233.0036	0.5821
233.2195	0.5642
233.4353	0.5928
233.6512	0.5829
233.867	0.5647
234.0829	0.5782
234.2987	0.5914
234.5145	0.5398
234.7303	0.5662
234.9461	0.5769
235.1619	0.5532
235.3776	0.5912
235.5934	0.5521
235.8091	0.5699
236.0249	0.5311
236.2406	0.5603
236.4563	0.5554
236.672	0.5672
236.8877	0.5597
237.1034	0.5425
237.319	0.5349
237.5347	0.5606
237.7503	0.5332
237.966	0.5396
238.1816	0.559
238.3972	0.5704
238.6128	0.5535
238.8284	0.5518
239.0439	0.5712
239.2595	0.5535
239.475	0.5535
239.6906	0.5386
239.9061	0.5267
240.1216	0.5216
240.3371	0.5488
240.5526	0.5095
240.7681	0.5264
240.9836	0.5444
241.199	0.4893
241.4145	0.4955
241.6299	0.4801
241.8453	0.4905
242.0607	0.4974
242.2761	0.4693
242.4915	0.4594
242.7069	0.4709
242.9223	0.4698
243.1376	0.4573
243.353	0.4437
243.5683	0.4399
243.7836	0.4286
243.9989	0.4358
244.2142	0.4266
244.4295	0.3838
244.6448	0.3985
244.86	0.3909
245.0753	0.3947
245.2905	0.3734
245.5057	0.3745
245.721	0.3722
245.9362	0.3603
246.1514	0.3446
246.3665	0.332
246.5817	0.3356
246.7969	0.3159
247.012	0.3391
247.2271	0.3459
247.4423	0.3143
247.6574	0.3074
247.8725	0.3019
248.0876	0.3101
248.3026	0.2958
248.5177	0.3
248.7328	0.2883
248.9478	0.2749
249.1628	0.26
249.3779	0.2587
249.5929	0.2849
249.8079	0.2624
250.0228	0.2639
250.2378	0.2638
250.4528	0.2501
250.6677	0.2343
250.8827	0.2415
251.0976	0.234
251.3125	0.2361
251.5274	0.2366
251.7423	0.2268
251.9572	0.2252
252.172	0.2233
252.3869	0.2188
252.6017	0.2302
252.8166	0.2109
253.0314	0.225
253.2462	0.2199
253.461	0.2163
253.6758	0.2197
253.8906	0.2168
254.1053	0.2198
254.3201	0.2167
254.5348	0.211
254.7496	0.2066
254.9643	0.2138
255.179	0.189
255.3937	0.1958
255.6083	0.2072
255.823	0.185
256.0377	0.1871
256.2523	0.199
256.467	0.1958
256.6816	0.1899
256.8962	0.1883
257.1108	0.1994
257.3254	0.1936
257.54	0.1976
257.7545	0.2007
257.9691	0.2065
258.1836	0.1942
258.3981	0.1844
258.6127	0.1899
258.8272	0.1994
259.0417	0.1848
259.2561	0.181
259.4706	0.1846
259.6851	0.19
259.8995	0.1897
260.114	0.1903
260.3284	0.1828
260.5428	0.1838
260.7572	0.1983
260.9716	0.1963
261.186	0.1989
261.4003	0.1811
261.6147	0.1945
261.829	0.1962
262.0433	0.177
262.2577	0.1796
262.472	0.1867
262.6863	0.1858
262.9005	0.1862
263.1148	0.1801
263.3291	0.1795
263.5433	0.1778
263.7576	0.1825
263.9718	0.1795
264.186	0.1828
264.4002	0.195
264.6144	0.1995
264.8286	0.1923
265.0427	0.1878
265.2569	0.1945
265.471	0.1753
265.6851	0.185
265.8993	0.188
266.1134	0.164
266.3275	0.1906
266.5415	0.1869
266.7556	0.1997
266.9697	0.1964
267.1837	0.1933
267.3978	0.1842
267.6118	0.2006
267.8258	0.2109
268.0398	0.2023
268.2538	0.2002
268.4677	0.1946
268.6817	0.1901
268.8957	0.1906
269.1096	0.1848
269.3235	0.1859
269.5374	0.1803
269.7514	0.171
269.9652	0.1803
270.1791	0.1904
270.393	0.1874
270.6068	0.1838
270.8207	0.1879
271.0345	0.1713
271.2483	0.1936
271.4622	0.1954
271.676	0.1735
271.8897	0.1818
272.1035	0.1973
272.3173	0.1761
272.531	0.1689
272.7448	0.1801
272.9585	0.1805
273.1722	0.1893
273.3859	0.1916
273.5996	0.1856
273.8133	0.1793
274.0269	0.1918
274.2406	0.176
274.4542	0.1756
274.6679	0.1871
274.8815	0.1797
275.0951	0.1971
275.3087	0.1747
275.5223	0.1753
275.7358	0.19
275.9494	0.1776
276.1629	0.1833
276.3765	0.1776
276.59	0.1793
276.8035	0.1772
277.017	0.1774
277.2305	0.1915
277.444	0.177
277.6574	0.1856
277.8709	0.1719
278.0843	0.1837
278.2978	0.1791
278.5112	0.1914
278.7246	0.1943
278.938	0.1817
279.1513	0.1925
279.3647	0.1884
279.5781	0.1948
279.7914	0.1931
280.0047	0.1942
280.2181	0.1827
280.4314	0.1863
280.6447	0.1895
280.8579	0.1824
281.0712	0.1941
281.2845	0.1849
281.4977	0.189
281.711	0.1818
281.9242	0.1882
282.1374	0.1867
282.3506	0.1758
282.5638	0.1888
282.7769	0.1839
282.9901	0.1918
283.2033	0.1951
283.4164	0.1798
283.6295	0.1807
283.8426	0.1776
284.0557	0.1906
284.2688	0.1773
284.4819	0.1837
284.695	0.1924
284.908	0.1936
285.1211	0.1855
285.3341	0.1831
285.5471	0.2025
285.7601	0.1905
285.9731	0.1914
286.1861	0.1886
286.3991	0.1772
286.612	0.1889
286.825	0.1912
287.0379	0.1899
287.2508	0.1778
287.4637	0.1878
287.6766	0.1692
287.8895	0.1733
288.1024	0.1928
288.3152	0.1926
288.5281	0.1826
288.7409	0.1764
288.9538	0.1817
289.1666	0.1811
289.3794	0.1769
289.5922	0.1781
289.8049	0.1816
290.0177	0.1723
290.2304	0.1858
290.4432	0.177
290.6559	0.1876
290.8686	0.1873
291.0813	0.1729
291.294	0.1814
291.5067	0.1834
291.7194	0.184
291.932	0.1805
292.1447	0.194
292.3573	0.1844
292.5699	0.194
292.7825	0.1699
292.9951	0.1917
293.2077	0.1857
293.4203	0.1748
293.6328	0.1854
293.8454	0.1706
294.0579	0.1863
294.2704	0.161
294.4829	0.1821
294.6954	0.186
294.9079	0.1714
295.1204	0.1811
295.3328	0.1688
295.5453	0.1739
295.7577	0.1639
295.9701	0.1676
296.1825	0.1678
296.3949	0.1775
296.6073	0.1642
296.8197	0.1763
297.0321	0.1714
297.2444	0.179
297.4567	0.16
297.6691	0.1661
297.8814	0.1763
298.0937	0.1669
298.306	0.1652
298.5182	0.1738
298.7305	0.1816
298.9428	0.1747
299.155	0.1733
299.3672	0.1553
299.5794	0.1727
299.7916	0.1557
300.0038	0.1628
300.216	0.1753
300.4282	0.1715
300.6403	0.1766
300.8525	0.1748
301.0646	0.1787
301.2767	0.1738
301.4888	0.1757
301.7009	0.1671
301.913	0.1734
302.125	0.163
302.3371	0.1766
302.5491	0.1647
302.7612	0.1669
302.9732	0.1594
303.1852	0.1717
303.3972	0.1683
303.6092	0.1649
303.8211	0.1677
304.0331	0.1505
304.245	0.1598
304.457	0.1713
304.6689	0.1576
304.8808	0.1668
305.0927	0.163
305.3046	0.1597
305.5164	0.1565
305.7283	0.1651
305.9401	0.1626
306.152	0.1563
306.3638	0.1584
306.5756	0.1566
306.7874	0.1531
306.9992	0.1422
307.2109	0.1507
307.4227	0.1522
307.6344	0.1411
307.8462	0.1285
308.0579	0.1354
308.2696	0.1457
308.4813	0.1324
308.693	0.1448
308.9046	0.1337
309.1163	0.1303
309.328	0.1335
309.5396	0.1364
309.7512	0.1322
309.9628	0.1396
310.1744	0.1288
310.386	0.1266
310.5976	0.1286
310.8091	0.1211
311.0207	0.125
311.2322	0.1178
311.4437	0.1291
311.6552	0.132
311.8667	0.1163
312.0782	0.1229
312.2897	0.108
312.5012	0.1095
312.7126	0.123
312.924	0.1134
313.1355	0.1279
313.3469	0.1126
313.5583	0.1046
313.7696	0.1117
313.981	0.1145
314.1924	0.1138
314.4037	0.1125
314.6151	0.1102
314.8264	0.1171
315.0377	0.1109
315.249	0.1187
315.4603	0.1133
315.6716	0.1134
315.8828	0.1081
316.0941	0.0951
316.3053	0.1007
316.5165	0.109
316.7277	0.107
316.9389	0.1212
317.1501	0.1084
317.3613	0.1002
317.5724	0.1085
317.7836	0.0964
317.9947	0.1109
318.2058	0.1101
318.417	0.1173
318.6281	0.1044
318.8391	0.106
319.0502	0.1005
319.2613	0.1049
319.4723	0.1073
319.6834	0.1062
319.8944	0.1078
320.1054	0.1011
320.3164	0.1146
320.5274	0.0955
320.7383	0.11
320.9493	0.1075
321.1602	0.1165
321.3712	0.0999
321.5821	0.11
321.793	0.1212
322.0039	0.1022
322.2148	0.1085
322.4257	0.1003
322.6365	0.1187
322.8474	0.0983
323.0582	0.11
323.269	0.121
323.4798	0.1156
323.6906	0.1026
323.9014	0.1096
324.1122	0.1112
324.3229	0.1169
324.5337	0.1248
324.7444	0.1167
324.9551	0.1135
325.1658	0.1178
325.3765	0.1107
325.5872	0.1152
325.7979	0.1157
326.0085	0.1124
326.2192	0.1106
326.4298	0.1182
326.6404	0.1158
326.851	0.1114
327.0616	0.1121
327.2722	0.1176
327.4828	0.1222
327.6933	0.1202
327.9039	0.1067
328.1144	0.1081
328.3249	0.0994
328.5354	0.1096
328.7459	0.1066
328.9564	0.1089
329.1669	0.1249
329.3773	0.1225
329.5878	0.1049
329.7982	0.1216
330.0086	0.1277
330.219	0.1104
330.4294	0.1166
330.6398	0.1127
330.8502	0.1292
331.0605	0.1257
331.2708	0.1066
331.4812	0.1056
331.6915	0.1177
331.9018	0.1183
332.1121	0.1106
332.3224	0.1192
332.5326	0.1141
332.7429	0.1096
332.9531	0.1188
333.1633	0.1185
333.3735	0.1187
333.5837	0.119
333.7939	0.1067
334.0041	0.1308
334.2143	0.1178
334.4244	0.1253
334.6346	0.1066
334.8447	0.1208
335.0548	0.1192
335.2649	0.1197
335.475	0.1155
335.685	0.1063
335.8951	0.1201
336.1051	0.1229
336.3152	0.1161
336.5252	0.1227
336.7352	0.1281
336.9452	0.121
337.1552	0.1309
337.3652	0.1287
337.5751	0.1197
337.7851	0.1205
337.995	0.1258
338.2049	0.1122
338.4148	0.1292
338.6247	0.114
338.8346	0.1335
339.0445	0.1187
339.2543	0.1234
339.4642	0.132
339.674	0.1273
339.8838	0.1183
340.0936	0.1274
340.3034	0.1286
340.5132	0.1186
340.7229	0.1255
340.9327	0.1123
341.1424	0.1265
341.3522	0.1108
341.5619	0.1174
341.7716	0.1367
341.9813	0.1273
342.1909	0.1274
342.4006	0.1265
342.6102	0.1234
342.8199	0.1234
343.0295	0.1308
343.2391	0.1175
343.4487	0.123
343.6583	0.1213
343.8679	0.1352
344.0774	0.1315
344.287	0.1336
344.4965	0.147
344.706	0.1337
344.9155	0.1252
345.125	0.1345
345.3345	0.1384
345.544	0.1486
345.7534	0.1338
345.9629	0.1245
346.1723	0.1305
346.3817	0.1366
346.5911	0.1485
346.8005	0.1455
347.0099	0.135
347.2193	0.1366
347.4286	0.1425
347.638	0.1253
347.8473	0.1352
348.0566	0.1461
348.2659	0.1406
348.4752	0.1363
348.6845	0.1404
348.8937	0.145
349.103	0.1307
349.3122	0.1397
349.5214	0.145
349.7306	0.1437
349.9398	0.1546
350.149	0.1534
350.3582	0.1487
350.5674	0.1415
350.7765	0.1371
350.9856	0.1488
351.1948	0.1393
351.4039	0.1521
351.613	0.141
351.822	0.1517
352.0311	0.1378
352.2402	0.1513
352.4492	0.1423
352.6582	0.1437
352.8672	0.1388
353.0762	0.1587
353.2852	0.1558
353.4942	0.1459
353.7032	0.1498
353.9121	0.1398
354.1211	0.1442
354.33	0.1565
354.5389	0.1566
354.7478	0.1606
354.9567	0.168
355.1655	0.1449
355.3744	0.1502
355.5833	0.1709
355.7921	0.1569
356.0009	0.1594
356.2097	0.1451
356.4185	0.1458
356.6273	0.1563
356.8361	0.1606
357.0448	0.149
357.2536	0.1459
357.4623	0.1684
357.671	0.1554
357.8797	0.1646
358.0884	0.161
358.2971	0.154
358.5057	0.1625
358.7144	0.165
358.923	0.1531
359.1316	0.1693
359.3402	0.1771
359.5488	0.1725
359.7574	0.1734
359.966	0.1647
360.1746	0.1703
360.3831	0.1707
360.5916	0.1879
360.8002	0.1797
361.0087	0.186
361.2172	0.1633
361.4256	0.1794
361.6341	0.1844
361.8426	0.1696
362.051	0.171
362.2594	0.1823
362.4678	0.179
362.6762	0.1655
362.8846	0.1789
363.093	0.1696
363.3014	0.1816
363.5097	0.1827
363.718	0.1894
363.9264	0.1854
364.1347	0.1701
364.343	0.1882
364.5513	0.1959
364.7595	0.193
364.9678	0.1897
365.176	0.2021
365.3842	0.1928
365.5925	0.1772
365.8007	0.1885
366.0089	0.1792
366.217	0.1802
366.4252	0.1718
366.6333	0.1893
366.8415	0.2061
367.0496	0.1841
367.2577	0.2153
367.4658	0.2097
367.6739	0.1997
367.882	0.2002
368.09	0.2222
368.2981	0.2004
368.5061	0.1897
368.7141	0.2005
368.9221	0.1863
369.1301	0.1871
369.3381	0.2083
369.5461	0.2055
369.754	0.1852
369.962	0.2091
370.1699	0.1953
370.3778	0.1994
370.5857	0.2122
370.7936	0.2041
371.0015	0.2049
371.2093	0.2178
371.4172	0.2032
371.625	0.1929
371.8328	0.2131
372.0406	0.2095
372.2484	0.2038
372.4562	0.2154
372.664	0.2014
372.8717	0.1969
373.0795	0.2154
373.2872	0.2146
373.4949	0.2105
373.7026	0.2186
373.9103	0.2109
374.118	0.1986
374.3256	0.2032
374.5333	0.2062
374.7409	0.2081
374.9485	0.2086
375.1561	0.2163
375.3637	0.2123
375.5713	0.2251
375.7789	0.2168
375.9864	0.2004
376.194	0.2102
376.4015	0.2222
376.609	0.2023
376.8165	0.2159
377.024	0.2084
377.2315	0.2194
377.4389	0.2249
377.6464	0.2103
377.8538	0.2114
378.0612	0.2252
378.2686	0.2201
378.476	0.2177
378.6834	0.2414
378.8908	0.2167
379.0981	0.2367
379.3055	0.2247
379.5128	0.2282
379.7201	0.2212
379.9274	0.226
380.1347	0.216
380.342	0.2286
380.5492	0.2202
380.7565	0.2453
380.9637	0.2486
381.1709	0.2178
381.3781	0.2294
381.5853	0.2409
381.7925	0.2315
381.9997	0.2217
382.2068	0.2288
382.4139	0.2249
382.6211	0.232
382.8282	0.2249
383.0353	0.2241
383.2424	0.2431
383.4494	0.2209
383.6565	0.245
383.8635	0.2275
384.0706	0.2333
384.2776	0.2417
384.4846	0.2245
384.6916	0.2462
384.8986	0.2355
385.1055	0.2061
385.3125	0.2305
385.5194	0.2121
385.7263	0.2391
385.9333	0.2138
386.1402	0.2324
386.347	0.2233
386.5539	0.2281
386.7608	0.2218
386.9676	0.2309
387.1744	0.2369
387.3813	0.2205
387.5881	0.2368
387.7948	0.2295
388.0016	0.2204
388.2084	0.219
388.4151	0.2255
388.6219	0.2416
388.8286	0.2237
389.0353	0.2328
389.242	0.2308
389.4487	0.2372
389.6553	0.2171
389.862	0.2388
390.0686	0.2256
390.2753	0.2071
390.4819	0.2175
390.6885	0.2244
390.8951	0.205
391.1016	0.2305
391.3082	0.2292
391.5147	0.207
391.7213	0.2079
391.9278	0.2086
392.1343	0.2072
392.3408	0.2151
392.5473	0.2104
392.7537	0.2019
392.9602	0.2219
393.1666	0.2166
393.373	0.1897
393.5794	0.2019
393.7858	0.1851
393.9922	0.2215
394.1986	0.2179
394.4049	0.2127
394.6113	0.1952
394.8176	0.1916
395.0239	0.2021
395.2302	0.1672
395.4365	0.2046
395.6428	0.2104
395.8491	0.1847
396.0553	0.2035
396.2615	0.1914
396.4678	0.196
396.674	0.1934
396.8802	0.1951
397.0863	0.2054
397.2925	0.1782
397.4987	0.1957
397.7048	0.1836
397.9109	0.2004
398.117	0.1944
398.3231	0.2018
398.5292	0.1954
398.7353	0.2048
398.9413	0.1868
399.1474	0.1841
399.3534	0.186
399.5594	0.2005
399.7654	0.1852
399.9714	0.18
400.1774	0.1833
400.3833	0.1867
400.5893	0.169
400.7952	0.1913
401.0011	0.1917
401.207	0.1806
401.4129	0.1876
401.6188	0.1953
401.8247	0.1842
402.0305	0.1919
402.2364	0.1929
402.4422	0.2039
402.648	0.1903
402.8538	0.2019
403.0596	0.1863
403.2654	0.1893
403.4711	0.1981
403.6768	0.1816
403.8826	0.1953
404.0883	0.1761
404.294	0.1744
404.4997	0.1634
404.7054	0.1732
404.911	0.1908
405.1167	0.1775
405.3223	0.1975
405.5279	0.1968
405.7335	0.2046
405.9391	0.1901
406.1447	0.1932
406.3502	0.1969
406.5558	0.2013
406.7613	0.2162
406.9668	0.187
407.1724	0.1853
407.3778	0.184
407.5833	0.1835
407.7888	0.2003
407.9942	0.1889
408.1997	0.1991
408.4051	0.1943
408.6105	0.1832
408.8159	0.189
409.0213	0.18
409.2267	0.1725
409.432	0.2019
409.6374	0.1859
409.8427	0.1871
410.048	0.1952
410.2533	0.1782
410.4586	0.1654
410.6639	0.192
410.8691	0.1796
411.0744	0.1831
411.2796	0.175
411.4848	0.1961
411.69	0.1829
411.8952	0.1878
412.1004	0.1689
412.3056	0.1849
412.5107	0.179
412.7158	0.1691
412.921	0.1871
413.1261	0.1957
413.3312	0.1629
413.5362	0.1733
413.7413	0.1764
413.9464	0.1874
414.1514	0.1822
414.3564	0.1765
414.5614	0.1696
414.7664	0.1725
414.9714	0.1796
415.1764	0.2004
415.3813	0.1811
415.5863	0.1859
415.7912	0.1784
415.9961	0.2078
416.201	0.1919
416.4059	0.1621
416.6108	0.1648
416.8156	0.1798
417.0205	0.186
417.2253	0.1664
417.4301	0.1784
417.6349	0.1668
417.8397	0.1664
418.0445	0.1646
418.2492	0.1779
418.454	0.1637
418.6587	0.169
418.8634	0.1733
419.0681	0.1795
419.2728	0.1541
419.4775	0.1724
419.6822	0.1754
419.8868	0.1722
420.0915	0.1364
420.2961	0.1627
420.5007	0.1719
420.7053	0.1817
420.9099	0.1713
421.1144	0.1896
421.319	0.1672
421.5235	0.1822
421.728	0.1574
421.9325	0.1611
422.137	0.174
422.3415	0.1523
422.546	0.1538
422.7504	0.1615
422.9549	0.1742
423.1593	0.1517
423.3637	0.1579
423.5681	0.1519
423.7725	0.1597
423.9769	0.1694
424.1812	0.1657
424.3856	0.1539
424.5899	0.1581
424.7942	0.1524
424.9985	0.1816
425.2028	0.135
425.4071	0.1395
425.6113	0.1405
425.8156	0.1577
426.0198	0.1529
426.224	0.1598
426.4282	0.1718
