Data from MonoPyChalIsomerACN10uM400nmA_Absorbance_12-08-44-628.txt Node
Date: Fri Jul 05 12:08:44 BST 2024
User: LASERRRRR
Spectrometer: FLMT03099
Trigger mode: 0
Integration Time (sec): 1.000000E-1
Scans to average: 1
Electric dark correction enabled: true
Nonlinearity correction enabled: false
Boxcar width: 0
XAxis mode: Wavelengths
Number of Pixels in Spectrum: 3648
>>>>>Begin Spectral Data<<<<<
179.3399	0.3714
179.5586	0.3714
179.7771	0.3714
179.9957	2.9689
180.2143	-0
180.4329	-0.5868
180.6514	-0
180.8699	0.0599
181.0885	0.6437
181.307	0.25
181.5255	-0.95
181.744	-0.3306
181.9625	-0.6695
182.181	-0
182.3994	-0.4145
182.6179	-0.313
182.8363	-0.4272
183.0547	0.4062
183.2732	0.1407
183.4916	0.0277
183.71	0.2049
183.9284	0.5374
184.1467	0.1017
184.3651	0.0071
184.5835	0.176
184.8018	0.0091
185.0201	0.1302
185.2385	-0.1133
185.4568	0.0134
185.6751	0.1122
185.8934	-0.1783
186.1117	0.1355
186.3299	-0.0783
186.5482	0.0639
186.7664	0.0286
186.9847	0.1612
187.2029	0.2864
187.4211	-0.2723
187.6393	-0.0958
187.8575	0.4148
188.0757	-0.0062
188.2939	0.0644
188.512	0.1241
188.7302	0.0025
188.9483	0.0017
189.1665	0.0979
189.3846	0.1217
189.6027	0.133
189.8208	0.1838
190.0389	0.1444
190.257	0.2879
190.475	0.3164
190.6931	0.2231
190.9111	0.2795
191.1292	0.2768
191.3472	0.4864
191.5652	0.3383
191.7832	0.3795
192.0012	0.5626
192.2192	0.4228
192.4371	0.4126
192.6551	0.2752
192.873	0.4838
193.091	0.2546
193.3089	0.4264
193.5268	0.7132
193.7447	0.5085
193.9626	0.3764
194.1805	0.943
194.3984	0.4863
194.6162	0.509
194.8341	0.4527
195.0519	0.6398
195.2697	0.5749
195.4875	0.803
195.7054	0.6303
195.9231	0.4087
196.1409	0.5704
196.3587	0.6388
196.5765	0.6472
196.7942	0.6274
197.012	0.7941
197.2297	0.6624
197.4474	0.7923
197.6651	0.6972
197.8828	0.6887
198.1005	0.8515
198.3182	0.7548
198.5358	0.6934
198.7535	0.7727
198.9711	0.8265
199.1888	0.8967
199.4064	0.8718
199.624	0.63
199.8416	0.6459
200.0592	1.0838
200.2767	0.6276
200.4943	0.6527
200.7119	0.8736
200.9294	0.8951
201.1469	0.8764
201.3645	0.6826
201.582	0.6436
201.7995	0.7869
202.017	0.9338
202.2344	0.7296
202.4519	0.7624
202.6694	1.1068
202.8868	0.7987
203.1042	0.7101
203.3217	0.7379
203.5391	0.786
203.7565	0.9516
203.9739	0.6932
204.1913	0.9872
204.4086	0.7205
204.626	0.8811
204.8433	0.87
205.0607	0.6498
205.278	0.8427
205.4953	0.8003
205.7126	0.6631
205.9299	0.8743
206.1472	0.9719
206.3644	0.7008
206.5817	0.6995
206.7989	0.6259
207.0162	0.7911
207.2334	0.7592
207.4506	0.7501
207.6678	0.7341
207.885	0.8466
208.1022	0.7244
208.3194	0.7097
208.5365	0.7949
208.7537	0.8471
208.9708	0.6979
209.1879	0.8573
209.405	0.7182
209.6222	0.7335
209.8392	0.7711
210.0563	0.8013
210.2734	0.7655
210.4905	0.7583
210.7075	0.8297
210.9245	0.7455
211.1416	0.7123
211.3586	0.7144
211.5756	0.7926
211.7926	0.7637
212.0096	0.7619
212.2265	0.7067
212.4435	0.7554
212.6604	0.7971
212.8774	0.751
213.0943	0.6932
213.3112	0.739
213.5281	0.651
213.745	0.7316
213.9619	0.6726
214.1788	0.6212
214.3956	0.6248
214.6125	0.6264
214.8293	0.6595
215.0461	0.6586
215.2629	0.6441
215.4798	0.6985
215.6965	0.6603
215.9133	0.6496
216.1301	0.5912
216.3469	0.6284
216.5636	0.6102
216.7803	0.6269
216.9971	0.5954
217.2138	0.6739
217.4305	0.6169
217.6472	0.597
217.8639	0.613
218.0805	0.5829
218.2972	0.5618
218.5138	0.6284
218.7305	0.5593
218.9471	0.5628
219.1637	0.5679
219.3803	0.5204
219.5969	0.6069
219.8135	0.5708
220.0301	0.5636
220.2466	0.5692
220.4632	0.5195
220.6797	0.5264
220.8962	0.5306
221.1127	0.5452
221.3292	0.5427
221.5457	0.5867
221.7622	0.5592
221.9787	0.5373
222.1951	0.5269
222.4116	0.5156
222.628	0.6027
222.8444	0.5305
223.0608	0.5289
223.2772	0.5749
223.4936	0.5344
223.71	0.5825
223.9264	0.5611
224.1427	0.5662
224.3591	0.5507
224.5754	0.5427
224.7917	0.521
225.008	0.5605
225.2243	0.541
225.4406	0.5855
225.6569	0.5407
225.8732	0.5525
226.0894	0.5413
226.3057	0.5656
226.5219	0.552
226.7381	0.6135
226.9543	0.5851
227.1705	0.5843
227.3867	0.6056
227.6029	0.5629
227.8191	0.5483
228.0352	0.5543
228.2513	0.5545
228.4675	0.5766
228.6836	0.6083
228.8997	0.5581
229.1158	0.5471
229.3319	0.5749
229.548	0.607
229.764	0.5925
229.9801	0.5795
230.1961	0.565
230.4121	0.5777
230.6282	0.5617
230.8442	0.582
231.0602	0.5561
231.2761	0.5669
231.4921	0.5917
231.7081	0.5782
231.924	0.5741
232.14	0.5838
232.3559	0.5974
232.5718	0.6157
232.7877	0.5597
233.0036	0.5665
233.2195	0.5461
233.4353	0.5967
233.6512	0.5618
233.867	0.5634
234.0829	0.5381
234.2987	0.5851
234.5145	0.5357
234.7303	0.587
234.9461	0.5872
235.1619	0.5508
235.3776	0.5666
235.5934	0.5483
235.8091	0.5748
236.0249	0.5584
236.2406	0.5558
236.4563	0.5559
236.672	0.5694
236.8877	0.5593
237.1034	0.5552
237.319	0.575
237.5347	0.5602
237.7503	0.5636
237.966	0.5284
238.1816	0.576
238.3972	0.5463
238.6128	0.5406
238.8284	0.5251
239.0439	0.5544
239.2595	0.529
239.475	0.535
239.6906	0.5304
239.9061	0.5324
240.1216	0.5358
240.3371	0.5284
240.5526	0.536
240.7681	0.5517
240.9836	0.5357
241.199	0.4907
241.4145	0.5335
241.6299	0.4897
241.8453	0.4831
242.0607	0.4771
242.2761	0.4851
242.4915	0.468
242.7069	0.4432
242.9223	0.4597
243.1376	0.4361
243.353	0.4483
243.5683	0.4438
243.7836	0.4254
243.9989	0.4238
244.2142	0.4225
244.4295	0.4062
244.6448	0.3857
244.86	0.4113
245.0753	0.3823
245.2905	0.3843
245.5057	0.378
245.721	0.3662
245.9362	0.3569
246.1514	0.3566
246.3665	0.324
246.5817	0.3431
246.7969	0.3181
247.012	0.3337
247.2271	0.3237
247.4423	0.3106
247.6574	0.2978
247.8725	0.3053
248.0876	0.2906
248.3026	0.2921
248.5177	0.2996
248.7328	0.2945
248.9478	0.2876
249.1628	0.2464
249.3779	0.2633
249.5929	0.2701
249.8079	0.253
250.0228	0.2674
250.2378	0.2504
250.4528	0.2428
250.6677	0.2613
250.8827	0.2286
251.0976	0.2509
251.3125	0.2461
251.5274	0.2272
251.7423	0.246
251.9572	0.2335
252.172	0.2194
252.3869	0.2265
252.6017	0.2266
252.8166	0.214
253.0314	0.1971
253.2462	0.2027
253.461	0.2255
253.6758	0.2055
253.8906	0.2168
254.1053	0.2083
254.3201	0.2113
254.5348	0.2115
254.7496	0.1968
254.9643	0.2079
255.179	0.2001
255.3937	0.2006
255.6083	0.1954
255.823	0.181
256.0377	0.1894
256.2523	0.2013
256.467	0.1958
256.6816	0.2002
256.8962	0.1957
257.1108	0.1976
257.3254	0.1939
257.54	0.1859
257.7545	0.1877
257.9691	0.2044
258.1836	0.1988
258.3981	0.1939
258.6127	0.1917
258.8272	0.1981
259.0417	0.1761
259.2561	0.197
259.4706	0.1913
259.6851	0.1984
259.8995	0.1927
260.114	0.1814
260.3284	0.1857
260.5428	0.2035
260.7572	0.204
260.9716	0.174
261.186	0.1938
261.4003	0.1905
261.6147	0.2069
261.829	0.2087
262.0433	0.1754
262.2577	0.1757
262.472	0.1899
262.6863	0.2074
262.9005	0.1842
263.1148	0.1852
263.3291	0.1992
263.5433	0.1864
263.7576	0.1931
263.9718	0.1869
264.186	0.1863
264.4002	0.1966
264.6144	0.1894
264.8286	0.1933
265.0427	0.1859
265.2569	0.1924
265.471	0.1907
265.6851	0.1801
265.8993	0.1886
266.1134	0.1826
266.3275	0.1875
266.5415	0.1888
266.7556	0.1891
266.9697	0.1959
267.1837	0.1924
267.3978	0.1959
267.6118	0.1861
267.8258	0.205
268.0398	0.1868
268.2538	0.2034
268.4677	0.1924
268.6817	0.1884
268.8957	0.1944
269.1096	0.1955
269.3235	0.1784
269.5374	0.1796
269.7514	0.1745
269.9652	0.165
270.1791	0.1839
270.393	0.1776
270.6068	0.1944
270.8207	0.1832
271.0345	0.1646
271.2483	0.1845
271.4622	0.1872
271.676	0.1798
271.8897	0.1905
272.1035	0.1725
272.3173	0.1863
272.531	0.1666
272.7448	0.1754
272.9585	0.1756
273.1722	0.1864
273.3859	0.1814
273.5996	0.1791
273.8133	0.1685
274.0269	0.187
274.2406	0.1815
274.4542	0.1717
274.6679	0.1706
274.8815	0.1753
275.0951	0.1877
275.3087	0.1811
275.5223	0.1797
275.7358	0.1741
275.9494	0.1692
276.1629	0.1767
276.3765	0.1789
276.59	0.179
276.8035	0.1885
277.017	0.1807
277.2305	0.186
277.444	0.187
277.6574	0.1894
277.8709	0.1761
278.0843	0.1875
278.2978	0.1842
278.5112	0.189
278.7246	0.1777
278.938	0.1994
279.1513	0.1994
279.3647	0.1746
279.5781	0.193
279.7914	0.1873
280.0047	0.1914
280.2181	0.1834
280.4314	0.1852
280.6447	0.199
280.8579	0.1882
281.0712	0.1889
281.2845	0.1911
281.4977	0.194
281.711	0.1931
281.9242	0.188
282.1374	0.1744
282.3506	0.1953
282.5638	0.1855
282.7769	0.1899
282.9901	0.1901
283.2033	0.18
283.4164	0.1789
283.6295	0.1807
283.8426	0.1792
284.0557	0.1935
284.2688	0.1785
284.4819	0.189
284.695	0.1798
284.908	0.2027
285.1211	0.1966
285.3341	0.1938
285.5471	0.2003
285.7601	0.2011
285.9731	0.1932
286.1861	0.1967
286.3991	0.1799
286.612	0.1748
286.825	0.18
287.0379	0.1863
287.2508	0.1818
287.4637	0.1815
287.6766	0.1865
287.8895	0.1833
288.1024	0.1804
288.3152	0.1907
288.5281	0.1706
288.7409	0.1814
288.9538	0.1792
289.1666	0.1773
289.3794	0.174
289.5922	0.1755
289.8049	0.1716
290.0177	0.1747
290.2304	0.1716
290.4432	0.1724
290.6559	0.192
290.8686	0.1801
291.0813	0.1775
291.294	0.1768
291.5067	0.1843
291.7194	0.1697
291.932	0.186
292.1447	0.1838
292.3573	0.1785
292.5699	0.18
292.7825	0.1775
292.9951	0.1909
293.2077	0.191
293.4203	0.1756
293.6328	0.1752
293.8454	0.181
294.0579	0.1793
294.2704	0.1678
294.4829	0.194
294.6954	0.1885
294.9079	0.173
295.1204	0.1738
295.3328	0.1601
295.5453	0.1727
295.7577	0.1716
295.9701	0.1704
296.1825	0.1658
296.3949	0.1662
296.6073	0.1732
296.8197	0.1705
297.0321	0.1734
297.2444	0.1673
297.4567	0.1716
297.6691	0.1774
297.8814	0.1727
298.0937	0.1699
298.306	0.1604
298.5182	0.1717
298.7305	0.1772
298.9428	0.1818
299.155	0.1597
299.3672	0.1546
299.5794	0.1765
299.7916	0.1643
300.0038	0.1729
300.216	0.1621
300.4282	0.1662
300.6403	0.1832
300.8525	0.1825
301.0646	0.1736
301.2767	0.1803
301.4888	0.1746
301.7009	0.1675
301.913	0.1672
302.125	0.1682
302.3371	0.1738
302.5491	0.1672
302.7612	0.1559
302.9732	0.164
303.1852	0.1546
303.3972	0.1657
303.6092	0.1646
303.8211	0.1695
304.0331	0.1635
304.245	0.1522
304.457	0.1652
304.6689	0.1584
304.8808	0.1577
305.0927	0.1605
305.3046	0.1673
305.5164	0.1658
305.7283	0.1554
305.9401	0.151
306.152	0.1458
306.3638	0.1466
306.5756	0.1418
306.7874	0.1468
306.9992	0.1494
307.2109	0.1482
307.4227	0.1428
307.6344	0.1522
307.8462	0.1386
308.0579	0.1476
308.2696	0.1554
308.4813	0.1362
308.693	0.1416
308.9046	0.1282
309.1163	0.1393
309.328	0.1376
309.5396	0.1373
309.7512	0.142
309.9628	0.1255
310.1744	0.1353
310.386	0.1222
310.5976	0.1206
310.8091	0.1192
311.0207	0.1324
311.2322	0.1146
311.4437	0.1158
311.6552	0.1359
311.8667	0.1174
312.0782	0.1248
312.2897	0.0959
312.5012	0.1221
312.7126	0.1139
312.924	0.113
313.1355	0.1189
313.3469	0.1161
313.5583	0.1089
313.7696	0.125
313.981	0.105
314.1924	0.1168
314.4037	0.1233
314.6151	0.1153
314.8264	0.1078
315.0377	0.1111
315.249	0.1187
315.4603	0.1107
315.6716	0.1128
315.8828	0.1127
316.0941	0.1036
316.3053	0.1079
316.5165	0.1124
316.7277	0.1018
316.9389	0.1107
317.1501	0.1082
317.3613	0.0985
317.5724	0.1126
317.7836	0.1116
317.9947	0.1184
318.2058	0.1144
318.417	0.1014
318.6281	0.1086
318.8391	0.1069
319.0502	0.1009
319.2613	0.1037
319.4723	0.1023
319.6834	0.1048
319.8944	0.11
320.1054	0.1135
320.3164	0.1168
320.5274	0.0958
320.7383	0.1123
320.9493	0.1069
321.1602	0.1175
321.3712	0.108
321.5821	0.1101
321.793	0.1132
322.0039	0.1103
322.2148	0.1129
322.4257	0.1042
322.6365	0.1168
322.8474	0.0968
323.0582	0.1239
323.269	0.1104
323.4798	0.1127
323.6906	0.1062
323.9014	0.1086
324.1122	0.106
324.3229	0.1143
324.5337	0.1168
324.7444	0.108
324.9551	0.1139
325.1658	0.1242
325.3765	0.114
325.5872	0.115
325.7979	0.1254
326.0085	0.0946
326.2192	0.0965
326.4298	0.1224
326.6404	0.1185
326.851	0.1074
327.0616	0.1106
327.2722	0.1243
327.4828	0.1282
327.6933	0.1094
327.9039	0.0991
328.1144	0.1122
328.3249	0.1092
328.5354	0.1146
328.7459	0.1102
328.9564	0.124
329.1669	0.125
329.3773	0.118
329.5878	0.1168
329.7982	0.1131
330.0086	0.1239
330.219	0.113
330.4294	0.1137
330.6398	0.1182
330.8502	0.1207
331.0605	0.1268
331.2708	0.113
331.4812	0.1091
331.6915	0.1148
331.9018	0.1129
332.1121	0.1125
332.3224	0.111
332.5326	0.1178
332.7429	0.1096
332.9531	0.1198
333.1633	0.1277
333.3735	0.1142
333.5837	0.1121
333.7939	0.1115
334.0041	0.1334
334.2143	0.1129
334.4244	0.1141
334.6346	0.105
334.8447	0.1178
335.0548	0.1188
335.2649	0.1233
335.475	0.1168
335.685	0.0952
335.8951	0.1296
336.1051	0.1187
336.3152	0.1222
336.5252	0.1186
336.7352	0.1147
336.9452	0.1207
337.1552	0.1256
337.3652	0.1191
337.5751	0.1291
337.7851	0.1162
337.995	0.1248
338.2049	0.1148
338.4148	0.1238
338.6247	0.1216
338.8346	0.1235
339.0445	0.109
339.2543	0.1218
339.4642	0.126
339.674	0.1192
339.8838	0.1283
340.0936	0.1259
340.3034	0.1197
340.5132	0.1351
340.7229	0.1285
340.9327	0.1201
341.1424	0.1211
341.3522	0.1118
341.5619	0.1237
341.7716	0.1259
341.9813	0.1209
342.1909	0.1197
342.4006	0.1157
342.6102	0.1234
342.8199	0.1235
343.0295	0.1276
343.2391	0.1202
343.4487	0.1281
343.6583	0.1227
343.8679	0.1446
344.0774	0.1373
344.287	0.1418
344.4965	0.1385
344.706	0.1377
344.9155	0.1249
345.125	0.1285
345.3345	0.1317
345.544	0.139
345.7534	0.1232
345.9629	0.1255
346.1723	0.1366
346.3817	0.132
346.5911	0.1381
346.8005	0.1372
347.0099	0.1384
347.2193	0.1334
347.4286	0.1431
347.638	0.1503
347.8473	0.1291
348.0566	0.1409
348.2659	0.1524
348.4752	0.1431
348.6845	0.1439
348.8937	0.137
349.103	0.1467
349.3122	0.1343
349.5214	0.152
349.7306	0.1588
349.9398	0.141
350.149	0.158
350.3582	0.132
350.5674	0.1603
350.7765	0.132
350.9856	0.143
351.1948	0.1499
351.4039	0.1642
351.613	0.1465
351.822	0.1405
352.0311	0.1499
352.2402	0.139
352.4492	0.151
352.6582	0.1524
352.8672	0.1329
353.0762	0.147
353.2852	0.1588
353.4942	0.1519
353.7032	0.1659
353.9121	0.1559
354.1211	0.1493
354.33	0.165
354.5389	0.1501
354.7478	0.1609
354.9567	0.1616
355.1655	0.1564
355.3744	0.1449
355.5833	0.1809
355.7921	0.1628
356.0009	0.1692
356.2097	0.1607
356.4185	0.1499
356.6273	0.1651
356.8361	0.1689
357.0448	0.1504
357.2536	0.1485
357.4623	0.1534
357.671	0.1635
357.8797	0.1609
358.0884	0.1807
358.2971	0.1717
358.5057	0.173
358.7144	0.1756
358.923	0.1637
359.1316	0.1726
359.3402	0.1836
359.5488	0.1627
359.7574	0.1696
359.966	0.161
360.1746	0.1668
360.3831	0.162
360.5916	0.1765
360.8002	0.1816
361.0087	0.1693
361.2172	0.1659
361.4256	0.1704
361.6341	0.1784
361.8426	0.1873
362.051	0.1829
362.2594	0.1822
362.4678	0.1764
362.6762	0.1804
362.8846	0.1802
363.093	0.1657
363.3014	0.1857
363.5097	0.175
363.718	0.193
363.9264	0.1831
364.1347	0.1896
364.343	0.1774
364.5513	0.2004
364.7595	0.1819
364.9678	0.201
365.176	0.2025
365.3842	0.1936
365.5925	0.1676
365.8007	0.2055
366.0089	0.2058
366.217	0.1951
366.4252	0.1902
366.6333	0.1941
366.8415	0.2128
367.0496	0.1887
367.2577	0.2101
367.4658	0.1951
367.6739	0.2092
367.882	0.1899
368.09	0.206
368.2981	0.2039
368.5061	0.1934
368.7141	0.1873
368.9221	0.1797
369.1301	0.2054
369.3381	0.2027
369.5461	0.2071
369.754	0.2056
369.962	0.1987
370.1699	0.1961
370.3778	0.2134
370.5857	0.2164
370.7936	0.1988
371.0015	0.2021
371.2093	0.2026
371.4172	0.2191
371.625	0.2046
371.8328	0.2085
372.0406	0.1988
372.2484	0.1979
372.4562	0.2162
372.664	0.2257
372.8717	0.1879
373.0795	0.2228
373.2872	0.1943
373.4949	0.2143
373.7026	0.2061
373.9103	0.2034
374.118	0.2036
374.3256	0.2331
374.5333	0.2251
374.7409	0.2098
374.9485	0.2191
375.1561	0.2163
375.3637	0.2169
375.5713	0.2381
375.7789	0.2164
375.9864	0.2085
376.194	0.2119
376.4015	0.2188
376.609	0.2074
376.8165	0.2228
377.024	0.2196
377.2315	0.2272
377.4389	0.219
377.6464	0.2111
377.8538	0.2133
378.0612	0.2329
378.2686	0.2225
378.476	0.2106
378.6834	0.215
378.8908	0.2062
379.0981	0.2344
379.3055	0.2279
379.5128	0.2307
379.7201	0.2234
379.9274	0.2192
380.1347	0.2183
380.342	0.224
380.5492	0.2211
380.7565	0.2395
380.9637	0.233
381.1709	0.2195
381.3781	0.2336
381.5853	0.2503
381.7925	0.241
381.9997	0.2181
382.2068	0.2328
382.4139	0.218
382.6211	0.2444
382.8282	0.2363
383.0353	0.2266
383.2424	0.2433
383.4494	0.2301
383.6565	0.235
383.8635	0.2403
384.0706	0.2327
384.2776	0.243
384.4846	0.2354
384.6916	0.2394
384.8986	0.2244
385.1055	0.2221
385.3125	0.2243
385.5194	0.2256
385.7263	0.2475
385.9333	0.2251
386.1402	0.2287
386.347	0.2463
386.5539	0.2318
386.7608	0.2411
386.9676	0.2223
387.1744	0.226
387.3813	0.2272
387.5881	0.2239
387.7948	0.2486
388.0016	0.2219
388.2084	0.2354
388.4151	0.2193
388.6219	0.2319
388.8286	0.2231
389.0353	0.2028
389.242	0.2368
389.4487	0.2183
389.6553	0.2143
389.862	0.2169
390.0686	0.2263
390.2753	0.2511
390.4819	0.2277
390.6885	0.2263
390.8951	0.2175
391.1016	0.2227
391.3082	0.2207
391.5147	0.2135
391.7213	0.2265
391.9278	0.2243
392.1343	0.2034
392.3408	0.2155
392.5473	0.2245
392.7537	0.2145
392.9602	0.2221
393.1666	0.2043
393.373	0.1891
393.5794	0.1978
393.7858	0.2118
393.9922	0.2296
394.1986	0.2274
394.4049	0.1946
394.6113	0.1816
394.8176	0.2004
395.0239	0.1961
395.2302	0.2067
395.4365	0.1888
395.6428	0.1996
395.8491	0.2006
396.0553	0.1953
396.2615	0.1986
396.4678	0.1964
396.674	0.199
396.8802	0.199
397.0863	0.1869
397.2925	0.1956
397.4987	0.1987
397.7048	0.2053
397.9109	0.2029
398.117	0.1855
398.3231	0.1947
398.5292	0.2081
398.7353	0.184
398.9413	0.1739
399.1474	0.1932
399.3534	0.1913
399.5594	0.1933
399.7654	0.1839
399.9714	0.1876
400.1774	0.1921
400.3833	0.2089
400.5893	0.1923
400.7952	0.2167
401.0011	0.1997
401.207	0.1947
401.4129	0.1751
401.6188	0.1876
401.8247	0.1818
402.0305	0.1879
402.2364	0.1888
402.4422	0.1909
402.648	0.1899
402.8538	0.1903
403.0596	0.1827
403.2654	0.1924
403.4711	0.1915
403.6768	0.1805
403.8826	0.1946
404.0883	0.1941
404.294	0.1832
404.4997	0.1744
404.7054	0.1875
404.911	0.179
405.1167	0.1803
405.3223	0.1669
405.5279	0.1988
405.7335	0.2076
405.9391	0.2047
406.1447	0.1921
406.3502	0.2007
406.5558	0.1954
406.7613	0.2134
406.9668	0.1976
407.1724	0.1832
407.3778	0.1947
407.5833	0.1865
407.7888	0.19
407.9942	0.1908
408.1997	0.1787
408.4051	0.1826
408.6105	0.1793
408.8159	0.1853
409.0213	0.1814
409.2267	0.1881
409.432	0.1955
409.6374	0.1812
409.8427	0.1812
410.048	0.186
410.2533	0.1852
410.4586	0.1701
410.6639	0.1962
410.8691	0.1818
411.0744	0.1871
411.2796	0.1785
411.4848	0.1942
411.69	0.1682
411.8952	0.1722
412.1004	0.1814
412.3056	0.1754
412.5107	0.1804
412.7158	0.1916
412.921	0.1833
413.1261	0.1841
413.3312	0.1907
413.5362	0.1955
413.7413	0.1864
413.9464	0.1923
414.1514	0.1789
414.3564	0.1619
414.5614	0.1523
414.7664	0.1758
414.9714	0.1918
415.1764	0.1838
415.3813	0.1622
415.5863	0.1886
415.7912	0.1693
415.9961	0.1704
416.201	0.1867
416.4059	0.1609
416.6108	0.1764
416.8156	0.1869
417.0205	0.1755
417.2253	0.1753
417.4301	0.1765
417.6349	0.1575
417.8397	0.1704
418.0445	0.1698
418.2492	0.1669
418.454	0.1728
418.6587	0.175
418.8634	0.1932
419.0681	0.1773
419.2728	0.1692
419.4775	0.1759
419.6822	0.1978
419.8868	0.1841
420.0915	0.1636
420.2961	0.1557
420.5007	0.1715
420.7053	0.1624
420.9099	0.1688
421.1144	0.1763
421.319	0.1633
421.5235	0.1897
421.728	0.1661
421.9325	0.1623
422.137	0.1587
422.3415	0.165
422.546	0.1583
422.7504	0.1743
422.9549	0.162
423.1593	0.1655
423.3637	0.1677
423.5681	0.1485
423.7725	0.1595
423.9769	0.1655
424.1812	0.1665
424.3856	0.1454
424.5899	0.1733
424.7942	0.1581
424.9985	0.1646
425.2028	0.1376
425.4071	0.1511
425.6113	0.1655
425.8156	0.1807
426.0198	0.1597
426.224	0.1584
426.4282	0.1545
