Data from MonoPyChalIsomerACN10uM400nmA_Absorbance_12-08-41-229.txt Node
Date: Fri Jul 05 12:08:41 BST 2024
User: LASERRRRR
Spectrometer: FLMT03099
Trigger mode: 0
Integration Time (sec): 1.000000E-1
Scans to average: 1
Electric dark correction enabled: true
Nonlinearity correction enabled: false
Boxcar width: 0
XAxis mode: Wavelengths
Number of Pixels in Spectrum: 3648
>>>>>Begin Spectral Data<<<<<
179.3399	0.079
179.5586	0.079
179.7771	0.079
179.9957	0.1468
180.2143	-0
180.4329	-0
180.6514	-0
180.8699	-0
181.0885	-0.0856
181.307	-0.1502
181.5255	-0.6951
181.744	-0
181.9625	-0
182.181	-0
182.3994	-0.6466
182.6179	-0.2124
182.8363	-0.377
183.0547	0.0722
183.2732	0.3618
183.4916	0.0517
183.71	0.1348
183.9284	0.1497
184.1467	0.1127
184.3651	-0.1174
184.5835	0.1992
184.8018	0.0347
185.0201	0.0988
185.2385	0.0064
185.4568	0.4466
185.6751	0.0506
185.8934	-0.0309
186.1117	0.4882
186.3299	0.0425
186.5482	0.1451
186.7664	0.0821
186.9847	0.1074
187.2029	0.2247
187.4211	-0.3882
187.6393	-0.032
187.8575	-0.0409
188.0757	-0.0536
188.2939	0.0743
188.512	0.1399
188.7302	0.0325
188.9483	0.1528
189.1665	0.3905
189.3846	-0.0417
189.6027	0.2637
189.8208	0.2886
190.0389	0.2258
190.257	0.1401
190.475	0.3573
190.6931	0.1957
190.9111	0.6603
191.1292	0.2239
191.3472	0.3669
191.5652	0.2001
191.7832	0.7473
192.0012	0.2361
192.2192	0.3869
192.4371	0.3821
192.6551	0.3291
192.873	0.6397
193.091	0.3899
193.3089	0.4964
193.5268	0.4795
193.7447	0.7014
193.9626	0.5742
194.1805	0.7167
194.3984	0.3023
194.6162	0.4412
194.8341	0.5053
195.0519	0.7723
195.2697	0.5491
195.4875	0.4855
195.7054	0.4138
195.9231	0.6908
196.1409	0.5866
196.3587	0.6332
196.5765	0.4748
196.7942	0.744
197.012	0.8191
197.2297	0.8348
197.4474	0.5099
197.6651	0.7464
197.8828	0.6738
198.1005	0.5971
198.3182	0.7536
198.5358	0.7439
198.7535	0.6152
198.9711	0.6281
199.1888	0.7089
199.4064	0.6715
199.624	0.6889
199.8416	0.6746
200.0592	0.7671
200.2767	0.6118
200.4943	0.6845
200.7119	0.7111
200.9294	0.5937
201.1469	1.0352
201.3645	0.6365
201.582	0.7772
201.7995	0.9396
202.017	0.8961
202.2344	0.643
202.4519	0.8801
202.6694	0.8091
202.8868	0.7484
203.1042	0.7594
203.3217	0.6899
203.5391	0.7402
203.7565	0.7366
203.9739	0.631
204.1913	0.9525
204.4086	0.7474
204.626	0.7671
204.8433	0.8099
205.0607	0.6583
205.278	0.8124
205.4953	0.6971
205.7126	0.6229
205.9299	0.8082
206.1472	0.8008
206.3644	0.6706
206.5817	0.7147
206.7989	0.6187
207.0162	0.8098
207.2334	0.783
207.4506	0.7219
207.6678	0.7933
207.885	0.8276
208.1022	0.7239
208.3194	0.7541
208.5365	0.7471
208.7537	0.7529
208.9708	0.6801
209.1879	0.8047
209.405	0.6018
209.6222	0.739
209.8392	0.6479
210.0563	0.6844
210.2734	0.7265
210.4905	0.6989
210.7075	0.7966
210.9245	0.7152
211.1416	0.6839
211.3586	0.8167
211.5756	0.7657
211.7926	0.7933
212.0096	0.6779
212.2265	0.6538
212.4435	0.7292
212.6604	0.8161
212.8774	0.818
213.0943	0.7312
213.3112	0.7481
213.5281	0.6874
213.745	0.7518
213.9619	0.6563
214.1788	0.6828
214.3956	0.7233
214.6125	0.5974
214.8293	0.717
215.0461	0.6558
215.2629	0.6744
215.4798	0.6019
215.6965	0.6317
215.9133	0.6259
216.1301	0.5688
216.3469	0.6607
216.5636	0.6612
216.7803	0.6235
216.9971	0.6315
217.2138	0.6537
217.4305	0.6352
217.6472	0.5619
217.8639	0.6523
218.0805	0.5499
218.2972	0.5537
218.5138	0.6113
218.7305	0.5808
218.9471	0.5377
219.1637	0.5851
219.3803	0.538
219.5969	0.5618
219.8135	0.5559
220.0301	0.5886
220.2466	0.5522
220.4632	0.5254
220.6797	0.5708
220.8962	0.5533
221.1127	0.5789
221.3292	0.5418
221.5457	0.5873
221.7622	0.5393
221.9787	0.4966
222.1951	0.5485
222.4116	0.5461
222.628	0.5844
222.8444	0.5615
223.0608	0.5673
223.2772	0.5873
223.4936	0.5597
223.71	0.5809
223.9264	0.5572
224.1427	0.5361
224.3591	0.5488
224.5754	0.5331
224.7917	0.5413
225.008	0.6051
225.2243	0.5454
225.4406	0.5548
225.6569	0.5456
225.8732	0.558
226.0894	0.5593
226.3057	0.5945
226.5219	0.5524
226.7381	0.592
226.9543	0.5961
227.1705	0.5918
227.3867	0.5451
227.6029	0.5463
227.8191	0.5456
228.0352	0.5472
228.2513	0.5938
228.4675	0.5956
228.6836	0.5801
228.8997	0.5795
229.1158	0.5793
229.3319	0.5628
229.548	0.6182
229.764	0.5705
229.9801	0.5842
230.1961	0.5803
230.4121	0.5895
230.6282	0.5502
230.8442	0.5514
231.0602	0.5491
231.2761	0.5558
231.4921	0.5598
231.7081	0.5639
231.924	0.6004
232.14	0.5602
232.3559	0.5675
232.5718	0.6089
232.7877	0.5473
233.0036	0.6006
233.2195	0.5464
233.4353	0.5729
233.6512	0.5455
233.867	0.587
234.0829	0.5532
234.2987	0.566
234.5145	0.5668
234.7303	0.5661
234.9461	0.5659
235.1619	0.5846
235.3776	0.5737
235.5934	0.544
235.8091	0.5636
236.0249	0.54
236.2406	0.5399
236.4563	0.5719
236.672	0.5537
236.8877	0.5667
237.1034	0.5113
237.319	0.5279
237.5347	0.5698
237.7503	0.5332
237.966	0.525
238.1816	0.5668
238.3972	0.5563
238.6128	0.5375
238.8284	0.5424
239.0439	0.5467
239.2595	0.5648
239.475	0.5455
239.6906	0.5248
239.9061	0.5396
240.1216	0.5419
240.3371	0.5164
240.5526	0.5327
240.7681	0.5239
240.9836	0.5349
241.199	0.4856
241.4145	0.4923
241.6299	0.4941
241.8453	0.4965
242.0607	0.4814
242.2761	0.4642
242.4915	0.4555
242.7069	0.4313
242.9223	0.4567
243.1376	0.4485
243.353	0.4304
243.5683	0.4195
243.7836	0.4063
243.9989	0.4201
244.2142	0.4065
244.4295	0.3802
244.6448	0.3942
244.86	0.3791
245.0753	0.3741
245.2905	0.3654
245.5057	0.3547
245.721	0.3563
245.9362	0.346
246.1514	0.3412
246.3665	0.3221
246.5817	0.3215
246.7969	0.3181
247.012	0.3288
247.2271	0.3198
247.4423	0.2992
247.6574	0.2858
247.8725	0.294
248.0876	0.2817
248.3026	0.2835
248.5177	0.282
248.7328	0.2701
248.9478	0.2796
249.1628	0.2623
249.3779	0.248
249.5929	0.2573
249.8079	0.2539
250.0228	0.2412
250.2378	0.2547
250.4528	0.2352
250.6677	0.238
250.8827	0.2313
251.0976	0.234
251.3125	0.2449
251.5274	0.2425
251.7423	0.2249
251.9572	0.2231
252.172	0.207
252.3869	0.2148
252.6017	0.2058
252.8166	0.2182
253.0314	0.1977
253.2462	0.2185
253.461	0.2052
253.6758	0.205
253.8906	0.2046
254.1053	0.2131
254.3201	0.1992
254.5348	0.2084
254.7496	0.2104
254.9643	0.1948
255.179	0.1971
255.3937	0.2014
255.6083	0.1806
255.823	0.2005
256.0377	0.1959
256.2523	0.2035
256.467	0.1867
256.6816	0.1898
256.8962	0.1956
257.1108	0.1982
257.3254	0.1877
257.54	0.1933
257.7545	0.2028
257.9691	0.2011
258.1836	0.1822
258.3981	0.1774
258.6127	0.1972
258.8272	0.2004
259.0417	0.1933
259.2561	0.1933
259.4706	0.1801
259.6851	0.1817
259.8995	0.1869
260.114	0.1742
260.3284	0.198
260.5428	0.1889
260.7572	0.1939
260.9716	0.1776
261.186	0.1893
261.4003	0.1922
261.6147	0.1928
261.829	0.1997
262.0433	0.1711
262.2577	0.1752
262.472	0.19
262.6863	0.1871
262.9005	0.1848
263.1148	0.1885
263.3291	0.1845
263.5433	0.1704
263.7576	0.1754
263.9718	0.1819
264.186	0.1814
264.4002	0.1935
264.6144	0.1872
264.8286	0.1853
265.0427	0.1868
265.2569	0.1923
265.471	0.1837
265.6851	0.1728
265.8993	0.1845
266.1134	0.1694
266.3275	0.1808
266.5415	0.1803
266.7556	0.1784
266.9697	0.196
267.1837	0.1878
267.3978	0.195
267.6118	0.1875
267.8258	0.1821
268.0398	0.1968
268.2538	0.1815
268.4677	0.1937
268.6817	0.1809
268.8957	0.1873
269.1096	0.1799
269.3235	0.1895
269.5374	0.1827
269.7514	0.1656
269.9652	0.1648
270.1791	0.1704
270.393	0.1713
270.6068	0.182
270.8207	0.1869
271.0345	0.1712
271.2483	0.1598
271.4622	0.1746
271.676	0.1654
271.8897	0.1797
272.1035	0.1887
272.3173	0.1685
272.531	0.1619
272.7448	0.1565
272.9585	0.1681
273.1722	0.1655
273.3859	0.1717
273.5996	0.1624
273.8133	0.1775
274.0269	0.1638
274.2406	0.1667
274.4542	0.1659
274.6679	0.1679
274.8815	0.1642
275.0951	0.1776
275.3087	0.159
275.5223	0.1558
275.7358	0.1661
275.9494	0.1607
276.1629	0.1644
276.3765	0.1683
276.59	0.1586
276.8035	0.1667
277.017	0.1727
277.2305	0.1818
277.444	0.1555
277.6574	0.1721
277.8709	0.1644
278.0843	0.1639
278.2978	0.1699
278.5112	0.1609
278.7246	0.1721
278.938	0.1696
279.1513	0.1762
279.3647	0.166
279.5781	0.1675
279.7914	0.1755
280.0047	0.1733
280.2181	0.1724
280.4314	0.1771
280.6447	0.1891
280.8579	0.1808
281.0712	0.1746
281.2845	0.1867
281.4977	0.1813
281.711	0.1801
281.9242	0.1727
282.1374	0.1611
282.3506	0.1718
282.5638	0.1839
282.7769	0.1752
282.9901	0.186
283.2033	0.1779
283.4164	0.1786
283.6295	0.1668
283.8426	0.1795
284.0557	0.1726
284.2688	0.1667
284.4819	0.1807
284.695	0.1854
284.908	0.1854
285.1211	0.1913
285.3341	0.1818
285.5471	0.1851
285.7601	0.1889
285.9731	0.1973
286.1861	0.1944
286.3991	0.1923
286.612	0.1808
286.825	0.1862
287.0379	0.1893
287.2508	0.1817
287.4637	0.192
287.6766	0.1848
287.8895	0.1729
288.1024	0.1915
288.3152	0.1851
288.5281	0.1863
288.7409	0.1819
288.9538	0.1823
289.1666	0.1843
289.3794	0.1689
289.5922	0.1737
289.8049	0.1816
290.0177	0.1755
290.2304	0.1729
290.4432	0.1716
290.6559	0.2041
290.8686	0.1808
291.0813	0.1797
291.294	0.1839
291.5067	0.1796
291.7194	0.1804
291.932	0.1835
292.1447	0.1887
292.3573	0.196
292.5699	0.2028
292.7825	0.1842
292.9951	0.2048
293.2077	0.1947
293.4203	0.1939
293.6328	0.198
293.8454	0.1875
294.0579	0.1841
294.2704	0.1828
294.4829	0.1838
294.6954	0.196
294.9079	0.1871
295.1204	0.1871
295.3328	0.1837
295.5453	0.1794
295.7577	0.1773
295.9701	0.1844
296.1825	0.1791
296.3949	0.1756
296.6073	0.1735
296.8197	0.1809
297.0321	0.1872
297.2444	0.1835
297.4567	0.183
297.6691	0.1833
297.8814	0.1943
298.0937	0.1814
298.306	0.1798
298.5182	0.1893
298.7305	0.1961
298.9428	0.1785
299.155	0.1737
299.3672	0.1699
299.5794	0.1847
299.7916	0.1831
300.0038	0.1695
300.216	0.178
300.4282	0.1828
300.6403	0.1919
300.8525	0.1807
301.0646	0.1851
301.2767	0.1839
301.4888	0.1689
301.7009	0.1887
301.913	0.1811
302.125	0.1833
302.3371	0.1813
302.5491	0.1825
302.7612	0.1777
302.9732	0.1661
303.1852	0.1714
303.3972	0.1723
303.6092	0.1726
303.8211	0.1847
304.0331	0.1735
304.245	0.1721
304.457	0.1795
304.6689	0.168
304.8808	0.1639
305.0927	0.1665
305.3046	0.1658
305.5164	0.173
305.7283	0.166
305.9401	0.1703
306.152	0.1705
306.3638	0.1562
306.5756	0.1553
306.7874	0.1597
306.9992	0.1543
307.2109	0.1501
307.4227	0.1576
307.6344	0.1471
307.8462	0.1483
308.0579	0.1518
308.2696	0.1435
308.4813	0.1455
308.693	0.1434
308.9046	0.1335
309.1163	0.1373
309.328	0.1354
309.5396	0.1443
309.7512	0.1243
309.9628	0.1327
310.1744	0.1255
310.386	0.1272
310.5976	0.1245
310.8091	0.1276
311.0207	0.1348
311.2322	0.1158
311.4437	0.1332
311.6552	0.1227
311.8667	0.1115
312.0782	0.1233
312.2897	0.1001
312.5012	0.1149
312.7126	0.1142
312.924	0.1027
313.1355	0.1283
313.3469	0.1068
313.5583	0.1101
313.7696	0.1128
313.981	0.1079
314.1924	0.1231
314.4037	0.1109
314.6151	0.1048
314.8264	0.1035
315.0377	0.1123
315.249	0.1002
315.4603	0.1035
315.6716	0.1077
315.8828	0.0994
316.0941	0.0924
316.3053	0.0929
316.5165	0.0921
316.7277	0.0859
316.9389	0.1088
317.1501	0.1077
317.3613	0.0881
317.5724	0.1048
317.7836	0.0976
317.9947	0.1102
318.2058	0.1145
318.417	0.1045
318.6281	0.0994
318.8391	0.0824
319.0502	0.0928
319.2613	0.1055
319.4723	0.0967
319.6834	0.1054
319.8944	0.1002
320.1054	0.0903
320.3164	0.1072
320.5274	0.0884
320.7383	0.0989
320.9493	0.1053
321.1602	0.1183
321.3712	0.0906
321.5821	0.0949
321.793	0.1058
322.0039	0.0966
322.2148	0.1033
322.4257	0.0992
322.6365	0.097
322.8474	0.0936
323.0582	0.1113
323.269	0.0996
323.4798	0.1127
323.6906	0.0868
323.9014	0.0995
324.1122	0.1028
324.3229	0.104
324.5337	0.1033
324.7444	0.1049
324.9551	0.1114
325.1658	0.1083
325.3765	0.1088
325.5872	0.1106
325.7979	0.1046
326.0085	0.0892
326.2192	0.0838
326.4298	0.1072
326.6404	0.0957
326.851	0.0995
327.0616	0.1071
327.2722	0.1094
327.4828	0.1123
327.6933	0.1062
327.9039	0.1033
328.1144	0.0889
328.3249	0.0982
328.5354	0.1102
328.7459	0.11
328.9564	0.1103
329.1669	0.1118
329.3773	0.0999
329.5878	0.099
329.7982	0.0878
330.0086	0.1083
330.219	0.105
330.4294	0.1036
330.6398	0.1035
330.8502	0.1083
331.0605	0.1127
331.2708	0.0936
331.4812	0.0988
331.6915	0.1044
331.9018	0.1017
332.1121	0.1079
332.3224	0.1038
332.5326	0.1066
332.7429	0.1002
332.9531	0.0969
333.1633	0.1159
333.3735	0.095
333.5837	0.1119
333.7939	0.0909
334.0041	0.1201
334.2143	0.1112
334.4244	0.1222
334.6346	0.0865
334.8447	0.095
335.0548	0.1078
335.2649	0.1012
335.475	0.1064
335.685	0.1007
335.8951	0.1137
336.1051	0.0993
336.3152	0.1136
336.5252	0.1119
336.7352	0.1184
336.9452	0.1097
337.1552	0.1146
337.3652	0.0964
337.5751	0.0946
337.7851	0.1179
337.995	0.1143
338.2049	0.0966
338.4148	0.127
338.6247	0.1032
338.8346	0.1132
339.0445	0.1091
339.2543	0.1204
339.4642	0.1112
339.674	0.1188
339.8838	0.1194
340.0936	0.1132
340.3034	0.1215
340.5132	0.1309
340.7229	0.1157
340.9327	0.1063
341.1424	0.1092
341.3522	0.1092
341.5619	0.1026
341.7716	0.1097
341.9813	0.1218
342.1909	0.1176
342.4006	0.1206
342.6102	0.1145
342.8199	0.1214
343.0295	0.1248
343.2391	0.1265
343.4487	0.1191
343.6583	0.1061
343.8679	0.1306
344.0774	0.1316
344.287	0.1121
344.4965	0.1269
344.706	0.1236
344.9155	0.1248
345.125	0.1258
345.3345	0.1343
345.544	0.1469
345.7534	0.1344
345.9629	0.1231
346.1723	0.1151
346.3817	0.1254
346.5911	0.1272
346.8005	0.1358
347.0099	0.1214
347.2193	0.1275
347.4286	0.1312
347.638	0.1343
347.8473	0.128
348.0566	0.1144
348.2659	0.1289
348.4752	0.1452
348.6845	0.1318
348.8937	0.1192
349.103	0.1307
349.3122	0.1274
349.5214	0.1426
349.7306	0.1295
349.9398	0.1408
350.149	0.1455
350.3582	0.1338
350.5674	0.1446
350.7765	0.1419
350.9856	0.1359
351.1948	0.1324
351.4039	0.1551
351.613	0.1393
351.822	0.1378
352.0311	0.1509
352.2402	0.1445
352.4492	0.1508
352.6582	0.1503
352.8672	0.1499
353.0762	0.1461
353.2852	0.1381
353.4942	0.1512
353.7032	0.1519
353.9121	0.1493
354.1211	0.1318
354.33	0.1592
354.5389	0.1442
354.7478	0.1596
354.9567	0.1665
355.1655	0.1525
355.3744	0.1573
355.5833	0.1715
355.7921	0.167
356.0009	0.1578
356.2097	0.1479
356.4185	0.1467
356.6273	0.1439
356.8361	0.1464
357.0448	0.1503
357.2536	0.1467
357.4623	0.1642
357.671	0.1716
357.8797	0.1633
358.0884	0.17
358.2971	0.1572
358.5057	0.1635
358.7144	0.1621
358.923	0.1708
359.1316	0.1583
359.3402	0.1697
359.5488	0.1688
359.7574	0.1605
359.966	0.1622
360.1746	0.1706
360.3831	0.1693
360.5916	0.1896
360.8002	0.1811
361.0087	0.1833
361.2172	0.1631
361.4256	0.1834
361.6341	0.1803
361.8426	0.2023
362.051	0.1789
362.2594	0.1906
362.4678	0.1826
362.6762	0.1918
362.8846	0.1853
363.093	0.1935
363.3014	0.1903
363.5097	0.1845
363.718	0.1972
363.9264	0.1955
364.1347	0.1934
364.343	0.1891
364.5513	0.1956
364.7595	0.1878
364.9678	0.1866
365.176	0.1899
365.3842	0.1744
365.5925	0.1745
365.8007	0.1892
366.0089	0.1993
366.217	0.1993
366.4252	0.1926
366.6333	0.216
366.8415	0.213
367.0496	0.1962
367.2577	0.2163
367.4658	0.2096
367.6739	0.2067
367.882	0.2118
368.09	0.223
368.2981	0.213
368.5061	0.2082
368.7141	0.1992
368.9221	0.2058
369.1301	0.2088
369.3381	0.2288
369.5461	0.2148
369.754	0.2127
369.962	0.2136
370.1699	0.2132
370.3778	0.2227
370.5857	0.2281
370.7936	0.2133
371.0015	0.237
371.2093	0.2124
371.4172	0.2277
371.625	0.2111
371.8328	0.2308
372.0406	0.2269
372.2484	0.2273
372.4562	0.2353
372.664	0.2231
372.8717	0.2032
373.0795	0.2215
373.2872	0.2395
373.4949	0.2307
373.7026	0.2418
373.9103	0.2352
374.118	0.2245
374.3256	0.2328
374.5333	0.2387
374.7409	0.2198
374.9485	0.2297
375.1561	0.2519
375.3637	0.2305
375.5713	0.2406
375.7789	0.2376
375.9864	0.2215
376.194	0.2473
376.4015	0.2454
376.609	0.2328
376.8165	0.251
377.024	0.2422
377.2315	0.2438
377.4389	0.2453
377.6464	0.2402
377.8538	0.2292
378.0612	0.2322
378.2686	0.2566
378.476	0.2546
378.6834	0.2514
378.8908	0.2297
379.0981	0.2358
379.3055	0.2631
379.5128	0.2551
379.7201	0.2549
379.9274	0.2383
380.1347	0.248
380.342	0.2421
380.5492	0.2639
380.7565	0.2477
380.9637	0.2633
381.1709	0.2548
381.3781	0.2685
381.5853	0.2651
381.7925	0.2521
381.9997	0.2479
382.2068	0.2768
382.4139	0.256
382.6211	0.261
382.8282	0.256
383.0353	0.2636
383.2424	0.279
383.4494	0.2632
383.6565	0.2685
383.8635	0.263
384.0706	0.2796
384.2776	0.2841
384.4846	0.2579
384.6916	0.2705
384.8986	0.2618
385.1055	0.2472
385.3125	0.2539
385.5194	0.2607
385.7263	0.2914
385.9333	0.261
386.1402	0.2652
386.347	0.2658
386.5539	0.266
386.7608	0.2675
386.9676	0.2645
387.1744	0.2629
387.3813	0.253
387.5881	0.2708
387.7948	0.2575
388.0016	0.2474
388.2084	0.2706
388.4151	0.267
388.6219	0.2768
388.8286	0.2362
389.0353	0.2575
389.242	0.2543
389.4487	0.2621
389.6553	0.2424
389.862	0.2544
390.0686	0.2632
390.2753	0.2637
390.4819	0.2521
390.6885	0.2729
390.8951	0.2128
391.1016	0.2496
391.3082	0.2366
391.5147	0.2437
391.7213	0.2476
391.9278	0.2575
392.1343	0.2491
392.3408	0.2424
392.5473	0.2394
392.7537	0.231
392.9602	0.2549
393.1666	0.2363
393.373	0.2426
393.5794	0.2231
393.7858	0.2364
393.9922	0.2414
394.1986	0.2587
394.4049	0.227
394.6113	0.2302
394.8176	0.2417
395.0239	0.2325
395.2302	0.2256
395.4365	0.2117
395.6428	0.2494
395.8491	0.218
396.0553	0.2391
396.2615	0.2321
396.4678	0.2325
396.674	0.23
396.8802	0.2149
397.0863	0.212
397.2925	0.216
397.4987	0.2301
397.7048	0.2182
397.9109	0.2316
398.117	0.2226
398.3231	0.231
398.5292	0.2293
398.7353	0.2209
398.9413	0.226
399.1474	0.2108
399.3534	0.2045
399.5594	0.2311
399.7654	0.2301
399.9714	0.2183
400.1774	0.2
400.3833	0.2271
400.5893	0.232
400.7952	0.2357
401.0011	0.2462
401.207	0.2172
401.4129	0.2002
401.6188	0.2159
401.8247	0.2412
402.0305	0.2123
402.2364	0.2401
402.4422	0.2121
402.648	0.2258
402.8538	0.213
403.0596	0.2174
403.2654	0.2326
403.4711	0.2243
403.6768	0.2159
403.8826	0.2134
404.0883	0.2282
404.294	0.2377
404.4997	0.2029
404.7054	0.2171
404.911	0.2157
405.1167	0.2056
405.3223	0.2133
405.5279	0.2276
405.7335	0.233
405.9391	0.2317
406.1447	0.2171
406.3502	0.2221
406.5558	0.2261
406.7613	0.2462
406.9668	0.2161
407.1724	0.224
407.3778	0.2337
407.5833	0.2221
407.7888	0.2223
407.9942	0.2242
408.1997	0.228
408.4051	0.2102
408.6105	0.1967
408.8159	0.2273
409.0213	0.2261
409.2267	0.2208
409.432	0.2343
409.6374	0.2194
409.8427	0.2092
410.048	0.2321
410.2533	0.2003
410.4586	0.2075
410.6639	0.2201
410.8691	0.2177
411.0744	0.2137
411.2796	0.2121
411.4848	0.2289
411.69	0.1978
411.8952	0.2117
412.1004	0.2076
412.3056	0.2153
412.5107	0.2197
412.7158	0.1871
412.921	0.2396
413.1261	0.2327
413.3312	0.1977
413.5362	0.2178
413.7413	0.2109
413.9464	0.2153
414.1514	0.2148
414.3564	0.2146
414.5614	0.1893
414.7664	0.2152
414.9714	0.2086
415.1764	0.2285
415.3813	0.2136
415.5863	0.2156
415.7912	0.1928
415.9961	0.21
416.201	0.2118
416.4059	0.2141
416.6108	0.196
416.8156	0.2219
417.0205	0.2147
417.2253	0.2076
417.4301	0.2151
417.6349	0.2265
417.8397	0.2007
418.0445	0.2092
418.2492	0.1927
418.454	0.1988
418.6587	0.2125
418.8634	0.2239
419.0681	0.2106
419.2728	0.2052
419.4775	0.2312
419.6822	0.2133
419.8868	0.1985
420.0915	0.1801
420.2961	0.2033
420.5007	0.2143
420.7053	0.1977
420.9099	0.1914
421.1144	0.2024
421.319	0.2121
421.5235	0.2254
421.728	0.1899
421.9325	0.2016
422.137	0.2006
422.3415	0.1914
422.546	0.1801
422.7504	0.2218
422.9549	0.1985
423.1593	0.1878
423.3637	0.202
423.5681	0.1947
423.7725	0.1872
423.9769	0.1961
424.1812	0.186
424.3856	0.2042
424.5899	0.2022
424.7942	0.1929
424.9985	0.1981
425.2028	0.1549
425.4071	0.1751
425.6113	0.1827
425.8156	0.1818
426.0198	0.1816
426.224	0.1836
