Data from MonoPyChalIsomerACN10uM400nmA_Absorbance_12-08-43-428.txt Node
Date: Fri Jul 05 12:08:43 BST 2024
User: LASERRRRR
Spectrometer: FLMT03099
Trigger mode: 0
Integration Time (sec): 1.000000E-1
Scans to average: 1
Electric dark correction enabled: true
Nonlinearity correction enabled: false
Boxcar width: 0
XAxis mode: Wavelengths
Number of Pixels in Spectrum: 3648
>>>>>Begin Spectral Data<<<<<
179.3399	0.9053
179.5586	0.9053
179.7771	0.9053
179.9957	0.3824
180.2143	-0
180.4329	-0
180.6514	-0
180.8699	-0
181.0885	0.838
181.307	-0.1744
181.5255	-0.5923
181.744	-0
181.9625	-1.1571
182.181	-0
182.3994	0.2738
182.6179	-0.0509
182.8363	-0.4025
183.0547	0.2725
183.2732	0.1941
183.4916	0.0523
183.71	0.3513
183.9284	0.0056
184.1467	0.038
184.3651	-0.1513
184.5835	0.4806
184.8018	0.1883
185.0201	0.016
185.2385	-0.064
185.4568	0.0936
185.6751	0.0907
185.8934	-0.0559
186.1117	0.2464
186.3299	0.1469
186.5482	0.0512
186.7664	-0.0058
186.9847	0.4367
187.2029	0.0549
187.4211	-0.2678
187.6393	-0.0186
187.8575	0.1075
188.0757	-0.0304
188.2939	0.0973
188.512	0.0326
188.7302	0.05
188.9483	0.3899
189.1665	0.1928
189.3846	0.1736
189.6027	0.1071
189.8208	0.1302
190.0389	0.2592
190.257	0.0774
190.475	0.4746
190.6931	0.2007
190.9111	0.0825
191.1292	0.571
191.3472	0.4731
191.5652	0.3858
191.7832	0.3863
192.0012	0.3834
192.2192	0.369
192.4371	0.3829
192.6551	0.446
192.873	0.6412
193.091	0.4099
193.3089	0.4126
193.5268	0.504
193.7447	0.5163
193.9626	0.4316
194.1805	0.5956
194.3984	0.4482
194.6162	0.4799
194.8341	0.5508
195.0519	0.7218
195.2697	0.6908
195.4875	0.5957
195.7054	0.7148
195.9231	0.6357
196.1409	0.5218
196.3587	0.525
196.5765	0.7478
196.7942	0.8283
197.012	0.739
197.2297	0.8545
197.4474	0.6287
197.6651	0.8044
197.8828	0.7026
198.1005	0.5467
198.3182	0.7139
198.5358	0.9438
198.7535	0.6948
198.9711	0.6352
199.1888	0.6552
199.4064	0.7512
199.624	0.6455
199.8416	0.6006
200.0592	0.6277
200.2767	0.7083
200.4943	0.5938
200.7119	0.7009
200.9294	0.8011
201.1469	0.8092
201.3645	0.6619
201.582	0.6434
201.7995	0.9831
202.017	0.8454
202.2344	0.6675
202.4519	0.6836
202.6694	1.0325
202.8868	0.788
203.1042	0.6988
203.3217	0.6554
203.5391	0.7785
203.7565	0.7754
203.9739	0.594
204.1913	0.8367
204.4086	0.8843
204.626	0.7503
204.8433	1.0201
205.0607	0.7684
205.278	0.9856
205.4953	0.6998
205.7126	0.5532
205.9299	0.8369
206.1472	0.7847
206.3644	0.7444
206.5817	0.6993
206.7989	0.6881
207.0162	0.8427
207.2334	0.8039
207.4506	0.71
207.6678	0.6871
207.885	0.8656
208.1022	0.7986
208.3194	0.7909
208.5365	0.7947
208.7537	0.7903
208.9708	0.7036
209.1879	0.7323
209.405	0.6843
209.6222	0.8743
209.8392	0.8062
210.0563	0.7409
210.2734	0.7946
210.4905	0.7867
210.7075	0.8392
210.9245	0.7913
211.1416	0.7544
211.3586	0.8213
211.5756	0.7036
211.7926	0.8218
212.0096	0.7411
212.2265	0.7288
212.4435	0.7201
212.6604	0.757
212.8774	0.7543
213.0943	0.7592
213.3112	0.6969
213.5281	0.6238
213.745	0.6817
213.9619	0.7094
214.1788	0.7057
214.3956	0.6903
214.6125	0.6688
214.8293	0.7063
215.0461	0.6793
215.2629	0.6361
215.4798	0.6179
215.6965	0.6569
215.9133	0.6706
216.1301	0.6227
216.3469	0.7386
216.5636	0.6324
216.7803	0.6206
216.9971	0.6336
217.2138	0.6126
217.4305	0.6403
217.6472	0.5997
217.8639	0.6176
218.0805	0.6357
218.2972	0.5445
218.5138	0.6068
218.7305	0.5538
218.9471	0.5535
219.1637	0.5964
219.3803	0.5211
219.5969	0.5953
219.8135	0.6018
220.0301	0.5693
220.2466	0.5736
220.4632	0.5512
220.6797	0.5709
220.8962	0.5471
221.1127	0.5538
221.3292	0.5349
221.5457	0.5475
221.7622	0.5212
221.9787	0.5601
222.1951	0.5512
222.4116	0.5374
222.628	0.5679
222.8444	0.5609
223.0608	0.5397
223.2772	0.5606
223.4936	0.5545
223.71	0.5356
223.9264	0.5462
224.1427	0.5368
224.3591	0.5648
224.5754	0.5565
224.7917	0.5255
225.008	0.6012
225.2243	0.5782
225.4406	0.5367
225.6569	0.5547
225.8732	0.5643
226.0894	0.5391
226.3057	0.5121
226.5219	0.5733
226.7381	0.581
226.9543	0.5873
227.1705	0.5649
227.3867	0.551
227.6029	0.5738
227.8191	0.5499
228.0352	0.6001
228.2513	0.5617
228.4675	0.5537
228.6836	0.6151
228.8997	0.5768
229.1158	0.5863
229.3319	0.5553
229.548	0.6081
229.764	0.5822
229.9801	0.5875
230.1961	0.5728
230.4121	0.5812
230.6282	0.5703
230.8442	0.5839
231.0602	0.5465
231.2761	0.5961
231.4921	0.5962
231.7081	0.5635
231.924	0.6015
232.14	0.5786
232.3559	0.6019
232.5718	0.5739
232.7877	0.577
233.0036	0.5882
233.2195	0.5683
233.4353	0.588
233.6512	0.5767
233.867	0.5651
234.0829	0.5608
234.2987	0.5674
234.5145	0.5435
234.7303	0.5547
234.9461	0.5769
235.1619	0.5761
235.3776	0.5653
235.5934	0.5678
235.8091	0.5497
236.0249	0.5271
236.2406	0.5549
236.4563	0.5836
236.672	0.5627
236.8877	0.5638
237.1034	0.5445
237.319	0.5299
237.5347	0.5732
237.7503	0.5559
237.966	0.528
238.1816	0.5468
238.3972	0.5724
238.6128	0.5455
238.8284	0.5366
239.0439	0.5563
239.2595	0.5668
239.475	0.5497
239.6906	0.5572
239.9061	0.5342
240.1216	0.5265
240.3371	0.5336
240.5526	0.5248
240.7681	0.5205
240.9836	0.5466
241.199	0.4933
241.4145	0.5053
241.6299	0.4994
241.8453	0.5074
242.0607	0.4874
242.2761	0.479
242.4915	0.457
242.7069	0.4538
242.9223	0.4538
243.1376	0.4711
243.353	0.4707
243.5683	0.4339
243.7836	0.4205
243.9989	0.4323
244.2142	0.3939
244.4295	0.3877
244.6448	0.3877
244.86	0.4004
245.0753	0.3708
245.2905	0.385
245.5057	0.3735
245.721	0.3572
245.9362	0.3538
246.1514	0.3437
246.3665	0.3259
246.5817	0.3431
246.7969	0.322
247.012	0.3234
247.2271	0.3188
247.4423	0.3165
247.6574	0.3072
247.8725	0.2987
248.0876	0.3053
248.3026	0.2919
248.5177	0.2907
248.7328	0.2703
248.9478	0.2824
249.1628	0.2566
249.3779	0.2681
249.5929	0.2596
249.8079	0.2511
250.0228	0.2667
250.2378	0.2666
250.4528	0.2561
250.6677	0.2462
250.8827	0.2407
251.0976	0.2359
251.3125	0.2492
251.5274	0.2336
251.7423	0.2273
251.9572	0.22
252.172	0.2204
252.3869	0.2367
252.6017	0.2324
252.8166	0.2176
253.0314	0.1978
253.2462	0.2047
253.461	0.2152
253.6758	0.1964
253.8906	0.2057
254.1053	0.2028
254.3201	0.211
254.5348	0.208
254.7496	0.1956
254.9643	0.2111
255.179	0.1946
255.3937	0.2073
255.6083	0.2023
255.823	0.1905
256.0377	0.2001
256.2523	0.2032
256.467	0.192
256.6816	0.1922
256.8962	0.1895
257.1108	0.2131
257.3254	0.188
257.54	0.1979
257.7545	0.1838
257.9691	0.2005
258.1836	0.1956
258.3981	0.1737
258.6127	0.1941
258.8272	0.1942
259.0417	0.1762
259.2561	0.196
259.4706	0.1791
259.6851	0.1756
259.8995	0.1958
260.114	0.1799
260.3284	0.2007
260.5428	0.1822
260.7572	0.1927
260.9716	0.1918
261.186	0.201
261.4003	0.1779
261.6147	0.1919
261.829	0.1901
262.0433	0.192
262.2577	0.1705
262.472	0.1917
262.6863	0.1831
262.9005	0.1894
263.1148	0.1931
263.3291	0.1859
263.5433	0.1788
263.7576	0.1911
263.9718	0.1668
264.186	0.1889
264.4002	0.1928
264.6144	0.1928
264.8286	0.1867
265.0427	0.1817
265.2569	0.1921
265.471	0.1862
265.6851	0.1869
265.8993	0.184
266.1134	0.1844
266.3275	0.1794
266.5415	0.1864
266.7556	0.1898
266.9697	0.1912
267.1837	0.1866
267.3978	0.1878
267.6118	0.2
267.8258	0.1967
268.0398	0.202
268.2538	0.1954
268.4677	0.1958
268.6817	0.1905
268.8957	0.1877
269.1096	0.1828
269.3235	0.1687
269.5374	0.1805
269.7514	0.1776
269.9652	0.1696
270.1791	0.1802
270.393	0.1735
270.6068	0.1805
270.8207	0.1786
271.0345	0.1715
271.2483	0.1714
271.4622	0.1816
271.676	0.1819
271.8897	0.1799
272.1035	0.1836
272.3173	0.1735
272.531	0.1758
272.7448	0.1595
272.9585	0.1763
273.1722	0.1762
273.3859	0.1733
273.5996	0.1764
273.8133	0.1758
274.0269	0.1777
274.2406	0.1723
274.4542	0.1786
274.6679	0.1786
274.8815	0.1734
275.0951	0.1841
275.3087	0.1747
275.5223	0.1723
275.7358	0.1725
275.9494	0.177
276.1629	0.1684
276.3765	0.1655
276.59	0.177
276.8035	0.1907
277.017	0.1683
277.2305	0.1936
277.444	0.176
277.6574	0.1724
277.8709	0.1634
278.0843	0.1838
278.2978	0.1798
278.5112	0.195
278.7246	0.1819
278.938	0.1888
279.1513	0.1817
279.3647	0.1799
279.5781	0.1821
279.7914	0.1784
280.0047	0.1764
280.2181	0.1881
280.4314	0.1799
280.6447	0.2009
280.8579	0.188
281.0712	0.1877
281.2845	0.1867
281.4977	0.1857
281.711	0.1885
281.9242	0.176
282.1374	0.1748
282.3506	0.1911
282.5638	0.1918
282.7769	0.179
282.9901	0.186
283.2033	0.1929
283.4164	0.1833
283.6295	0.1763
283.8426	0.1697
284.0557	0.182
284.2688	0.185
284.4819	0.1867
284.695	0.1843
284.908	0.193
285.1211	0.1896
285.3341	0.1964
285.5471	0.1911
285.7601	0.1877
285.9731	0.1942
286.1861	0.2101
286.3991	0.1846
286.612	0.1859
286.825	0.1919
287.0379	0.1872
287.2508	0.1828
287.4637	0.1802
287.6766	0.1812
287.8895	0.1822
288.1024	0.181
288.3152	0.1858
288.5281	0.1784
288.7409	0.181
288.9538	0.176
289.1666	0.1877
289.3794	0.1821
289.5922	0.1749
289.8049	0.1804
290.0177	0.1813
290.2304	0.1855
290.4432	0.1705
290.6559	0.1899
290.8686	0.1849
291.0813	0.1706
291.294	0.1965
291.5067	0.1905
291.7194	0.1822
291.932	0.191
292.1447	0.1972
292.3573	0.1903
292.5699	0.1928
292.7825	0.1815
292.9951	0.1939
293.2077	0.1892
293.4203	0.1832
293.6328	0.1848
293.8454	0.1718
294.0579	0.1775
294.2704	0.1777
294.4829	0.1842
294.6954	0.1764
294.9079	0.1736
295.1204	0.1955
295.3328	0.164
295.5453	0.1599
295.7577	0.183
295.9701	0.176
296.1825	0.1723
296.3949	0.1764
296.6073	0.1702
296.8197	0.1812
297.0321	0.1722
297.2444	0.1749
297.4567	0.1738
297.6691	0.1728
297.8814	0.1779
298.0937	0.1756
298.306	0.1739
298.5182	0.1772
298.7305	0.1716
298.9428	0.1747
299.155	0.1729
299.3672	0.1594
299.5794	0.1729
299.7916	0.1692
300.0038	0.1772
300.216	0.1648
300.4282	0.1744
300.6403	0.1824
300.8525	0.1748
301.0646	0.1797
301.2767	0.1796
301.4888	0.1735
301.7009	0.1733
301.913	0.177
302.125	0.1796
302.3371	0.1818
302.5491	0.1713
302.7612	0.1604
302.9732	0.1725
303.1852	0.1649
303.3972	0.1738
303.6092	0.1752
303.8211	0.1842
304.0331	0.1603
304.245	0.1632
304.457	0.1629
304.6689	0.162
304.8808	0.1556
305.0927	0.1604
305.3046	0.1522
305.5164	0.1666
305.7283	0.1552
305.9401	0.1482
306.152	0.153
306.3638	0.1549
306.5756	0.148
306.7874	0.1572
306.9992	0.1487
307.2109	0.1533
307.4227	0.1439
307.6344	0.1401
307.8462	0.1418
308.0579	0.1477
308.2696	0.1494
308.4813	0.1464
308.693	0.1462
308.9046	0.1373
309.1163	0.1312
309.328	0.1347
309.5396	0.1431
309.7512	0.1191
309.9628	0.128
310.1744	0.127
310.386	0.1264
310.5976	0.1192
310.8091	0.1274
311.0207	0.1237
311.2322	0.109
311.4437	0.1241
311.6552	0.1295
311.8667	0.1176
312.0782	0.1237
312.2897	0.1111
312.5012	0.1115
312.7126	0.1131
312.924	0.1071
313.1355	0.1216
313.3469	0.1145
313.5583	0.111
313.7696	0.1145
313.981	0.1206
314.1924	0.1168
314.4037	0.1074
314.6151	0.1119
314.8264	0.1124
315.0377	0.1128
315.249	0.1079
315.4603	0.0991
315.6716	0.1091
315.8828	0.1116
316.0941	0.0901
316.3053	0.1037
316.5165	0.1003
316.7277	0.0909
316.9389	0.1106
317.1501	0.1092
317.3613	0.1059
317.5724	0.1081
317.7836	0.1057
317.9947	0.1182
318.2058	0.1119
318.417	0.1207
318.6281	0.1008
318.8391	0.0959
319.0502	0.106
319.2613	0.1045
319.4723	0.117
319.6834	0.1049
319.8944	0.111
320.1054	0.107
320.3164	0.1191
320.5274	0.0922
320.7383	0.0987
320.9493	0.1035
321.1602	0.1092
321.3712	0.1034
321.5821	0.1076
321.793	0.1031
322.0039	0.1123
322.2148	0.1053
322.4257	0.091
322.6365	0.1086
322.8474	0.0893
323.0582	0.1115
323.269	0.1131
323.4798	0.111
323.6906	0.0996
323.9014	0.1065
324.1122	0.105
324.3229	0.1085
324.5337	0.1055
324.7444	0.1111
324.9551	0.1148
325.1658	0.1049
325.3765	0.1127
325.5872	0.1116
325.7979	0.1052
326.0085	0.0943
326.2192	0.1008
326.4298	0.1151
326.6404	0.1139
326.851	0.1104
327.0616	0.1206
327.2722	0.123
327.4828	0.1099
327.6933	0.1104
327.9039	0.1044
328.1144	0.1134
328.3249	0.0942
328.5354	0.1009
328.7459	0.108
328.9564	0.1127
329.1669	0.1118
329.3773	0.1147
329.5878	0.1102
329.7982	0.1123
330.0086	0.1152
330.219	0.1162
330.4294	0.106
330.6398	0.1089
330.8502	0.1211
331.0605	0.1244
331.2708	0.1149
331.4812	0.1139
331.6915	0.1086
331.9018	0.124
332.1121	0.1179
332.3224	0.0926
332.5326	0.1206
332.7429	0.1038
332.9531	0.1081
333.1633	0.1132
333.3735	0.1123
333.5837	0.1106
333.7939	0.1027
334.0041	0.1252
334.2143	0.1115
334.4244	0.1237
334.6346	0.0925
334.8447	0.1178
335.0548	0.1157
335.2649	0.1184
335.475	0.1155
335.685	0.1092
335.8951	0.1168
336.1051	0.1241
336.3152	0.1164
336.5252	0.1107
336.7352	0.1218
336.9452	0.1217
337.1552	0.1276
337.3652	0.1214
337.5751	0.1168
337.7851	0.0988
337.995	0.1161
338.2049	0.1129
338.4148	0.1217
338.6247	0.114
338.8346	0.1314
339.0445	0.1084
339.2543	0.1215
339.4642	0.1255
339.674	0.1328
339.8838	0.1294
340.0936	0.1095
340.3034	0.1368
340.5132	0.131
340.7229	0.1392
340.9327	0.1153
341.1424	0.1148
341.3522	0.1207
341.5619	0.1051
341.7716	0.1192
341.9813	0.1286
342.1909	0.134
342.4006	0.115
342.6102	0.1148
342.8199	0.1227
343.0295	0.1269
343.2391	0.116
343.4487	0.1353
343.6583	0.1169
343.8679	0.132
344.0774	0.1271
344.287	0.1297
344.4965	0.1222
344.706	0.127
344.9155	0.1296
345.125	0.1322
345.3345	0.1394
345.544	0.1305
345.7534	0.127
345.9629	0.1365
346.1723	0.1272
346.3817	0.1262
346.5911	0.1391
346.8005	0.1385
347.0099	0.1181
347.2193	0.1358
347.4286	0.1366
347.638	0.1327
347.8473	0.1357
348.0566	0.1346
348.2659	0.1381
348.4752	0.1356
348.6845	0.141
348.8937	0.1408
349.103	0.1321
349.3122	0.1322
349.5214	0.1417
349.7306	0.1422
349.9398	0.1364
350.149	0.143
350.3582	0.1461
350.5674	0.1578
350.7765	0.1497
350.9856	0.1424
351.1948	0.1439
351.4039	0.1501
351.613	0.141
351.822	0.1449
352.0311	0.1537
352.2402	0.1297
352.4492	0.1452
352.6582	0.1265
352.8672	0.1536
353.0762	0.1562
353.2852	0.1492
353.4942	0.1337
353.7032	0.1481
353.9121	0.1527
354.1211	0.1437
354.33	0.1612
354.5389	0.1516
354.7478	0.1571
354.9567	0.1524
355.1655	0.1514
355.3744	0.1479
355.5833	0.1578
355.7921	0.1502
356.0009	0.1654
356.2097	0.1575
356.4185	0.1403
356.6273	0.1591
356.8361	0.1493
357.0448	0.152
357.2536	0.1567
357.4623	0.1637
357.671	0.1691
357.8797	0.1683
358.0884	0.1651
358.2971	0.1567
358.5057	0.1702
358.7144	0.1749
358.923	0.1715
359.1316	0.1621
359.3402	0.1836
359.5488	0.1659
359.7574	0.1758
359.966	0.1624
360.1746	0.1724
360.3831	0.1666
360.5916	0.1733
360.8002	0.1799
361.0087	0.1783
361.2172	0.1702
361.4256	0.1801
361.6341	0.1634
361.8426	0.179
362.051	0.1735
362.2594	0.1744
362.4678	0.1926
362.6762	0.1795
362.8846	0.1835
363.093	0.1617
363.3014	0.1696
363.5097	0.1888
363.718	0.1892
363.9264	0.1821
364.1347	0.1914
364.343	0.2025
364.5513	0.1826
364.7595	0.1924
364.9678	0.1959
365.176	0.2032
365.3842	0.1984
365.5925	0.1646
365.8007	0.1851
366.0089	0.1897
366.217	0.1892
366.4252	0.1941
366.6333	0.1906
366.8415	0.2076
367.0496	0.1851
367.2577	0.222
367.4658	0.1952
367.6739	0.198
367.882	0.201
368.09	0.211
368.2981	0.2002
368.5061	0.1987
368.7141	0.2189
368.9221	0.194
369.1301	0.2017
369.3381	0.212
369.5461	0.2046
369.754	0.2127
369.962	0.1986
370.1699	0.2057
370.3778	0.2049
370.5857	0.222
370.7936	0.2031
371.0015	0.21
371.2093	0.2153
371.4172	0.2168
371.625	0.2039
371.8328	0.2308
372.0406	0.2116
372.2484	0.1985
372.4562	0.2309
372.664	0.2248
372.8717	0.19
373.0795	0.2119
373.2872	0.2085
373.4949	0.2066
373.7026	0.2203
373.9103	0.2404
374.118	0.2132
374.3256	0.2042
374.5333	0.2292
374.7409	0.1895
374.9485	0.2334
375.1561	0.2282
375.3637	0.2008
375.5713	0.2212
375.7789	0.2177
375.9864	0.2207
376.194	0.2239
376.4015	0.2339
376.609	0.2186
376.8165	0.2341
377.024	0.2213
377.2315	0.2135
377.4389	0.2338
377.6464	0.2239
377.8538	0.2023
378.0612	0.2254
378.2686	0.2475
378.476	0.2306
378.6834	0.2304
378.8908	0.2167
379.0981	0.2288
379.3055	0.2251
379.5128	0.2318
379.7201	0.2488
379.9274	0.2325
380.1347	0.23
380.342	0.2288
380.5492	0.2354
380.7565	0.2336
380.9637	0.2438
381.1709	0.2303
381.3781	0.2541
381.5853	0.251
381.7925	0.2401
381.9997	0.2303
382.2068	0.2357
382.4139	0.2369
382.6211	0.2387
382.8282	0.2312
383.0353	0.2438
383.2424	0.2406
383.4494	0.2421
383.6565	0.2523
383.8635	0.2435
384.0706	0.2502
384.2776	0.239
384.4846	0.2298
384.6916	0.2576
384.8986	0.2312
385.1055	0.2337
385.3125	0.2442
385.5194	0.2416
385.7263	0.2491
385.9333	0.2365
386.1402	0.2336
386.347	0.2451
386.5539	0.2437
386.7608	0.2376
386.9676	0.2314
387.1744	0.2476
387.3813	0.2406
387.5881	0.2439
387.7948	0.2234
388.0016	0.2384
388.2084	0.2411
388.4151	0.241
388.6219	0.2224
388.8286	0.2291
389.0353	0.2455
389.242	0.2308
389.4487	0.2386
389.6553	0.2169
389.862	0.2309
390.0686	0.232
390.2753	0.2404
390.4819	0.2241
390.6885	0.2343
390.8951	0.2336
391.1016	0.2412
391.3082	0.2252
391.5147	0.2304
391.7213	0.2263
391.9278	0.2263
392.1343	0.2167
392.3408	0.2216
392.5473	0.2146
392.7537	0.2158
392.9602	0.2409
393.1666	0.2085
393.373	0.1935
393.5794	0.2048
393.7858	0.2263
393.9922	0.2382
394.1986	0.2221
394.4049	0.2144
394.6113	0.1857
394.8176	0.2205
395.0239	0.2211
395.2302	0.2038
395.4365	0.207
395.6428	0.2142
395.8491	0.1914
396.0553	0.2146
396.2615	0.2105
396.4678	0.1958
396.674	0.2099
396.8802	0.2056
397.0863	0.2073
397.2925	0.2058
397.4987	0.2043
397.7048	0.2002
397.9109	0.2134
398.117	0.1967
398.3231	0.1979
398.5292	0.2037
398.7353	0.1948
398.9413	0.1884
399.1474	0.203
399.3534	0.2024
399.5594	0.1951
399.7654	0.2127
399.9714	0.2138
400.1774	0.2027
400.3833	0.2097
400.5893	0.1914
400.7952	0.2036
401.0011	0.1957
401.207	0.2198
401.4129	0.1914
401.6188	0.1973
401.8247	0.1983
402.0305	0.207
402.2364	0.2065
402.4422	0.2062
402.648	0.2045
402.8538	0.2035
403.0596	0.1921
403.2654	0.2046
403.4711	0.2053
403.6768	0.1724
403.8826	0.1981
404.0883	0.1896
404.294	0.22
404.4997	0.1727
404.7054	0.1846
404.911	0.2169
405.1167	0.196
405.3223	0.2164
405.5279	0.1974
405.7335	0.2022
405.9391	0.2094
406.1447	0.2018
406.3502	0.1992
406.5558	0.2124
406.7613	0.2263
406.9668	0.2134
407.1724	0.2029
407.3778	0.2062
407.5833	0.1855
407.7888	0.1923
407.9942	0.2047
408.1997	0.205
408.4051	0.1989
408.6105	0.1665
408.8159	0.2053
409.0213	0.1865
409.2267	0.2144
409.432	0.1988
409.6374	0.1932
409.8427	0.1945
410.048	0.1984
410.2533	0.1945
410.4586	0.1845
410.6639	0.2056
410.8691	0.1921
411.0744	0.2043
411.2796	0.2019
411.4848	0.2052
411.69	0.1969
411.8952	0.1899
412.1004	0.1898
412.3056	0.1981
412.5107	0.1799
412.7158	0.2147
412.921	0.2156
413.1261	0.1939
413.3312	0.1769
413.5362	0.2031
413.7413	0.1871
413.9464	0.2019
414.1514	0.188
414.3564	0.1843
414.5614	0.1619
414.7664	0.1946
414.9714	0.1987
415.1764	0.1872
415.3813	0.2042
415.5863	0.1789
415.7912	0.1924
415.9961	0.1976
416.201	0.1879
416.4059	0.1902
416.6108	0.1933
416.8156	0.1976
417.0205	0.186
417.2253	0.1842
417.4301	0.1819
417.6349	0.1844
417.8397	0.1734
418.0445	0.1741
418.2492	0.1854
418.454	0.168
418.6587	0.1952
418.8634	0.2096
419.0681	0.1869
419.2728	0.1699
419.4775	0.184
419.6822	0.1802
419.8868	0.1867
420.0915	0.1677
420.2961	0.182
420.5007	0.1848
420.7053	0.1721
420.9099	0.1795
421.1144	0.1883
421.319	0.1889
421.5235	0.1868
421.728	0.1824
421.9325	0.1807
422.137	0.1909
422.3415	0.1633
422.546	0.1639
422.7504	0.1896
422.9549	0.1728
423.1593	0.1626
423.3637	0.1885
423.5681	0.1514
423.7725	0.157
423.9769	0.1712
424.1812	0.1775
424.3856	0.1774
424.5899	0.1832
424.7942	0.165
424.9985	0.1631
425.2028	0.1606
425.4071	0.1567
425.6113	0.1703
425.8156	0.1811
426.0198	0.1562
426.224	0.1616
426.4282	0.1922
426.6324	0.1678
