Data from MonoPyChalIsomerACN10uM400nmA_Absorbance_12-08-41-129.txt Node
Date: Fri Jul 05 12:08:41 BST 2024
User: LASERRRRR
Spectrometer: FLMT03099
Trigger mode: 0
Integration Time (sec): 1.000000E-1
Scans to average: 1
Electric dark correction enabled: true
Nonlinearity correction enabled: false
Boxcar width: 0
XAxis mode: Wavelengths
Number of Pixels in Spectrum: 3648
>>>>>Begin Spectral Data<<<<<
179.3399	-0.1198
179.5586	-0.1198
179.7771	-0.1198
179.9957	0.2529
180.2143	0.1012
180.4329	-0.4326
180.6514	-0
180.8699	0.1855
181.0885	0.243
181.307	0.2537
181.5255	0.3049
181.744	0.0786
181.9625	-0.6021
182.181	-0
182.3994	0.2622
182.6179	0.4036
182.8363	-0.159
183.0547	0.2105
183.2732	0.1507
183.4916	0.0713
183.71	0.0399
183.9284	0.2091
184.1467	0.1064
184.3651	-0.0762
184.5835	0.3137
184.8018	0.0386
185.0201	0.1674
185.2385	-0.0559
185.4568	0.4572
185.6751	0.0983
185.8934	-0.0729
186.1117	0.2026
186.3299	0.4245
186.5482	0.0546
186.7664	0.2486
186.9847	0.086
187.2029	0.0733
187.4211	-0.3451
187.6393	-0.196
187.8575	0.1668
188.0757	-0.0462
188.2939	0.0967
188.512	0.0903
188.7302	0.0325
188.9483	-0.0357
189.1665	0.305
189.3846	0.02
189.6027	0.1636
189.8208	0.1597
190.0389	0.1954
190.257	0.2239
190.475	0.4412
190.6931	0.4869
190.9111	0.1615
191.1292	0.5801
191.3472	0.7182
191.5652	0.1751
191.7832	0.3228
192.0012	0.7749
192.2192	0.3291
192.4371	0.4763
192.6551	0.3916
192.873	0.4944
193.091	0.2606
193.3089	0.4256
193.5268	0.8174
193.7447	0.3951
193.9626	0.4552
194.1805	0.5643
194.3984	0.3573
194.6162	0.4376
194.8341	0.5744
195.0519	0.5595
195.2697	0.4963
195.4875	0.6258
195.7054	0.5624
195.9231	0.5904
196.1409	0.9134
196.3587	0.7156
196.5765	0.7207
196.7942	0.5509
197.012	0.799
197.2297	0.6953
197.4474	0.7502
197.6651	0.7683
197.8828	0.611
198.1005	0.7443
198.3182	0.6763
198.5358	0.9961
198.7535	0.6749
198.9711	0.5793
199.1888	0.6947
199.4064	0.769
199.624	0.7376
199.8416	0.5415
200.0592	0.6794
200.2767	0.5259
200.4943	0.6876
200.7119	0.8467
200.9294	0.6318
201.1469	0.87
201.3645	0.6614
201.582	0.6917
201.7995	1.0659
202.017	0.678
202.2344	0.6925
202.4519	0.8617
202.6694	0.8745
202.8868	0.8267
203.1042	0.744
203.3217	0.6576
203.5391	0.8271
203.7565	0.8002
203.9739	0.8279
204.1913	0.996
204.4086	0.6839
204.626	0.884
204.8433	1.1066
205.0607	0.6677
205.278	0.8662
205.4953	0.7635
205.7126	0.6
205.9299	0.9461
206.1472	0.7842
206.3644	0.6852
206.5817	0.6649
206.7989	0.6629
207.0162	0.8242
207.2334	0.7446
207.4506	0.754
207.6678	0.7788
207.885	0.8027
208.1022	0.8176
208.3194	0.7459
208.5365	0.71
208.7537	0.7851
208.9708	0.8654
209.1879	0.791
209.405	0.7122
209.6222	0.8225
209.8392	0.7188
210.0563	0.7311
210.2734	0.7942
210.4905	0.7948
210.7075	0.8339
210.9245	0.793
211.1416	0.791
211.3586	0.8364
211.5756	0.7657
211.7926	0.7651
212.0096	0.7073
212.2265	0.7269
212.4435	0.723
212.6604	0.6968
212.8774	0.7045
213.0943	0.6882
213.3112	0.7579
213.5281	0.6247
213.745	0.7667
213.9619	0.7092
214.1788	0.7014
214.3956	0.673
214.6125	0.6041
214.8293	0.6726
215.0461	0.7166
215.2629	0.6438
215.4798	0.6399
215.6965	0.6589
215.9133	0.6152
216.1301	0.5745
216.3469	0.648
216.5636	0.6535
216.7803	0.6034
216.9971	0.6275
217.2138	0.6447
217.4305	0.6119
217.6472	0.6246
217.8639	0.58
218.0805	0.6476
218.2972	0.5729
218.5138	0.5888
218.7305	0.6036
218.9471	0.5697
219.1637	0.5962
219.3803	0.5025
219.5969	0.5888
219.8135	0.548
220.0301	0.5699
220.2466	0.5551
220.4632	0.5641
220.6797	0.5957
220.8962	0.5708
221.1127	0.6266
221.3292	0.5077
221.5457	0.5895
221.7622	0.5897
221.9787	0.5211
222.1951	0.5865
222.4116	0.522
222.628	0.5866
222.8444	0.5499
223.0608	0.5564
223.2772	0.5519
223.4936	0.5733
223.71	0.5508
223.9264	0.5171
224.1427	0.5242
224.3591	0.5452
224.5754	0.5491
224.7917	0.536
225.008	0.6353
225.2243	0.546
225.4406	0.5416
225.6569	0.545
225.8732	0.6102
226.0894	0.5401
226.3057	0.586
226.5219	0.5842
226.7381	0.5986
226.9543	0.5872
227.1705	0.5699
227.3867	0.5525
227.6029	0.5366
227.8191	0.5482
228.0352	0.5663
228.2513	0.5782
228.4675	0.6133
228.6836	0.5975
228.8997	0.5622
229.1158	0.5921
229.3319	0.5865
229.548	0.5739
229.764	0.5795
229.9801	0.6001
230.1961	0.5747
230.4121	0.575
230.6282	0.6069
230.8442	0.5942
231.0602	0.541
231.2761	0.5981
231.4921	0.5769
231.7081	0.5917
231.924	0.5867
232.14	0.5957
232.3559	0.6085
232.5718	0.5781
232.7877	0.5583
233.0036	0.5929
233.2195	0.5756
233.4353	0.6119
233.6512	0.5876
233.867	0.5732
234.0829	0.5633
234.2987	0.5695
234.5145	0.5488
234.7303	0.5797
234.9461	0.5715
235.1619	0.5667
235.3776	0.5784
235.5934	0.5332
235.8091	0.5561
236.0249	0.5474
236.2406	0.5615
236.4563	0.5673
236.672	0.5441
236.8877	0.5722
237.1034	0.5384
237.319	0.5371
237.5347	0.5682
237.7503	0.5639
237.966	0.5369
238.1816	0.554
238.3972	0.5675
238.6128	0.5375
238.8284	0.53
239.0439	0.5559
239.2595	0.5368
239.475	0.5523
239.6906	0.5234
239.9061	0.5199
240.1216	0.5371
240.3371	0.5377
240.5526	0.5212
240.7681	0.5267
240.9836	0.5321
241.199	0.5075
241.4145	0.4856
241.6299	0.4848
241.8453	0.4791
242.0607	0.5003
242.2761	0.4934
242.4915	0.4487
242.7069	0.46
242.9223	0.4573
243.1376	0.4214
243.353	0.4279
243.5683	0.4174
243.7836	0.4161
243.9989	0.4222
244.2142	0.4249
244.4295	0.3921
244.6448	0.382
244.86	0.3805
245.0753	0.3791
245.2905	0.3699
245.5057	0.3556
245.721	0.3596
245.9362	0.3399
246.1514	0.3383
246.3665	0.3284
246.5817	0.3207
246.7969	0.2989
247.012	0.3259
247.2271	0.3088
247.4423	0.2944
247.6574	0.3088
247.8725	0.2782
248.0876	0.2926
248.3026	0.2708
248.5177	0.2886
248.7328	0.2935
248.9478	0.2688
249.1628	0.2412
249.3779	0.2549
249.5929	0.2576
249.8079	0.2586
250.0228	0.2486
250.2378	0.2512
250.4528	0.2284
250.6677	0.2318
250.8827	0.2298
251.0976	0.222
251.3125	0.2346
251.5274	0.2478
251.7423	0.226
251.9572	0.2255
252.172	0.2162
252.3869	0.2263
252.6017	0.2142
252.8166	0.2082
253.0314	0.2155
253.2462	0.2152
253.461	0.2219
253.6758	0.2053
253.8906	0.21
254.1053	0.1976
254.3201	0.2219
254.5348	0.2076
254.7496	0.2093
254.9643	0.1966
255.179	0.1926
255.3937	0.1979
255.6083	0.1887
255.823	0.1896
256.0377	0.1918
256.2523	0.1979
256.467	0.209
256.6816	0.1906
256.8962	0.1929
257.1108	0.2
257.3254	0.2052
257.54	0.2015
257.7545	0.1951
257.9691	0.2032
258.1836	0.1874
258.3981	0.1868
258.6127	0.1967
258.8272	0.1974
259.0417	0.1869
259.2561	0.1835
259.4706	0.1876
259.6851	0.2033
259.8995	0.1847
260.114	0.1737
260.3284	0.1911
260.5428	0.1956
260.7572	0.1986
260.9716	0.1825
261.186	0.1792
261.4003	0.2054
261.6147	0.1983
261.829	0.1905
262.0433	0.1858
262.2577	0.1881
262.472	0.1892
262.6863	0.1858
262.9005	0.1777
263.1148	0.1981
263.3291	0.1851
263.5433	0.1719
263.7576	0.1914
263.9718	0.1864
264.186	0.1837
264.4002	0.194
264.6144	0.1989
264.8286	0.1836
265.0427	0.1807
265.2569	0.1816
265.471	0.1882
265.6851	0.1856
265.8993	0.1865
266.1134	0.1927
266.3275	0.1898
266.5415	0.1814
266.7556	0.1912
266.9697	0.2007
267.1837	0.1873
267.3978	0.1815
267.6118	0.1825
267.8258	0.1955
268.0398	0.1968
268.2538	0.1929
268.4677	0.1848
268.6817	0.1696
268.8957	0.1856
269.1096	0.1864
269.3235	0.1718
269.5374	0.1887
269.7514	0.1652
269.9652	0.1695
270.1791	0.177
270.393	0.1651
270.6068	0.1713
270.8207	0.1721
271.0345	0.1655
271.2483	0.1718
271.4622	0.1702
271.676	0.1669
271.8897	0.1831
272.1035	0.1773
272.3173	0.1748
272.531	0.1607
272.7448	0.1653
272.9585	0.1719
273.1722	0.175
273.3859	0.1604
273.5996	0.1752
273.8133	0.1601
274.0269	0.1579
274.2406	0.1593
274.4542	0.1744
274.6679	0.1706
274.8815	0.1606
275.0951	0.1805
275.3087	0.1686
275.5223	0.1794
275.7358	0.1671
275.9494	0.1577
276.1629	0.1594
276.3765	0.1659
276.59	0.171
276.8035	0.1671
277.017	0.1711
277.2305	0.1728
277.444	0.1627
277.6574	0.1658
277.8709	0.163
278.0843	0.1826
278.2978	0.1609
278.5112	0.1865
278.7246	0.16
278.938	0.1782
279.1513	0.1774
279.3647	0.1651
279.5781	0.1684
279.7914	0.1679
280.0047	0.1836
280.2181	0.1755
280.4314	0.1798
280.6447	0.1767
280.8579	0.18
281.0712	0.1864
281.2845	0.1816
281.4977	0.1813
281.711	0.1723
281.9242	0.1804
282.1374	0.1704
282.3506	0.1736
282.5638	0.1781
282.7769	0.1792
282.9901	0.1703
283.2033	0.1833
283.4164	0.1758
283.6295	0.1803
283.8426	0.1761
284.0557	0.1759
284.2688	0.1723
284.4819	0.1846
284.695	0.1871
284.908	0.1885
285.1211	0.1754
285.3341	0.1807
285.5471	0.2057
285.7601	0.1856
285.9731	0.1817
286.1861	0.1868
286.3991	0.1807
286.612	0.1848
286.825	0.1893
287.0379	0.1923
287.2508	0.197
287.4637	0.1899
287.6766	0.1817
287.8895	0.1746
288.1024	0.1895
288.3152	0.1956
288.5281	0.1816
288.7409	0.1835
288.9538	0.1931
289.1666	0.1884
289.3794	0.1866
289.5922	0.1826
289.8049	0.1704
290.0177	0.1875
290.2304	0.1741
290.4432	0.1766
290.6559	0.1927
290.8686	0.1802
291.0813	0.1819
291.294	0.1917
291.5067	0.1828
291.7194	0.1759
291.932	0.1953
292.1447	0.1973
292.3573	0.1987
292.5699	0.201
292.7825	0.1715
292.9951	0.195
293.2077	0.1869
293.4203	0.1875
293.6328	0.1933
293.8454	0.1766
294.0579	0.1961
294.2704	0.187
294.4829	0.1906
294.6954	0.1843
294.9079	0.1862
295.1204	0.1837
295.3328	0.1821
295.5453	0.1744
295.7577	0.1796
295.9701	0.1874
296.1825	0.1845
296.3949	0.1755
296.6073	0.1856
296.8197	0.1846
297.0321	0.1862
297.2444	0.1759
297.4567	0.1801
297.6691	0.1759
297.8814	0.1828
298.0937	0.1739
298.306	0.1798
298.5182	0.1892
298.7305	0.1838
298.9428	0.1858
299.155	0.1872
299.3672	0.172
299.5794	0.1789
299.7916	0.1812
300.0038	0.1902
300.216	0.1705
300.4282	0.1842
300.6403	0.1947
300.8525	0.1778
301.0646	0.1917
301.2767	0.1991
301.4888	0.1794
301.7009	0.1771
301.913	0.1873
302.125	0.1779
302.3371	0.1895
302.5491	0.1783
302.7612	0.1742
302.9732	0.1692
303.1852	0.1824
303.3972	0.1802
303.6092	0.1696
303.8211	0.1841
304.0331	0.1662
304.245	0.176
304.457	0.1795
304.6689	0.1598
304.8808	0.1631
305.0927	0.1738
305.3046	0.1673
305.5164	0.1775
305.7283	0.1761
305.9401	0.1537
306.152	0.1506
306.3638	0.1547
306.5756	0.1549
306.7874	0.1586
306.9992	0.1507
307.2109	0.1546
307.4227	0.1696
307.6344	0.1564
307.8462	0.1393
308.0579	0.1388
308.2696	0.1551
308.4813	0.1435
308.693	0.1473
308.9046	0.1374
309.1163	0.1403
309.328	0.1507
309.5396	0.149
309.7512	0.1324
309.9628	0.1327
310.1744	0.1302
310.386	0.1223
310.5976	0.1293
310.8091	0.1357
311.0207	0.1286
311.2322	0.1228
311.4437	0.1223
311.6552	0.1319
311.8667	0.1134
312.0782	0.1149
312.2897	0.1108
312.5012	0.1059
312.7126	0.1227
312.924	0.1073
313.1355	0.1131
313.3469	0.1057
313.5583	0.1138
313.7696	0.1038
313.981	0.1166
314.1924	0.1188
314.4037	0.0986
314.6151	0.1061
314.8264	0.1019
315.0377	0.1141
315.249	0.107
315.4603	0.1048
315.6716	0.109
315.8828	0.1006
316.0941	0.0903
316.3053	0.0992
316.5165	0.1048
316.7277	0.0934
316.9389	0.1049
317.1501	0.0999
317.3613	0.0942
317.5724	0.112
317.7836	0.1022
317.9947	0.1111
318.2058	0.1064
318.417	0.0975
318.6281	0.1077
318.8391	0.0984
319.0502	0.0983
319.2613	0.104
319.4723	0.1077
319.6834	0.0942
319.8944	0.0937
320.1054	0.1018
320.3164	0.097
320.5274	0.0868
320.7383	0.0971
320.9493	0.0994
321.1602	0.1051
321.3712	0.0908
321.5821	0.0998
321.793	0.105
322.0039	0.1012
322.2148	0.0955
322.4257	0.1008
322.6365	0.1065
322.8474	0.0978
323.0582	0.0956
323.269	0.1003
323.4798	0.1101
323.6906	0.0837
323.9014	0.1063
324.1122	0.0917
324.3229	0.1029
324.5337	0.1026
324.7444	0.1049
324.9551	0.1098
325.1658	0.1047
325.3765	0.1132
325.5872	0.1051
325.7979	0.1024
326.0085	0.0995
326.2192	0.0852
326.4298	0.1128
326.6404	0.0974
326.851	0.0998
327.0616	0.1007
327.2722	0.1122
327.4828	0.1069
327.6933	0.1034
327.9039	0.0903
328.1144	0.0941
328.3249	0.0956
328.5354	0.094
328.7459	0.0968
328.9564	0.1033
329.1669	0.1177
329.3773	0.1078
329.5878	0.1012
329.7982	0.0934
330.0086	0.0919
330.219	0.0956
330.4294	0.0949
330.6398	0.0964
330.8502	0.1121
331.0605	0.1173
331.2708	0.0937
331.4812	0.1056
331.6915	0.1068
331.9018	0.1001
332.1121	0.1029
332.3224	0.0975
332.5326	0.1089
332.7429	0.1114
332.9531	0.1013
333.1633	0.1017
333.3735	0.1054
333.5837	0.1107
333.7939	0.0959
334.0041	0.1141
334.2143	0.1074
334.4244	0.1063
334.6346	0.0898
334.8447	0.0992
335.0548	0.1132
335.2649	0.1141
335.475	0.0956
335.685	0.0941
335.8951	0.1184
336.1051	0.1069
336.3152	0.1199
336.5252	0.1078
336.7352	0.1237
336.9452	0.1158
337.1552	0.1101
337.3652	0.1096
337.5751	0.1146
337.7851	0.1018
337.995	0.1164
338.2049	0.1007
338.4148	0.1171
338.6247	0.1032
338.8346	0.1124
339.0445	0.1039
339.2543	0.1142
339.4642	0.1178
339.674	0.124
339.8838	0.1217
340.0936	0.1149
340.3034	0.1223
340.5132	0.1296
340.7229	0.1158
340.9327	0.1188
341.1424	0.1182
341.3522	0.1193
341.5619	0.1052
341.7716	0.121
341.9813	0.1074
342.1909	0.1096
342.4006	0.1186
342.6102	0.1044
342.8199	0.1143
343.0295	0.127
343.2391	0.1219
343.4487	0.1177
343.6583	0.1331
343.8679	0.1255
344.0774	0.1256
344.287	0.1195
344.4965	0.1329
344.706	0.1162
344.9155	0.1193
345.125	0.1214
345.3345	0.1197
345.544	0.1277
345.7534	0.1243
345.9629	0.1254
346.1723	0.1188
346.3817	0.1318
346.5911	0.1273
346.8005	0.1258
347.0099	0.1211
347.2193	0.1273
347.4286	0.1409
347.638	0.1275
347.8473	0.1226
348.0566	0.1336
348.2659	0.1348
348.4752	0.1415
348.6845	0.1315
348.8937	0.1378
349.103	0.1207
349.3122	0.1373
349.5214	0.1438
349.7306	0.1301
349.9398	0.1441
350.149	0.1402
350.3582	0.1402
350.5674	0.1423
350.7765	0.1359
350.9856	0.1343
351.1948	0.1359
351.4039	0.1507
351.613	0.1481
351.822	0.1397
352.0311	0.1509
352.2402	0.1303
352.4492	0.1547
352.6582	0.1427
352.8672	0.1505
353.0762	0.1482
353.2852	0.1569
353.4942	0.1482
353.7032	0.161
353.9121	0.1454
354.1211	0.1382
354.33	0.1562
354.5389	0.1519
354.7478	0.1582
354.9567	0.1663
355.1655	0.1603
355.3744	0.1556
355.5833	0.1627
355.7921	0.1518
356.0009	0.1531
356.2097	0.1529
356.4185	0.1443
356.6273	0.1494
356.8361	0.1637
357.0448	0.1398
357.2536	0.1649
357.4623	0.1679
357.671	0.1588
357.8797	0.1718
358.0884	0.1646
358.2971	0.1575
358.5057	0.166
358.7144	0.1683
358.923	0.1612
359.1316	0.1667
359.3402	0.1772
359.5488	0.1767
359.7574	0.1778
359.966	0.1626
360.1746	0.1645
360.3831	0.1855
360.5916	0.1963
360.8002	0.2036
361.0087	0.1838
361.2172	0.1813
361.4256	0.187
361.6341	0.1876
361.8426	0.1904
362.051	0.1795
362.2594	0.1827
362.4678	0.1776
362.6762	0.176
362.8846	0.184
363.093	0.1956
363.3014	0.1832
363.5097	0.189
363.718	0.1952
363.9264	0.2037
364.1347	0.1918
364.343	0.1848
364.5513	0.1817
364.7595	0.1874
364.9678	0.2083
365.176	0.2013
365.3842	0.1922
365.5925	0.1847
365.8007	0.1999
366.0089	0.2094
366.217	0.206
366.4252	0.2025
366.6333	0.2048
366.8415	0.2008
367.0496	0.2006
367.2577	0.2201
367.4658	0.2078
367.6739	0.2105
367.882	0.2174
368.09	0.2202
368.2981	0.1924
368.5061	0.2107
368.7141	0.2037
368.9221	0.2047
369.1301	0.2083
369.3381	0.2179
369.5461	0.2061
369.754	0.2021
369.962	0.2073
370.1699	0.2033
370.3778	0.2195
370.5857	0.226
370.7936	0.2084
371.0015	0.2314
371.2093	0.2333
371.4172	0.2144
371.625	0.2311
371.8328	0.2432
372.0406	0.2199
372.2484	0.2262
372.4562	0.212
372.664	0.2491
372.8717	0.2221
373.0795	0.2197
373.2872	0.2334
373.4949	0.2325
373.7026	0.2398
373.9103	0.244
374.118	0.2265
374.3256	0.2328
374.5333	0.227
374.7409	0.2312
374.9485	0.2302
375.1561	0.2407
375.3637	0.2105
375.5713	0.2506
375.7789	0.2407
375.9864	0.2308
376.194	0.2245
376.4015	0.2554
376.609	0.2328
376.8165	0.2229
377.024	0.2272
377.2315	0.2463
377.4389	0.2276
377.6464	0.2296
377.8538	0.2458
378.0612	0.2224
378.2686	0.2573
378.476	0.2431
378.6834	0.2391
378.8908	0.2326
379.0981	0.2469
379.3055	0.2525
379.5128	0.2758
379.7201	0.2454
379.9274	0.2476
380.1347	0.2473
380.342	0.2476
380.5492	0.2529
380.7565	0.273
380.9637	0.2626
381.1709	0.2571
381.3781	0.2643
381.5853	0.2713
381.7925	0.2657
381.9997	0.2245
382.2068	0.2637
382.4139	0.2635
382.6211	0.246
382.8282	0.245
383.0353	0.2659
383.2424	0.2566
383.4494	0.2463
383.6565	0.2666
383.8635	0.2596
384.0706	0.2748
384.2776	0.2801
384.4846	0.2558
384.6916	0.2801
384.8986	0.2487
385.1055	0.2325
385.3125	0.2657
385.5194	0.2664
385.7263	0.2628
385.9333	0.26
386.1402	0.2542
386.347	0.2764
386.5539	0.2617
386.7608	0.2784
386.9676	0.2465
387.1744	0.2622
387.3813	0.2406
387.5881	0.2337
387.7948	0.2666
388.0016	0.2596
388.2084	0.2552
388.4151	0.2701
388.6219	0.2661
388.8286	0.2554
389.0353	0.2618
389.242	0.2716
389.4487	0.2591
389.6553	0.2643
389.862	0.2585
390.0686	0.2696
390.2753	0.2813
390.4819	0.27
390.6885	0.2584
390.8951	0.2396
391.1016	0.2435
391.3082	0.2395
391.5147	0.2471
391.7213	0.2535
391.9278	0.2435
392.1343	0.2274
392.3408	0.2334
392.5473	0.2404
392.7537	0.2385
392.9602	0.2638
393.1666	0.2425
393.373	0.2338
393.5794	0.2327
393.7858	0.2464
393.9922	0.2673
394.1986	0.261
394.4049	0.232
394.6113	0.2371
394.8176	0.23
395.0239	0.2348
395.2302	0.2198
395.4365	0.2249
395.6428	0.2254
395.8491	0.2103
396.0553	0.2389
396.2615	0.2163
396.4678	0.2201
396.674	0.2044
396.8802	0.2372
397.0863	0.2271
397.2925	0.2118
397.4987	0.2274
397.7048	0.2188
397.9109	0.239
398.117	0.2356
398.3231	0.231
398.5292	0.225
398.7353	0.2292
398.9413	0.2016
399.1474	0.2202
399.3534	0.2064
399.5594	0.2424
399.7654	0.2251
399.9714	0.217
400.1774	0.2076
400.3833	0.2302
400.5893	0.1969
400.7952	0.222
401.0011	0.234
401.207	0.2152
401.4129	0.2025
401.6188	0.2149
401.8247	0.2335
402.0305	0.2067
402.2364	0.2345
402.4422	0.2338
402.648	0.211
402.8538	0.2093
403.0596	0.1957
403.2654	0.2119
403.4711	0.2142
403.6768	0.2201
403.8826	0.2519
404.0883	0.2141
404.294	0.2218
404.4997	0.2128
404.7054	0.224
404.911	0.2321
405.1167	0.207
405.3223	0.2139
405.5279	0.2427
405.7335	0.2488
405.9391	0.2202
406.1447	0.2321
406.3502	0.2294
406.5558	0.2131
406.7613	0.2297
406.9668	0.1999
407.1724	0.226
407.3778	0.2042
407.5833	0.2264
407.7888	0.2361
407.9942	0.2285
408.1997	0.2409
408.4051	0.2018
408.6105	0.2025
408.8159	0.2013
409.0213	0.2116
409.2267	0.2218
409.432	0.2405
409.6374	0.2191
409.8427	0.2072
410.048	0.2189
410.2533	0.2256
410.4586	0.197
410.6639	0.2219
410.8691	0.2216
411.0744	0.2271
411.2796	0.2016
411.4848	0.2137
411.69	0.2197
411.8952	0.2222
412.1004	0.2202
412.3056	0.2063
412.5107	0.2086
412.7158	0.2132
412.921	0.2163
413.1261	0.2213
413.3312	0.209
413.5362	0.2216
413.7413	0.2251
413.9464	0.2213
414.1514	0.2229
414.3564	0.2118
414.5614	0.202
414.7664	0.2132
414.9714	0.2179
415.1764	0.1999
415.3813	0.2173
415.5863	0.2217
415.7912	0.217
415.9961	0.2233
416.201	0.2084
416.4059	0.2021
416.6108	0.2174
416.8156	0.2131
417.0205	0.2262
417.2253	0.2169
417.4301	0.2186
417.6349	0.231
417.8397	0.2055
418.0445	0.2019
418.2492	0.1974
418.454	0.204
418.6587	0.2236
418.8634	0.2216
419.0681	0.2215
419.2728	0.1998
419.4775	0.1967
419.6822	0.2128
419.8868	0.2141
420.0915	0.1874
420.2961	0.1992
420.5007	0.2003
420.7053	0.2106
420.9099	0.196
421.1144	0.223
421.319	0.2008
421.5235	0.2101
421.728	0.1952
421.9325	0.2058
422.137	0.1915
422.3415	0.2002
422.546	0.1946
422.7504	0.2134
422.9549	0.2068
423.1593	0.1904
423.3637	0.1978
423.5681	0.188
423.7725	0.1913
423.9769	0.178
424.1812	0.191
424.3856	0.2059
424.5899	0.2068
424.7942	0.1869
424.9985	0.1902
425.2028	0.1797
425.4071	0.1801
425.6113	0.1808
425.8156	0.2038
426.0198	0.2061
426.224	0.1805
426.4282	0.1963
