Data from MonoPyChalIsomerACN10uM400nmA_Absorbance_12-08-46-328.txt Node
Date: Fri Jul 05 12:08:46 BST 2024
User: LASERRRRR
Spectrometer: FLMT03099
Trigger mode: 0
Integration Time (sec): 1.000000E-1
Scans to average: 1
Electric dark correction enabled: true
Nonlinearity correction enabled: false
Boxcar width: 0
XAxis mode: Wavelengths
Number of Pixels in Spectrum: 3648
>>>>>Begin Spectral Data<<<<<
179.3399	0.3646
179.5586	0.3646
179.7771	0.3646
179.9957	0.6745
180.2143	-0.1747
180.4329	0.5342
180.6514	-0.491
180.8699	-0.2751
181.0885	0.0405
181.307	0.2705
181.5255	-0.7214
181.744	-0
181.9625	-0.6037
182.181	-0.2759
182.3994	-0.4975
182.6179	-0.0656
182.8363	-0.029
183.0547	0.0875
183.2732	0.2687
183.4916	0.0811
183.71	0.2449
183.9284	0.1021
184.1467	0.1186
184.3651	0.0891
184.5835	0.1084
184.8018	0.0625
185.0201	0.1407
185.2385	0.1659
185.4568	0.5521
185.6751	0.0142
185.8934	-0.0693
186.1117	0.0453
186.3299	0.2998
186.5482	-0.0205
186.7664	0.1929
186.9847	0.1236
187.2029	0.1251
187.4211	-0.3496
187.6393	0.0473
187.8575	-0.0089
188.0757	0.0879
188.2939	0.1406
188.512	0.2372
188.7302	0.0836
188.9483	0.0598
189.1665	0.0007
189.3846	0.4
189.6027	0.2692
189.8208	0.1376
190.0389	0.1772
190.257	0.1953
190.475	0.4894
190.6931	0.1706
190.9111	0.2969
191.1292	0.4083
191.3472	0.3472
191.5652	0.1196
191.7832	1.6174
192.0012	0.4826
192.2192	0.3817
192.4371	0.3246
192.6551	0.2872
192.873	0.6221
193.091	0.4136
193.3089	0.5253
193.5268	0.4932
193.7447	0.5958
193.9626	0.4761
194.1805	0.3406
194.3984	0.3287
194.6162	0.5338
194.8341	0.4644
195.0519	0.6555
195.2697	0.5068
195.4875	0.9295
195.7054	0.4533
195.9231	0.5173
196.1409	0.495
196.3587	0.5829
196.5765	0.6956
196.7942	0.6832
197.012	0.8468
197.2297	0.727
197.4474	0.5826
197.6651	0.7354
197.8828	0.6265
198.1005	0.7803
198.3182	1.2654
198.5358	0.7043
198.7535	0.5654
198.9711	0.6215
199.1888	0.7832
199.4064	0.8243
199.624	0.6138
199.8416	0.7058
200.0592	0.7716
200.2767	0.5331
200.4943	0.5883
200.7119	0.7733
200.9294	0.7795
201.1469	0.8449
201.3645	0.7424
201.582	0.7691
201.7995	0.708
202.017	0.8355
202.2344	0.5915
202.4519	0.7757
202.6694	0.8694
202.8868	0.8906
203.1042	0.7091
203.3217	0.6705
203.5391	0.8732
203.7565	0.7625
203.9739	0.6568
204.1913	0.8085
204.4086	0.7304
204.626	0.7358
204.8433	0.8505
205.0607	0.8562
205.278	0.8623
205.4953	0.6413
205.7126	0.7621
205.9299	1.0131
206.1472	0.7005
206.3644	0.577
206.5817	0.7528
206.7989	0.659
207.0162	0.732
207.2334	0.7704
207.4506	0.6937
207.6678	0.7356
207.885	0.7333
208.1022	0.8174
208.3194	0.728
208.5365	0.7489
208.7537	0.7127
208.9708	0.6352
209.1879	0.7775
209.405	0.7048
209.6222	0.8421
209.8392	0.7767
210.0563	0.7853
210.2734	0.7549
210.4905	0.7236
210.7075	0.7746
210.9245	0.8331
211.1416	0.7452
211.3586	0.8186
211.5756	0.7206
211.7926	0.8469
212.0096	0.6501
212.2265	0.685
212.4435	0.7322
212.6604	0.7152
212.8774	0.7123
213.0943	0.7788
213.3112	0.7125
213.5281	0.6592
213.745	0.6624
213.9619	0.712
214.1788	0.6417
214.3956	0.6541
214.6125	0.6051
214.8293	0.7379
215.0461	0.6659
215.2629	0.6854
215.4798	0.6432
215.6965	0.6679
215.9133	0.68
216.1301	0.6509
216.3469	0.6269
216.5636	0.6363
216.7803	0.5955
216.9971	0.6945
217.2138	0.6369
217.4305	0.6007
217.6472	0.592
217.8639	0.6082
218.0805	0.5774
218.2972	0.5679
218.5138	0.6177
218.7305	0.5399
218.9471	0.5924
219.1637	0.5636
219.3803	0.5364
219.5969	0.5406
219.8135	0.5465
220.0301	0.543
220.2466	0.5536
220.4632	0.5618
220.6797	0.5833
220.8962	0.5358
221.1127	0.5256
221.3292	0.5096
221.5457	0.5446
221.7622	0.5367
221.9787	0.5358
222.1951	0.5315
222.4116	0.5616
222.628	0.5774
222.8444	0.5546
223.0608	0.5246
223.2772	0.524
223.4936	0.5664
223.71	0.5546
223.9264	0.5375
224.1427	0.546
224.3591	0.5774
224.5754	0.5708
224.7917	0.5413
225.008	0.5609
225.2243	0.5454
225.4406	0.5588
225.6569	0.5433
225.8732	0.5665
226.0894	0.534
226.3057	0.5758
226.5219	0.5663
226.7381	0.5763
226.9543	0.5567
227.1705	0.5659
227.3867	0.5525
227.6029	0.5411
227.8191	0.5476
228.0352	0.5804
228.2513	0.6117
228.4675	0.5435
228.6836	0.6013
228.8997	0.5558
229.1158	0.572
229.3319	0.5562
229.548	0.6079
229.764	0.5891
229.9801	0.5533
230.1961	0.615
230.4121	0.5953
230.6282	0.5815
230.8442	0.5703
231.0602	0.5537
231.2761	0.589
231.4921	0.5792
231.7081	0.5382
231.924	0.6134
232.14	0.5832
232.3559	0.5646
232.5718	0.6047
232.7877	0.5668
233.0036	0.5843
233.2195	0.5605
233.4353	0.6059
233.6512	0.5747
233.867	0.5768
234.0829	0.5697
234.2987	0.6138
234.5145	0.5372
234.7303	0.577
234.9461	0.5595
235.1619	0.5688
235.3776	0.5586
235.5934	0.5473
235.8091	0.5618
236.0249	0.5407
236.2406	0.5548
236.4563	0.5521
236.672	0.5614
236.8877	0.5625
237.1034	0.536
237.319	0.5457
237.5347	0.5363
237.7503	0.5297
237.966	0.5268
238.1816	0.5582
238.3972	0.5735
238.6128	0.5568
238.8284	0.5427
239.0439	0.5675
239.2595	0.55
239.475	0.561
239.6906	0.4949
239.9061	0.5237
240.1216	0.5218
240.3371	0.515
240.5526	0.5363
240.7681	0.5361
240.9836	0.5243
241.199	0.4979
241.4145	0.5172
241.6299	0.4825
241.8453	0.5083
242.0607	0.4993
242.2761	0.4835
242.4915	0.4663
242.7069	0.4529
242.9223	0.4685
243.1376	0.454
243.353	0.4694
243.5683	0.4619
243.7836	0.44
243.9989	0.4256
244.2142	0.4398
244.4295	0.3754
244.6448	0.3982
244.86	0.394
245.0753	0.3949
245.2905	0.394
245.5057	0.377
245.721	0.3798
245.9362	0.3571
246.1514	0.3475
246.3665	0.3269
246.5817	0.3651
246.7969	0.3323
247.012	0.329
247.2271	0.3385
247.4423	0.3159
247.6574	0.3178
247.8725	0.3057
248.0876	0.2972
248.3026	0.3029
248.5177	0.3084
248.7328	0.2881
248.9478	0.296
249.1628	0.2501
249.3779	0.2539
249.5929	0.2751
249.8079	0.2719
250.0228	0.2634
250.2378	0.2686
250.4528	0.2501
250.6677	0.2616
250.8827	0.2314
251.0976	0.2389
251.3125	0.2465
251.5274	0.2402
251.7423	0.2441
251.9572	0.2282
252.172	0.2213
252.3869	0.2309
252.6017	0.2293
252.8166	0.2104
253.0314	0.2145
253.2462	0.2127
253.461	0.2207
253.6758	0.1974
253.8906	0.2101
254.1053	0.198
254.3201	0.2126
254.5348	0.1986
254.7496	0.216
254.9643	0.193
255.179	0.1997
255.3937	0.2078
255.6083	0.1828
255.823	0.1884
256.0377	0.1951
256.2523	0.205
256.467	0.2014
256.6816	0.1868
256.8962	0.188
257.1108	0.1957
257.3254	0.1998
257.54	0.1933
257.7545	0.1903
257.9691	0.1966
258.1836	0.1835
258.3981	0.1883
258.6127	0.1922
258.8272	0.1999
259.0417	0.1837
259.2561	0.1839
259.4706	0.1939
259.6851	0.1925
259.8995	0.1846
260.114	0.1732
260.3284	0.1814
260.5428	0.1847
260.7572	0.183
260.9716	0.1733
261.186	0.208
261.4003	0.1933
261.6147	0.1923
261.829	0.1969
262.0433	0.1914
262.2577	0.1912
262.472	0.2016
262.6863	0.201
262.9005	0.1856
263.1148	0.1853
263.3291	0.1963
263.5433	0.1834
263.7576	0.1983
263.9718	0.1789
264.186	0.203
264.4002	0.1957
264.6144	0.1847
264.8286	0.1979
265.0427	0.193
265.2569	0.2014
265.471	0.185
265.6851	0.1926
265.8993	0.1885
266.1134	0.1793
266.3275	0.1966
266.5415	0.1907
266.7556	0.1926
266.9697	0.1855
267.1837	0.202
267.3978	0.201
267.6118	0.1987
267.8258	0.2045
268.0398	0.2013
268.2538	0.2091
268.4677	0.1937
268.6817	0.186
268.8957	0.1929
269.1096	0.1963
269.3235	0.1964
269.5374	0.1859
269.7514	0.1773
269.9652	0.1951
270.1791	0.1762
270.393	0.1776
270.6068	0.2042
270.8207	0.1967
271.0345	0.1743
271.2483	0.1727
271.4622	0.1905
271.676	0.1851
271.8897	0.1921
272.1035	0.1819
272.3173	0.1908
272.531	0.1671
272.7448	0.1786
272.9585	0.1786
273.1722	0.1812
273.3859	0.1943
273.5996	0.1927
273.8133	0.1871
274.0269	0.1759
274.2406	0.1854
274.4542	0.1819
274.6679	0.1855
274.8815	0.1762
275.0951	0.1915
275.3087	0.1795
275.5223	0.1892
275.7358	0.1845
275.9494	0.195
276.1629	0.1895
276.3765	0.1808
276.59	0.1984
276.8035	0.1759
277.017	0.182
277.2305	0.1915
277.444	0.1718
277.6574	0.1813
277.8709	0.1809
278.0843	0.1988
278.2978	0.1775
278.5112	0.204
278.7246	0.1891
278.938	0.1906
279.1513	0.2094
279.3647	0.1709
279.5781	0.1889
279.7914	0.194
280.0047	0.1908
280.2181	0.1933
280.4314	0.1934
280.6447	0.1979
280.8579	0.1953
281.0712	0.1897
281.2845	0.1984
281.4977	0.1924
281.711	0.2033
281.9242	0.1899
282.1374	0.1802
282.3506	0.1787
282.5638	0.1934
282.7769	0.2024
282.9901	0.1977
283.2033	0.1912
283.4164	0.1854
283.6295	0.2039
283.8426	0.1876
284.0557	0.1768
284.2688	0.1805
284.4819	0.1847
284.695	0.1967
284.908	0.1996
285.1211	0.1884
285.3341	0.189
285.5471	0.198
285.7601	0.1929
285.9731	0.1923
286.1861	0.1986
286.3991	0.1894
286.612	0.1918
286.825	0.1957
287.0379	0.1908
287.2508	0.1806
287.4637	0.1959
287.6766	0.1695
287.8895	0.1788
288.1024	0.1917
288.3152	0.1905
288.5281	0.1849
288.7409	0.1705
288.9538	0.1899
289.1666	0.1765
289.3794	0.1778
289.5922	0.1853
289.8049	0.1638
290.0177	0.1804
290.2304	0.1762
290.4432	0.1713
290.6559	0.1743
290.8686	0.1793
291.0813	0.1608
291.294	0.1865
291.5067	0.1754
291.7194	0.1743
291.932	0.1892
292.1447	0.1872
292.3573	0.1704
292.5699	0.1713
292.7825	0.1691
292.9951	0.2016
293.2077	0.1932
293.4203	0.1886
293.6328	0.182
293.8454	0.165
294.0579	0.1794
294.2704	0.1738
294.4829	0.1873
294.6954	0.1904
294.9079	0.1779
295.1204	0.1748
295.3328	0.156
295.5453	0.1661
295.7577	0.1567
295.9701	0.1681
296.1825	0.1593
296.3949	0.176
296.6073	0.1687
296.8197	0.1678
297.0321	0.1672
297.2444	0.1601
297.4567	0.1624
297.6691	0.1753
297.8814	0.179
298.0937	0.1706
298.306	0.1691
298.5182	0.1728
298.7305	0.1725
298.9428	0.1708
299.155	0.1687
299.3672	0.1454
299.5794	0.1717
299.7916	0.1619
300.0038	0.1645
300.216	0.1603
300.4282	0.159
300.6403	0.1796
300.8525	0.1736
301.0646	0.1663
301.2767	0.1713
301.4888	0.1646
301.7009	0.1696
301.913	0.1721
302.125	0.1596
302.3371	0.1751
302.5491	0.1721
302.7612	0.1589
302.9732	0.1514
303.1852	0.1693
303.3972	0.161
303.6092	0.1605
303.8211	0.1674
304.0331	0.1469
304.245	0.1512
304.457	0.1488
304.6689	0.1556
304.8808	0.1462
305.0927	0.1478
305.3046	0.1559
305.5164	0.1558
305.7283	0.1575
305.9401	0.1493
306.152	0.1475
306.3638	0.1486
306.5756	0.1449
306.7874	0.1568
306.9992	0.1494
307.2109	0.1517
307.4227	0.1524
307.6344	0.1461
307.8462	0.1382
308.0579	0.1427
308.2696	0.1421
308.4813	0.1331
308.693	0.1435
308.9046	0.134
309.1163	0.1431
309.328	0.1295
309.5396	0.1514
309.7512	0.1247
309.9628	0.1192
310.1744	0.1358
310.386	0.1144
310.5976	0.1296
310.8091	0.1211
311.0207	0.1237
311.2322	0.1155
311.4437	0.132
311.6552	0.1318
311.8667	0.1214
312.0782	0.1182
312.2897	0.1062
312.5012	0.1168
312.7126	0.1218
312.924	0.1106
313.1355	0.1323
313.3469	0.1224
313.5583	0.1144
313.7696	0.1189
313.981	0.1152
314.1924	0.1182
314.4037	0.1125
314.6151	0.1123
314.8264	0.1107
315.0377	0.1101
315.249	0.1077
315.4603	0.1127
315.6716	0.1203
315.8828	0.1085
316.0941	0.1054
316.3053	0.1033
316.5165	0.1231
316.7277	0.1048
316.9389	0.1116
317.1501	0.11
317.3613	0.0981
317.5724	0.1205
317.7836	0.1054
317.9947	0.1144
318.2058	0.1026
318.417	0.1134
318.6281	0.1093
318.8391	0.1035
319.0502	0.0985
319.2613	0.115
319.4723	0.1171
319.6834	0.1149
319.8944	0.1119
320.1054	0.1097
320.3164	0.1247
320.5274	0.0988
320.7383	0.1163
320.9493	0.1096
321.1602	0.1169
321.3712	0.1106
321.5821	0.107
321.793	0.1198
322.0039	0.1242
322.2148	0.1125
322.4257	0.1095
322.6365	0.1088
322.8474	0.1062
323.0582	0.1145
323.269	0.1078
323.4798	0.1069
323.6906	0.1094
323.9014	0.1123
324.1122	0.1112
324.3229	0.1137
324.5337	0.12
324.7444	0.1222
324.9551	0.1265
325.1658	0.1197
325.3765	0.1036
325.5872	0.1141
325.7979	0.1221
326.0085	0.1058
326.2192	0.1165
326.4298	0.1268
326.6404	0.1175
326.851	0.1193
327.0616	0.1243
327.2722	0.1298
327.4828	0.1389
327.6933	0.1252
327.9039	0.1103
328.1144	0.1179
328.3249	0.1091
328.5354	0.1173
328.7459	0.1242
328.9564	0.1203
329.1669	0.1248
329.3773	0.1285
329.5878	0.1135
329.7982	0.1124
330.0086	0.1144
330.219	0.1163
330.4294	0.1174
330.6398	0.1253
330.8502	0.1197
331.0605	0.1367
331.2708	0.1145
331.4812	0.1211
331.6915	0.1186
331.9018	0.1228
332.1121	0.118
332.3224	0.1158
332.5326	0.1208
332.7429	0.1101
332.9531	0.1161
333.1633	0.1224
333.3735	0.1119
333.5837	0.1119
333.7939	0.1202
334.0041	0.1209
334.2143	0.1185
334.4244	0.1279
334.6346	0.1033
334.8447	0.1209
335.0548	0.1208
335.2649	0.1163
335.475	0.1156
335.685	0.1165
335.8951	0.1304
336.1051	0.132
336.3152	0.1223
336.5252	0.1162
336.7352	0.1242
336.9452	0.1226
337.1552	0.1225
337.3652	0.1264
337.5751	0.1222
337.7851	0.1213
337.995	0.115
338.2049	0.1156
338.4148	0.1316
338.6247	0.1205
338.8346	0.125
339.0445	0.1185
339.2543	0.1305
339.4642	0.1297
339.674	0.1297
339.8838	0.1269
340.0936	0.1304
340.3034	0.1332
340.5132	0.1341
340.7229	0.1363
340.9327	0.1292
341.1424	0.1221
341.3522	0.1213
341.5619	0.1298
341.7716	0.1315
341.9813	0.1375
342.1909	0.1339
342.4006	0.1307
342.6102	0.126
342.8199	0.123
343.0295	0.13
343.2391	0.1333
343.4487	0.1295
343.6583	0.141
343.8679	0.14
344.0774	0.1316
344.287	0.1317
344.4965	0.1321
344.706	0.1446
344.9155	0.1303
345.125	0.1244
345.3345	0.1362
345.544	0.1529
345.7534	0.1503
345.9629	0.1369
346.1723	0.1282
346.3817	0.1409
346.5911	0.1373
346.8005	0.1368
347.0099	0.1445
347.2193	0.1534
347.4286	0.1502
347.638	0.1423
347.8473	0.1437
348.0566	0.1393
348.2659	0.1495
348.4752	0.1524
348.6845	0.1422
348.8937	0.1375
349.103	0.1464
349.3122	0.1388
349.5214	0.1467
349.7306	0.133
349.9398	0.1424
350.149	0.1499
350.3582	0.1497
350.5674	0.1468
350.7765	0.1462
350.9856	0.1318
351.1948	0.1363
351.4039	0.1578
351.613	0.147
351.822	0.1512
352.0311	0.1491
352.2402	0.139
352.4492	0.1544
352.6582	0.1539
352.8672	0.1642
353.0762	0.147
353.2852	0.1638
353.4942	0.1557
353.7032	0.1554
353.9121	0.1438
354.1211	0.1479
354.33	0.1574
354.5389	0.1563
354.7478	0.1572
354.9567	0.1527
355.1655	0.1579
355.3744	0.1636
355.5833	0.1713
355.7921	0.1576
356.0009	0.1665
356.2097	0.1615
356.4185	0.1328
356.6273	0.163
356.8361	0.1728
357.0448	0.1543
357.2536	0.1595
357.4623	0.1535
357.671	0.1638
357.8797	0.1618
358.0884	0.1749
358.2971	0.1656
358.5057	0.1812
358.7144	0.1643
358.923	0.1651
359.1316	0.1672
359.3402	0.1705
359.5488	0.1681
359.7574	0.1785
359.966	0.1684
360.1746	0.1693
360.3831	0.1478
360.5916	0.1688
360.8002	0.1784
361.0087	0.1843
361.2172	0.1751
361.4256	0.18
361.6341	0.1659
361.8426	0.18
362.051	0.171
362.2594	0.1825
362.4678	0.1913
362.6762	0.163
362.8846	0.1793
363.093	0.1739
363.3014	0.188
363.5097	0.1628
363.718	0.187
363.9264	0.1946
364.1347	0.1787
364.343	0.177
364.5513	0.1778
364.7595	0.1984
364.9678	0.1842
365.176	0.171
365.3842	0.1889
365.5925	0.1647
365.8007	0.1892
366.0089	0.1947
366.217	0.1892
366.4252	0.181
366.6333	0.1995
366.8415	0.1934
367.0496	0.1791
367.2577	0.2052
367.4658	0.1786
367.6739	0.2019
367.882	0.1953
368.09	0.2089
368.2981	0.1874
368.5061	0.1973
368.7141	0.1922
368.9221	0.1898
369.1301	0.1919
369.3381	0.2219
369.5461	0.2016
369.754	0.1908
369.962	0.1887
370.1699	0.1897
370.3778	0.2102
370.5857	0.2117
370.7936	0.2106
371.0015	0.1994
371.2093	0.215
371.4172	0.1974
371.625	0.1927
371.8328	0.1914
372.0406	0.2048
372.2484	0.1843
372.4562	0.1981
372.664	0.1838
372.8717	0.185
373.0795	0.2054
373.2872	0.2037
373.4949	0.1986
373.7026	0.2145
373.9103	0.2131
374.118	0.1848
374.3256	0.2193
374.5333	0.22
374.7409	0.1857
374.9485	0.2051
375.1561	0.2088
375.3637	0.1983
375.5713	0.2156
375.7789	0.2153
375.9864	0.2084
376.194	0.211
376.4015	0.2085
376.609	0.2103
376.8165	0.188
377.024	0.212
377.2315	0.2118
377.4389	0.2029
377.6464	0.2058
377.8538	0.2056
378.0612	0.2094
378.2686	0.2176
378.476	0.2052
378.6834	0.2053
378.8908	0.2085
379.0981	0.2093
379.3055	0.2372
379.5128	0.2225
379.7201	0.2257
379.9274	0.2037
380.1347	0.2017
380.342	0.2104
380.5492	0.2255
380.7565	0.2325
380.9637	0.2422
381.1709	0.2097
381.3781	0.2274
381.5853	0.2292
381.7925	0.2246
381.9997	0.203
382.2068	0.2137
382.4139	0.2138
382.6211	0.2262
382.8282	0.2242
383.0353	0.2124
383.2424	0.2389
383.4494	0.2122
383.6565	0.212
383.8635	0.2181
384.0706	0.2298
384.2776	0.2378
384.4846	0.2234
384.6916	0.2242
384.8986	0.2322
385.1055	0.2022
385.3125	0.2178
385.5194	0.2136
385.7263	0.2284
385.9333	0.2122
386.1402	0.2307
386.347	0.2352
386.5539	0.2241
386.7608	0.2199
386.9676	0.2137
387.1744	0.2255
387.3813	0.207
387.5881	0.2181
387.7948	0.2174
388.0016	0.2169
388.2084	0.2083
388.4151	0.21
388.6219	0.2299
388.8286	0.2159
389.0353	0.2146
389.242	0.2071
389.4487	0.2218
389.6553	0.1943
389.862	0.2075
390.0686	0.2037
390.2753	0.2182
390.4819	0.2092
390.6885	0.2132
390.8951	0.1888
391.1016	0.2054
391.3082	0.2035
391.5147	0.1945
391.7213	0.2038
391.9278	0.2157
392.1343	0.1973
392.3408	0.19
392.5473	0.2036
392.7537	0.1984
392.9602	0.2052
393.1666	0.2003
393.373	0.1837
393.5794	0.1988
393.7858	0.1945
393.9922	0.2021
394.1986	0.2006
394.4049	0.1926
394.6113	0.191
394.8176	0.1954
395.0239	0.1858
395.2302	0.1756
395.4365	0.1775
395.6428	0.1837
395.8491	0.1674
396.0553	0.1972
396.2615	0.1776
396.4678	0.1974
396.674	0.1704
396.8802	0.1999
397.0863	0.1742
397.2925	0.1746
397.4987	0.1857
397.7048	0.1758
397.9109	0.1936
398.117	0.1789
398.3231	0.1839
398.5292	0.1984
398.7353	0.1731
398.9413	0.1556
399.1474	0.1839
399.3534	0.1885
399.5594	0.19
399.7654	0.1842
399.9714	0.1745
400.1774	0.1618
400.3833	0.1779
400.5893	0.1831
400.7952	0.1727
401.0011	0.1866
401.207	0.1731
401.4129	0.1832
401.6188	0.1775
401.8247	0.1808
402.0305	0.1838
402.2364	0.1808
402.4422	0.1889
402.648	0.1754
402.8538	0.1735
403.0596	0.1673
403.2654	0.1972
403.4711	0.1637
403.6768	0.1777
403.8826	0.1744
404.0883	0.1764
404.294	0.1735
404.4997	0.1634
404.7054	0.1775
404.911	0.1791
405.1167	0.1646
405.3223	0.1872
405.5279	0.1767
405.7335	0.2066
405.9391	0.186
406.1447	0.169
406.3502	0.1829
406.5558	0.1827
406.7613	0.1907
406.9668	0.1645
407.1724	0.1799
407.3778	0.1937
407.5833	0.1777
407.7888	0.1761
407.9942	0.15
408.1997	0.1775
408.4051	0.1687
408.6105	0.1517
408.8159	0.1628
409.0213	0.1842
409.2267	0.1691
409.432	0.182
409.6374	0.1823
409.8427	0.1685
410.048	0.1815
410.2533	0.1786
410.4586	0.1525
410.6639	0.1805
410.8691	0.1513
411.0744	0.1698
411.2796	0.1507
411.4848	0.1541
411.69	0.1704
411.8952	0.1616
412.1004	0.1538
412.3056	0.1492
412.5107	0.1654
412.7158	0.1666
412.921	0.179
413.1261	0.1715
413.3312	0.1526
413.5362	0.1733
413.7413	0.1579
413.9464	0.1738
414.1514	0.1756
414.3564	0.1602
414.5614	0.1535
414.7664	0.159
414.9714	0.1627
415.1764	0.178
415.3813	0.1649
415.5863	0.1659
415.7912	0.1558
415.9961	0.1825
416.201	0.1747
416.4059	0.147
416.6108	0.1682
416.8156	0.1587
417.0205	0.1733
417.2253	0.1629
417.4301	0.173
417.6349	0.1751
417.8397	0.1529
418.0445	0.1599
418.2492	0.1523
418.454	0.1823
418.6587	0.1467
418.8634	0.157
419.0681	0.1794
419.2728	0.1566
419.4775	0.1691
419.6822	0.1753
419.8868	0.1708
420.0915	0.1284
420.2961	0.1569
420.5007	0.1572
420.7053	0.1517
420.9099	0.1526
421.1144	0.1708
421.319	0.1588
421.5235	0.1643
421.728	0.1428
421.9325	0.1532
422.137	0.1543
422.3415	0.154
422.546	0.1469
422.7504	0.1578
422.9549	0.1615
423.1593	0.1389
423.3637	0.1666
423.5681	0.1232
423.7725	0.1345
423.9769	0.145
424.1812	0.1575
424.3856	0.1598
424.5899	0.1451
424.7942	0.1452
424.9985	0.1509
425.2028	0.1319
425.4071	0.1305
425.6113	0.1514
425.8156	0.1415
426.0198	0.1377
426.224	0.133
426.4282	0.1428
