Data from MonoPyChalIsomerACN10uM400nmA_Absorbance_12-08-47-028.txt Node
Date: Fri Jul 05 12:08:47 BST 2024
User: LASERRRRR
Spectrometer: FLMT03099
Trigger mode: 0
Integration Time (sec): 1.000000E-1
Scans to average: 1
Electric dark correction enabled: true
Nonlinearity correction enabled: false
Boxcar width: 0
XAxis mode: Wavelengths
Number of Pixels in Spectrum: 3648
>>>>>Begin Spectral Data<<<<<
179.3399	0.3182
179.5586	0.3182
179.7771	0.3182
179.9957	-0.0388
180.2143	-0
180.4329	-0
180.6514	-0.3784
180.8699	-0
181.0885	0.1067
181.307	0.1904
181.5255	-0.7088
181.744	0.0599
181.9625	-0
182.181	-0
182.3994	0.6115
182.6179	-0
182.8363	-0.0783
183.0547	0.0696
183.2732	0.089
183.4916	0.1536
183.71	-0.0279
183.9284	0.11
184.1467	-0.1384
184.3651	0.038
184.5835	0.0947
184.8018	-0.0185
185.0201	0.1256
185.2385	-0.0446
185.4568	0.2511
185.6751	0.0162
185.8934	0.0231
186.1117	0.1861
186.3299	0.0791
186.5482	0.1376
186.7664	0.0711
186.9847	0.1628
187.2029	0.1692
187.4211	-0.4189
187.6393	0.0495
187.8575	0.0452
188.0757	0.1119
188.2939	0.018
188.512	0.1312
188.7302	-0.1519
188.9483	-0.0145
189.1665	0.1884
189.3846	-0.04
189.6027	0.352
189.8208	0.1487
190.0389	0.126
190.257	0.1148
190.475	0.4298
190.6931	0.2823
190.9111	0.2214
191.1292	0.3907
191.3472	0.4163
191.5652	0.1983
191.7832	0.346
192.0012	0.3126
192.2192	0.3989
192.4371	0.2837
192.6551	0.4198
192.873	0.3088
193.091	0.3145
193.3089	0.4204
193.5268	0.5743
193.7447	0.5344
193.9626	0.4657
194.1805	0.5853
194.3984	0.5486
194.6162	0.4772
194.8341	0.6746
195.0519	0.7312
195.2697	0.576
195.4875	0.4611
195.7054	0.7227
195.9231	0.529
196.1409	0.4626
196.3587	0.6399
196.5765	0.5625
196.7942	0.8175
197.012	0.7525
197.2297	0.5424
197.4474	0.7019
197.6651	0.7943
197.8828	0.9601
198.1005	0.6973
198.3182	0.8168
198.5358	0.6745
198.7535	0.6511
198.9711	0.6741
199.1888	0.6563
199.4064	0.7481
199.624	0.7518
199.8416	0.6161
200.0592	0.6115
200.2767	0.5127
200.4943	0.6592
200.7119	0.6986
200.9294	0.7739
201.1469	0.8196
201.3645	0.5479
201.582	0.6301
201.7995	0.7879
202.017	0.8986
202.2344	0.5489
202.4519	0.7705
202.6694	0.9269
202.8868	0.697
203.1042	0.6811
203.3217	0.6721
203.5391	0.7797
203.7565	1.0069
203.9739	0.8755
204.1913	0.8006
204.4086	0.746
204.626	0.7109
204.8433	0.9911
205.0607	0.7815
205.278	0.7833
205.4953	0.8157
205.7126	0.6499
205.9299	0.838
206.1472	0.7994
206.3644	0.6123
206.5817	0.6439
206.7989	0.6907
207.0162	0.7194
207.2334	0.7867
207.4506	0.7334
207.6678	0.724
207.885	0.7872
208.1022	0.7091
208.3194	0.7176
208.5365	0.734
208.7537	0.8703
208.9708	0.6906
209.1879	0.8059
209.405	0.5751
209.6222	0.746
209.8392	0.6471
210.0563	0.7152
210.2734	0.7386
210.4905	0.6862
210.7075	0.753
210.9245	0.7626
211.1416	0.6403
211.3586	0.767
211.5756	0.6941
211.7926	0.7734
212.0096	0.7168
212.2265	0.7071
212.4435	0.7923
212.6604	0.6812
212.8774	0.7261
213.0943	0.7188
213.3112	0.706
213.5281	0.5827
213.745	0.7304
213.9619	0.7144
214.1788	0.7187
214.3956	0.724
214.6125	0.6058
214.8293	0.7274
215.0461	0.6811
215.2629	0.6105
215.4798	0.6748
215.6965	0.6408
215.9133	0.6408
216.1301	0.5924
216.3469	0.6543
216.5636	0.6055
216.7803	0.6138
216.9971	0.5902
217.2138	0.6566
217.4305	0.6171
217.6472	0.5898
217.8639	0.6188
218.0805	0.6282
218.2972	0.5644
218.5138	0.5779
218.7305	0.6076
218.9471	0.5654
219.1637	0.5872
219.3803	0.522
219.5969	0.5844
219.8135	0.584
220.0301	0.5567
220.2466	0.5861
220.4632	0.5543
220.6797	0.5682
220.8962	0.5424
221.1127	0.5598
221.3292	0.5372
221.5457	0.5831
221.7622	0.5435
221.9787	0.4993
222.1951	0.5572
222.4116	0.5497
222.628	0.5607
222.8444	0.523
223.0608	0.529
223.2772	0.5177
223.4936	0.5359
223.71	0.5383
223.9264	0.5626
224.1427	0.5632
224.3591	0.5366
224.5754	0.5351
224.7917	0.5038
225.008	0.5685
225.2243	0.5278
225.4406	0.5391
225.6569	0.5453
225.8732	0.575
226.0894	0.5802
226.3057	0.5341
226.5219	0.5292
226.7381	0.5631
226.9543	0.567
227.1705	0.5498
227.3867	0.5523
227.6029	0.5394
227.8191	0.5622
228.0352	0.5718
228.2513	0.5645
228.4675	0.5811
228.6836	0.582
228.8997	0.5468
229.1158	0.5395
229.3319	0.5575
229.548	0.5618
229.764	0.5916
229.9801	0.5607
230.1961	0.5427
230.4121	0.5489
230.6282	0.5549
230.8442	0.5877
231.0602	0.586
231.2761	0.543
231.4921	0.5829
231.7081	0.5561
231.924	0.583
232.14	0.5921
232.3559	0.5407
232.5718	0.5851
232.7877	0.5621
233.0036	0.5762
233.2195	0.5598
233.4353	0.5582
233.6512	0.5749
233.867	0.5569
234.0829	0.5434
234.2987	0.5754
234.5145	0.5362
234.7303	0.5715
234.9461	0.5657
235.1619	0.5586
235.3776	0.5621
235.5934	0.5653
235.8091	0.5603
236.0249	0.5102
236.2406	0.5461
236.4563	0.5646
236.672	0.5515
236.8877	0.5117
237.1034	0.5475
237.319	0.5217
237.5347	0.5449
237.7503	0.5345
237.966	0.5319
238.1816	0.588
238.3972	0.5597
238.6128	0.5032
238.8284	0.5549
239.0439	0.5398
239.2595	0.5338
239.475	0.5355
239.6906	0.5362
239.9061	0.5097
240.1216	0.5333
240.3371	0.5443
240.5526	0.5221
240.7681	0.5065
240.9836	0.5358
241.199	0.4944
241.4145	0.514
241.6299	0.4894
241.8453	0.4848
242.0607	0.494
242.2761	0.4858
242.4915	0.4583
242.7069	0.4522
242.9223	0.4472
243.1376	0.4188
243.353	0.4469
243.5683	0.4453
243.7836	0.4387
243.9989	0.4153
244.2142	0.425
244.4295	0.3987
244.6448	0.3925
244.86	0.3985
245.0753	0.3906
245.2905	0.4004
245.5057	0.3757
245.721	0.3686
245.9362	0.3392
246.1514	0.3623
246.3665	0.338
246.5817	0.3321
246.7969	0.3278
247.012	0.3454
247.2271	0.3413
247.4423	0.3039
247.6574	0.3181
247.8725	0.2956
248.0876	0.3019
248.3026	0.2894
248.5177	0.2931
248.7328	0.2978
248.9478	0.2805
249.1628	0.2725
249.3779	0.2678
249.5929	0.2639
249.8079	0.2635
250.0228	0.249
250.2378	0.2528
250.4528	0.2401
250.6677	0.244
250.8827	0.233
251.0976	0.2377
251.3125	0.241
251.5274	0.2375
251.7423	0.2277
251.9572	0.2246
252.172	0.2056
252.3869	0.2231
252.6017	0.2236
252.8166	0.2145
253.0314	0.2101
253.2462	0.2035
253.461	0.2142
253.6758	0.2014
253.8906	0.2084
254.1053	0.2024
254.3201	0.2121
254.5348	0.1951
254.7496	0.2219
254.9643	0.1924
255.179	0.1953
255.3937	0.2019
255.6083	0.1915
255.823	0.1871
256.0377	0.1884
256.2523	0.1937
256.467	0.1993
256.6816	0.1892
256.8962	0.1965
257.1108	0.2041
257.3254	0.186
257.54	0.1962
257.7545	0.1981
257.9691	0.207
258.1836	0.1814
258.3981	0.1913
258.6127	0.192
258.8272	0.1923
259.0417	0.178
259.2561	0.1812
259.4706	0.1808
259.6851	0.1909
259.8995	0.1884
260.114	0.1725
260.3284	0.1861
260.5428	0.1916
260.7572	0.1874
260.9716	0.1956
261.186	0.1878
261.4003	0.1974
261.6147	0.1966
261.829	0.2041
262.0433	0.1843
262.2577	0.1907
262.472	0.1832
262.6863	0.1859
262.9005	0.1804
263.1148	0.1868
263.3291	0.1862
263.5433	0.1828
263.7576	0.194
263.9718	0.1844
264.186	0.1735
264.4002	0.2002
264.6144	0.1945
264.8286	0.1878
265.0427	0.1836
265.2569	0.2012
265.471	0.1675
265.6851	0.184
265.8993	0.1864
266.1134	0.1812
266.3275	0.1961
266.5415	0.1887
266.7556	0.1894
266.9697	0.2091
267.1837	0.1847
267.3978	0.1948
267.6118	0.1944
267.8258	0.1944
268.0398	0.1963
268.2538	0.1861
268.4677	0.1924
268.6817	0.201
268.8957	0.2014
269.1096	0.1851
269.3235	0.191
269.5374	0.186
269.7514	0.1819
269.9652	0.1962
270.1791	0.1869
270.393	0.1757
270.6068	0.1862
270.8207	0.1928
271.0345	0.1755
271.2483	0.1843
271.4622	0.1902
271.676	0.1941
271.8897	0.1855
272.1035	0.1849
272.3173	0.1875
272.531	0.1725
272.7448	0.1794
272.9585	0.1856
273.1722	0.1758
273.3859	0.1901
273.5996	0.1902
273.8133	0.1799
274.0269	0.179
274.2406	0.1887
274.4542	0.1821
274.6679	0.1869
274.8815	0.1737
275.0951	0.1874
275.3087	0.1758
275.5223	0.1883
275.7358	0.1869
275.9494	0.1838
276.1629	0.1879
276.3765	0.1794
276.59	0.184
276.8035	0.1826
277.017	0.1847
277.2305	0.1935
277.444	0.1753
277.6574	0.1909
277.8709	0.1814
278.0843	0.1885
278.2978	0.1903
278.5112	0.1876
278.7246	0.1782
278.938	0.1874
279.1513	0.2006
279.3647	0.1854
279.5781	0.1927
279.7914	0.1868
280.0047	0.1871
280.2181	0.1985
280.4314	0.1902
280.6447	0.1897
280.8579	0.1889
281.0712	0.1904
281.2845	0.1927
281.4977	0.1954
281.711	0.1914
281.9242	0.2005
282.1374	0.1864
282.3506	0.1909
282.5638	0.1908
282.7769	0.1872
282.9901	0.1873
283.2033	0.1928
283.4164	0.1787
283.6295	0.188
283.8426	0.1806
284.0557	0.1928
284.2688	0.1819
284.4819	0.1866
284.695	0.1899
284.908	0.1769
285.1211	0.1939
285.3341	0.183
285.5471	0.1876
285.7601	0.1818
285.9731	0.1954
286.1861	0.1803
286.3991	0.1821
286.612	0.186
286.825	0.1978
287.0379	0.1835
287.2508	0.1929
287.4637	0.1875
287.6766	0.1761
287.8895	0.1786
288.1024	0.1791
288.3152	0.1848
288.5281	0.1793
288.7409	0.177
288.9538	0.1719
289.1666	0.1695
289.3794	0.1749
289.5922	0.1788
289.8049	0.1559
290.0177	0.1814
290.2304	0.1839
290.4432	0.1707
290.6559	0.1863
290.8686	0.1734
291.0813	0.159
291.294	0.1685
291.5067	0.1801
291.7194	0.1762
291.932	0.1773
292.1447	0.1876
292.3573	0.1839
292.5699	0.186
292.7825	0.1597
292.9951	0.1842
293.2077	0.1767
293.4203	0.1729
293.6328	0.1674
293.8454	0.1702
294.0579	0.176
294.2704	0.1672
294.4829	0.1829
294.6954	0.183
294.9079	0.1734
295.1204	0.1731
295.3328	0.1658
295.5453	0.1661
295.7577	0.1611
295.9701	0.1622
296.1825	0.1644
296.3949	0.1588
296.6073	0.1628
296.8197	0.1643
297.0321	0.1681
297.2444	0.1625
297.4567	0.1633
297.6691	0.163
297.8814	0.1751
298.0937	0.1689
298.306	0.1649
298.5182	0.1687
298.7305	0.1541
298.9428	0.1602
299.155	0.1651
299.3672	0.1539
299.5794	0.1525
299.7916	0.1572
300.0038	0.1566
300.216	0.1552
300.4282	0.1667
300.6403	0.1764
300.8525	0.1646
301.0646	0.1705
301.2767	0.1634
301.4888	0.1607
301.7009	0.1611
301.913	0.1625
302.125	0.1581
302.3371	0.1654
302.5491	0.1609
302.7612	0.1628
302.9732	0.167
303.1852	0.1657
303.3972	0.1605
303.6092	0.1655
303.8211	0.1585
304.0331	0.1491
304.245	0.1519
304.457	0.1541
304.6689	0.1613
304.8808	0.1465
305.0927	0.1465
305.3046	0.1462
305.5164	0.1584
305.7283	0.1547
305.9401	0.1503
306.152	0.1431
306.3638	0.1418
306.5756	0.1491
306.7874	0.1498
306.9992	0.1335
307.2109	0.1454
307.4227	0.1482
307.6344	0.1401
307.8462	0.1364
308.0579	0.1286
308.2696	0.1422
308.4813	0.1394
308.693	0.144
308.9046	0.1264
309.1163	0.1327
309.328	0.1274
309.5396	0.1336
309.7512	0.1338
309.9628	0.132
310.1744	0.1275
310.386	0.1222
310.5976	0.1248
310.8091	0.1264
311.0207	0.126
311.2322	0.12
311.4437	0.1248
311.6552	0.127
311.8667	0.1185
312.0782	0.1293
312.2897	0.1021
312.5012	0.1222
312.7126	0.1218
312.924	0.1129
313.1355	0.1217
313.3469	0.1161
313.5583	0.1156
313.7696	0.1196
313.981	0.1079
314.1924	0.1179
314.4037	0.117
314.6151	0.1192
314.8264	0.1104
315.0377	0.1113
315.249	0.106
315.4603	0.1097
315.6716	0.1142
315.8828	0.1156
316.0941	0.1105
316.3053	0.1
316.5165	0.1075
316.7277	0.1045
316.9389	0.1073
317.1501	0.1124
317.3613	0.0986
317.5724	0.1173
317.7836	0.1071
317.9947	0.1132
318.2058	0.1128
318.417	0.1072
318.6281	0.1081
318.8391	0.1151
319.0502	0.113
319.2613	0.1081
319.4723	0.1092
319.6834	0.1042
319.8944	0.1137
320.1054	0.1074
320.3164	0.1096
320.5274	0.0995
320.7383	0.1097
320.9493	0.1017
321.1602	0.1231
321.3712	0.1083
321.5821	0.1117
321.793	0.114
322.0039	0.1216
322.2148	0.1086
322.4257	0.1094
322.6365	0.1112
322.8474	0.1073
323.0582	0.1158
323.269	0.1171
323.4798	0.1185
323.6906	0.1069
323.9014	0.1175
324.1122	0.1113
324.3229	0.1286
324.5337	0.12
324.7444	0.1264
324.9551	0.1212
325.1658	0.1237
325.3765	0.111
325.5872	0.1175
325.7979	0.1273
326.0085	0.1028
326.2192	0.1015
326.4298	0.1243
326.6404	0.1207
326.851	0.1195
327.0616	0.1172
327.2722	0.1199
327.4828	0.1192
327.6933	0.1215
327.9039	0.1084
328.1144	0.1176
328.3249	0.114
328.5354	0.1088
328.7459	0.1226
328.9564	0.1211
329.1669	0.1274
329.3773	0.1193
329.5878	0.1097
329.7982	0.1228
330.0086	0.1155
330.219	0.1083
330.4294	0.11
330.6398	0.1171
330.8502	0.1172
331.0605	0.1292
331.2708	0.1145
331.4812	0.1102
331.6915	0.1092
331.9018	0.1297
332.1121	0.1141
332.3224	0.1157
332.5326	0.1208
332.7429	0.1108
332.9531	0.1121
333.1633	0.1189
333.3735	0.1115
333.5837	0.1244
333.7939	0.1137
334.0041	0.1255
334.2143	0.1214
334.4244	0.131
334.6346	0.099
334.8447	0.1164
335.0548	0.1286
335.2649	0.1314
335.475	0.1198
335.685	0.1103
335.8951	0.1267
336.1051	0.1217
336.3152	0.1304
336.5252	0.1218
336.7352	0.1266
336.9452	0.1367
337.1552	0.1402
337.3652	0.1288
337.5751	0.1324
337.7851	0.1179
337.995	0.1117
338.2049	0.1234
338.4148	0.1261
338.6247	0.1117
338.8346	0.1345
339.0445	0.1127
339.2543	0.1256
339.4642	0.1292
339.674	0.1331
339.8838	0.1162
340.0936	0.1269
340.3034	0.1417
340.5132	0.134
340.7229	0.1406
340.9327	0.1242
341.1424	0.1242
341.3522	0.136
341.5619	0.1275
341.7716	0.13
341.9813	0.1272
342.1909	0.128
342.4006	0.1298
342.6102	0.1162
342.8199	0.1274
343.0295	0.1311
343.2391	0.1448
343.4487	0.1322
343.6583	0.1258
343.8679	0.1308
344.0774	0.1311
344.287	0.1349
344.4965	0.1406
344.706	0.1379
344.9155	0.1385
345.125	0.1293
345.3345	0.1443
345.544	0.1487
345.7534	0.1409
345.9629	0.1305
346.1723	0.1443
346.3817	0.1391
346.5911	0.1332
346.8005	0.1419
347.0099	0.1437
347.2193	0.1465
347.4286	0.1464
347.638	0.1371
347.8473	0.1414
348.0566	0.1322
348.2659	0.158
348.4752	0.157
348.6845	0.1381
348.8937	0.148
349.103	0.1279
349.3122	0.1292
349.5214	0.1488
349.7306	0.147
349.9398	0.1422
350.149	0.1485
350.3582	0.1488
350.5674	0.1576
350.7765	0.1381
350.9856	0.1398
351.1948	0.1523
351.4039	0.1499
351.613	0.1558
351.822	0.1552
352.0311	0.1511
352.2402	0.1385
352.4492	0.1557
352.6582	0.1494
352.8672	0.1456
353.0762	0.1497
353.2852	0.1587
353.4942	0.1475
353.7032	0.1614
353.9121	0.1587
354.1211	0.154
354.33	0.1651
354.5389	0.1441
354.7478	0.1639
354.9567	0.171
355.1655	0.1525
355.3744	0.1452
355.5833	0.162
355.7921	0.1707
356.0009	0.1541
356.2097	0.153
356.4185	0.1476
356.6273	0.1577
356.8361	0.1631
357.0448	0.1553
357.2536	0.1501
357.4623	0.1582
357.671	0.1566
357.8797	0.1614
358.0884	0.1747
358.2971	0.16
358.5057	0.1636
358.7144	0.163
358.923	0.1644
359.1316	0.1562
359.3402	0.1802
359.5488	0.17
359.7574	0.1797
359.966	0.1555
360.1746	0.1629
360.3831	0.1779
360.5916	0.1762
360.8002	0.1835
361.0087	0.1656
361.2172	0.1676
361.4256	0.1796
361.6341	0.1802
361.8426	0.1692
362.051	0.1683
362.2594	0.1694
362.4678	0.174
362.6762	0.1725
362.8846	0.185
363.093	0.1752
363.3014	0.1783
363.5097	0.1758
363.718	0.1975
363.9264	0.1921
364.1347	0.1795
364.343	0.183
364.5513	0.1946
364.7595	0.1879
364.9678	0.1768
365.176	0.1807
365.3842	0.1804
365.5925	0.1587
365.8007	0.1882
366.0089	0.1831
366.217	0.1782
366.4252	0.1993
366.6333	0.1894
366.8415	0.1728
367.0496	0.1933
367.2577	0.2124
367.4658	0.1926
367.6739	0.2111
367.882	0.2008
368.09	0.1905
368.2981	0.1873
368.5061	0.1862
368.7141	0.1936
368.9221	0.1886
369.1301	0.1859
369.3381	0.1947
369.5461	0.1907
369.754	0.1913
369.962	0.1855
370.1699	0.1839
370.3778	0.2001
370.5857	0.209
370.7936	0.1951
371.0015	0.1975
371.2093	0.2063
371.4172	0.202
371.625	0.1926
371.8328	0.2146
372.0406	0.1982
372.2484	0.2004
372.4562	0.2056
372.664	0.2057
372.8717	0.1751
373.0795	0.1976
373.2872	0.1895
373.4949	0.2009
373.7026	0.1926
373.9103	0.2021
374.118	0.1807
374.3256	0.2084
374.5333	0.2048
374.7409	0.1858
374.9485	0.1862
375.1561	0.2023
375.3637	0.1946
375.5713	0.2107
375.7789	0.2051
375.9864	0.2246
376.194	0.2058
376.4015	0.2283
376.609	0.2046
376.8165	0.1945
377.024	0.208
377.2315	0.2086
377.4389	0.1961
377.6464	0.218
377.8538	0.2009
378.0612	0.2073
378.2686	0.2096
378.476	0.2083
378.6834	0.1927
378.8908	0.2072
379.0981	0.1918
379.3055	0.2102
379.5128	0.2165
379.7201	0.2153
379.9274	0.2093
380.1347	0.1944
380.342	0.2145
380.5492	0.2211
380.7565	0.2201
380.9637	0.2206
381.1709	0.1931
381.3781	0.2003
381.5853	0.2152
381.7925	0.2302
381.9997	0.2058
382.2068	0.2247
382.4139	0.2155
382.6211	0.239
382.8282	0.2181
383.0353	0.2249
383.2424	0.2179
383.4494	0.2183
383.6565	0.2086
383.8635	0.214
384.0706	0.2197
384.2776	0.217
384.4846	0.192
384.6916	0.2298
384.8986	0.2165
385.1055	0.2033
385.3125	0.2211
385.5194	0.1833
385.7263	0.2111
385.9333	0.2103
386.1402	0.2014
386.347	0.2208
386.5539	0.1926
386.7608	0.2114
386.9676	0.206
387.1744	0.2126
387.3813	0.2166
387.5881	0.216
387.7948	0.2177
388.0016	0.2241
388.2084	0.2062
388.4151	0.2109
388.6219	0.2159
388.8286	0.2045
389.0353	0.2101
389.242	0.1971
389.4487	0.2075
389.6553	0.193
389.862	0.1977
390.0686	0.1971
390.2753	0.2294
390.4819	0.2149
390.6885	0.2106
390.8951	0.1921
391.1016	0.2077
391.3082	0.2066
391.5147	0.1938
391.7213	0.1975
391.9278	0.1951
392.1343	0.1891
392.3408	0.1956
392.5473	0.1913
392.7537	0.1924
392.9602	0.1946
393.1666	0.1984
393.373	0.1832
393.5794	0.1715
393.7858	0.1906
393.9922	0.2063
394.1986	0.1875
394.4049	0.1913
394.6113	0.1784
394.8176	0.2076
395.0239	0.188
395.2302	0.1673
395.4365	0.1741
395.6428	0.1926
395.8491	0.1755
396.0553	0.1841
396.2615	0.1759
396.4678	0.1811
396.674	0.1769
396.8802	0.183
397.0863	0.1737
397.2925	0.1752
397.4987	0.1897
397.7048	0.1817
397.9109	0.1896
398.117	0.1908
398.3231	0.179
398.5292	0.178
398.7353	0.173
398.9413	0.172
399.1474	0.1661
399.3534	0.171
399.5594	0.1752
399.7654	0.1796
399.9714	0.1771
400.1774	0.1566
400.3833	0.178
400.5893	0.1763
400.7952	0.1794
401.0011	0.1699
401.207	0.1693
401.4129	0.169
401.6188	0.1637
401.8247	0.1803
402.0305	0.1655
402.2364	0.1873
402.4422	0.171
402.648	0.1507
402.8538	0.1586
403.0596	0.1606
403.2654	0.1658
403.4711	0.163
403.6768	0.162
403.8826	0.1866
404.0883	0.1674
404.294	0.1849
404.4997	0.1543
404.7054	0.1692
404.911	0.173
405.1167	0.1613
405.3223	0.172
405.5279	0.1817
405.7335	0.1852
405.9391	0.1831
406.1447	0.1678
406.3502	0.1636
406.5558	0.1802
406.7613	0.1873
406.9668	0.1708
407.1724	0.1782
407.3778	0.1894
407.5833	0.1779
407.7888	0.1652
407.9942	0.1544
408.1997	0.1702
408.4051	0.16
408.6105	0.1454
408.8159	0.1686
409.0213	0.1571
409.2267	0.1788
409.432	0.1752
409.6374	0.171
409.8427	0.1784
410.048	0.1755
410.2533	0.1578
410.4586	0.1575
410.6639	0.179
410.8691	0.1573
411.0744	0.1634
411.2796	0.1519
411.4848	0.1657
411.69	0.1541
411.8952	0.1676
412.1004	0.1584
412.3056	0.1686
412.5107	0.1475
412.7158	0.1463
412.921	0.1836
413.1261	0.1589
413.3312	0.1481
413.5362	0.1542
413.7413	0.1508
413.9464	0.166
414.1514	0.1719
414.3564	0.1704
414.5614	0.1514
414.7664	0.1721
414.9714	0.1855
415.1764	0.1616
415.3813	0.1696
415.5863	0.1649
415.7912	0.1472
415.9961	0.1803
416.201	0.16
416.4059	0.1619
416.6108	0.1535
416.8156	0.1719
417.0205	0.1392
417.2253	0.1557
417.4301	0.1659
417.6349	0.165
417.8397	0.1399
418.0445	0.142
418.2492	0.135
418.454	0.1492
418.6587	0.1634
418.8634	0.161
419.0681	0.1831
419.2728	0.1329
419.4775	0.1582
419.6822	0.1576
419.8868	0.144
420.0915	0.139
420.2961	0.1654
420.5007	0.1524
420.7053	0.1499
420.9099	0.1432
421.1144	0.1583
421.319	0.1584
421.5235	0.1752
421.728	0.1339
421.9325	0.1595
422.137	0.1521
422.3415	0.14
422.546	0.1403
422.7504	0.1426
422.9549	0.1658
423.1593	0.1323
423.3637	0.1404
423.5681	0.1299
423.7725	0.1287
423.9769	0.1474
424.1812	0.1409
424.3856	0.1234
424.5899	0.1472
424.7942	0.1359
424.9985	0.1444
425.2028	0.1068
425.4071	0.1365
425.6113	0.1244
425.8156	0.1514
426.0198	0.1406
426.224	0.1396
426.4282	0.1532
426.6324	0.1392
426.8366	0.1257
