Data from MonoPyChalIsomerACN10uM400nmA_Absorbance_12-08-45-528.txt Node
Date: Fri Jul 05 12:08:45 BST 2024
User: LASERRRRR
Spectrometer: FLMT03099
Trigger mode: 0
Integration Time (sec): 1.000000E-1
Scans to average: 1
Electric dark correction enabled: true
Nonlinearity correction enabled: false
Boxcar width: 0
XAxis mode: Wavelengths
Number of Pixels in Spectrum: 3648
>>>>>Begin Spectral Data<<<<<
179.3399	0.4282
179.5586	0.4282
179.7771	0.4282
179.9957	0.5997
180.2143	-0.0526
180.4329	-0
180.6514	-0.4876
180.8699	-0
181.0885	-0
181.307	0.1036
181.5255	-0.7207
181.744	-0
181.9625	-0.7514
182.181	-0
182.3994	-0.474
182.6179	0.021
182.8363	-0.172
183.0547	0.1886
183.2732	0.1384
183.4916	0.0387
183.71	0.2231
183.9284	0.2619
184.1467	0.3619
184.3651	0.0554
184.5835	0.5614
184.8018	0.1343
185.0201	0.0004
185.2385	0.1161
185.4568	0.3862
185.6751	0.1235
185.8934	-0.0614
186.1117	-0.0039
186.3299	-0.0921
186.5482	0.0225
186.7664	0.0471
186.9847	0.055
187.2029	0.1713
187.4211	-0.1253
187.6393	-0.0541
187.8575	-0.0235
188.0757	0.0676
188.2939	0.1403
188.512	0.1274
188.7302	-0.1507
188.9483	0.0144
189.1665	0.1525
189.3846	0.0393
189.6027	0.14
189.8208	0.0891
190.0389	0.1699
190.257	0.2279
190.475	0.2651
190.6931	0.2737
190.9111	0.4545
191.1292	0.3329
191.3472	0.3196
191.5652	0.1543
191.7832	0.626
192.0012	0.5112
192.2192	0.3497
192.4371	0.6618
192.6551	0.246
192.873	0.5123
193.091	0.5664
193.3089	0.4997
193.5268	0.6185
193.7447	0.5954
193.9626	0.5899
194.1805	0.4647
194.3984	0.2635
194.6162	0.6458
194.8341	0.7092
195.0519	0.7194
195.2697	0.5444
195.4875	0.6697
195.7054	0.5187
195.9231	0.5214
196.1409	0.4255
196.3587	0.5485
196.5765	0.5673
196.7942	0.853
197.012	0.7545
197.2297	0.5593
197.4474	0.4957
197.6651	0.6334
197.8828	0.6822
198.1005	0.9388
198.3182	0.6602
198.5358	0.956
198.7535	0.6896
198.9711	0.5965
199.1888	0.7083
199.4064	0.7977
199.624	0.8495
199.8416	0.8262
200.0592	1.0698
200.2767	0.675
200.4943	0.6266
200.7119	0.7605
200.9294	0.6795
201.1469	0.8743
201.3645	0.6904
201.582	0.6118
201.7995	0.9387
202.017	0.7422
202.2344	0.5983
202.4519	0.8222
202.6694	0.8508
202.8868	0.917
203.1042	0.6567
203.3217	0.7065
203.5391	0.8386
203.7565	0.7563
203.9739	0.8382
204.1913	1.0268
204.4086	0.7674
204.626	0.8683
204.8433	0.9414
205.0607	0.795
205.278	1.0032
205.4953	0.8711
205.7126	0.628
205.9299	0.9212
206.1472	0.6937
206.3644	0.7412
206.5817	0.8321
206.7989	0.6894
207.0162	0.7366
207.2334	0.6726
207.4506	0.7093
207.6678	0.7929
207.885	0.7765
208.1022	0.7635
208.3194	0.7558
208.5365	0.7962
208.7537	0.7683
208.9708	0.7602
209.1879	0.851
209.405	0.7682
209.6222	0.9223
209.8392	0.7376
210.0563	0.9026
210.2734	0.7243
210.4905	0.8616
210.7075	0.8215
210.9245	0.8155
211.1416	0.7117
211.3586	0.7813
211.5756	0.7917
211.7926	0.7796
212.0096	0.7688
212.2265	0.7415
212.4435	0.6583
212.6604	0.8118
212.8774	0.7137
213.0943	0.6895
213.3112	0.7094
213.5281	0.6653
213.745	0.7597
213.9619	0.6817
214.1788	0.6878
214.3956	0.6627
214.6125	0.6331
214.8293	0.7086
215.0461	0.6696
215.2629	0.6928
215.4798	0.5986
215.6965	0.6368
215.9133	0.6411
216.1301	0.5868
216.3469	0.7466
216.5636	0.6372
216.7803	0.6489
216.9971	0.6313
217.2138	0.6456
217.4305	0.573
217.6472	0.6156
217.8639	0.5764
218.0805	0.6237
218.2972	0.5599
218.5138	0.5808
218.7305	0.5798
218.9471	0.5792
219.1637	0.5961
219.3803	0.5223
219.5969	0.5655
219.8135	0.5912
220.0301	0.5969
220.2466	0.5622
220.4632	0.5481
220.6797	0.5795
220.8962	0.5655
221.1127	0.5528
221.3292	0.5481
221.5457	0.5357
221.7622	0.5444
221.9787	0.5592
222.1951	0.5761
222.4116	0.5512
222.628	0.5857
222.8444	0.5108
223.0608	0.5251
223.2772	0.5246
223.4936	0.5386
223.71	0.5585
223.9264	0.5647
224.1427	0.5355
224.3591	0.6025
224.5754	0.5625
224.7917	0.5288
225.008	0.5792
225.2243	0.5302
225.4406	0.5834
225.6569	0.558
225.8732	0.5528
226.0894	0.5615
226.3057	0.5776
226.5219	0.5186
226.7381	0.5655
226.9543	0.5825
227.1705	0.5726
227.3867	0.5414
227.6029	0.5265
227.8191	0.5739
228.0352	0.5581
228.2513	0.5595
228.4675	0.622
228.6836	0.6086
228.8997	0.5772
229.1158	0.574
229.3319	0.5617
229.548	0.6062
229.764	0.5956
229.9801	0.5923
230.1961	0.5822
230.4121	0.5996
230.6282	0.5916
230.8442	0.5772
231.0602	0.5682
231.2761	0.5728
231.4921	0.5841
231.7081	0.5825
231.924	0.5822
232.14	0.5794
232.3559	0.5669
232.5718	0.5951
232.7877	0.5516
233.0036	0.581
233.2195	0.593
233.4353	0.5883
233.6512	0.591
233.867	0.5672
234.0829	0.5577
234.2987	0.5764
234.5145	0.5538
234.7303	0.6029
234.9461	0.5961
235.1619	0.5772
235.3776	0.5396
235.5934	0.5406
235.8091	0.6125
236.0249	0.5278
236.2406	0.5681
236.4563	0.5838
236.672	0.5663
236.8877	0.5751
237.1034	0.5424
237.319	0.571
237.5347	0.562
237.7503	0.5312
237.966	0.5361
238.1816	0.5731
238.3972	0.55
238.6128	0.5236
238.8284	0.5397
239.0439	0.544
239.2595	0.5285
239.475	0.521
239.6906	0.5449
239.9061	0.5167
240.1216	0.5484
240.3371	0.5087
240.5526	0.5229
240.7681	0.5428
240.9836	0.5399
241.199	0.4935
241.4145	0.5078
241.6299	0.4844
241.8453	0.4818
242.0607	0.4999
242.2761	0.4909
242.4915	0.4762
242.7069	0.4617
242.9223	0.4758
243.1376	0.4485
243.353	0.4664
243.5683	0.4399
243.7836	0.4485
243.9989	0.4456
244.2142	0.4235
244.4295	0.4117
244.6448	0.4108
244.86	0.3957
245.0753	0.3814
245.2905	0.3795
245.5057	0.3702
245.721	0.3767
245.9362	0.3438
246.1514	0.3481
246.3665	0.3426
246.5817	0.3395
246.7969	0.3285
247.012	0.3409
247.2271	0.3311
247.4423	0.3069
247.6574	0.3178
247.8725	0.2908
248.0876	0.3112
248.3026	0.2906
248.5177	0.2986
248.7328	0.2888
248.9478	0.2827
249.1628	0.2738
249.3779	0.27
249.5929	0.2791
249.8079	0.2443
250.0228	0.2729
250.2378	0.2545
250.4528	0.2471
250.6677	0.2536
250.8827	0.2464
251.0976	0.2343
251.3125	0.2467
251.5274	0.2348
251.7423	0.2289
251.9572	0.2267
252.172	0.2276
252.3869	0.2178
252.6017	0.222
252.8166	0.2074
253.0314	0.2036
253.2462	0.2167
253.461	0.2145
253.6758	0.2151
253.8906	0.2171
254.1053	0.2003
254.3201	0.2088
254.5348	0.2068
254.7496	0.2082
254.9643	0.1997
255.179	0.1901
255.3937	0.2026
255.6083	0.1863
255.823	0.197
256.0377	0.1862
256.2523	0.196
256.467	0.1942
256.6816	0.198
256.8962	0.2023
257.1108	0.1918
257.3254	0.1989
257.54	0.1934
257.7545	0.1944
257.9691	0.2091
258.1836	0.1981
258.3981	0.1872
258.6127	0.1925
258.8272	0.1973
259.0417	0.1907
259.2561	0.1788
259.4706	0.188
259.6851	0.1886
259.8995	0.193
260.114	0.1721
260.3284	0.2027
260.5428	0.1831
260.7572	0.1896
260.9716	0.2012
261.186	0.2017
261.4003	0.1927
261.6147	0.2099
261.829	0.2068
262.0433	0.1864
262.2577	0.1778
262.472	0.1936
262.6863	0.1895
262.9005	0.1762
263.1148	0.1857
263.3291	0.1947
263.5433	0.1876
263.7576	0.1985
263.9718	0.1762
264.186	0.186
264.4002	0.1906
264.6144	0.1926
264.8286	0.1799
265.0427	0.1964
265.2569	0.199
265.471	0.1814
265.6851	0.188
265.8993	0.1793
266.1134	0.1729
266.3275	0.1951
266.5415	0.1891
266.7556	0.1895
266.9697	0.1941
267.1837	0.1933
267.3978	0.1956
267.6118	0.187
267.8258	0.2017
268.0398	0.1943
268.2538	0.1951
268.4677	0.1954
268.6817	0.1987
268.8957	0.1897
269.1096	0.1878
269.3235	0.1933
269.5374	0.1751
269.7514	0.179
269.9652	0.1838
270.1791	0.1819
270.393	0.1801
270.6068	0.1967
270.8207	0.1944
271.0345	0.1785
271.2483	0.1907
271.4622	0.1879
271.676	0.1764
271.8897	0.1966
272.1035	0.1957
272.3173	0.1802
272.531	0.1714
272.7448	0.1762
272.9585	0.1883
273.1722	0.1782
273.3859	0.1858
273.5996	0.1827
273.8133	0.1828
274.0269	0.183
274.2406	0.1852
274.4542	0.1755
274.6679	0.1865
274.8815	0.176
275.0951	0.1829
275.3087	0.1818
275.5223	0.1871
275.7358	0.181
275.9494	0.1829
276.1629	0.1707
276.3765	0.1878
276.59	0.1857
276.8035	0.1854
277.017	0.1824
277.2305	0.1954
277.444	0.1807
277.6574	0.1814
277.8709	0.1818
278.0843	0.1981
278.2978	0.1759
278.5112	0.1897
278.7246	0.1862
278.938	0.181
279.1513	0.1791
279.3647	0.1864
279.5781	0.19
279.7914	0.1891
280.0047	0.1908
280.2181	0.1865
280.4314	0.178
280.6447	0.1923
280.8579	0.204
281.0712	0.2042
281.2845	0.1959
281.4977	0.1989
281.711	0.1949
281.9242	0.1907
282.1374	0.1791
282.3506	0.1872
282.5638	0.1901
282.7769	0.1836
282.9901	0.1948
283.2033	0.192
283.4164	0.1859
283.6295	0.175
283.8426	0.1903
284.0557	0.1834
284.2688	0.1753
284.4819	0.1894
284.695	0.184
284.908	0.1855
285.1211	0.1818
285.3341	0.1849
285.5471	0.203
285.7601	0.1841
285.9731	0.1881
286.1861	0.193
286.3991	0.1881
286.612	0.1866
286.825	0.1934
287.0379	0.184
287.2508	0.1822
287.4637	0.1855
287.6766	0.1725
287.8895	0.1794
288.1024	0.1878
288.3152	0.1892
288.5281	0.1873
288.7409	0.1779
288.9538	0.179
289.1666	0.1921
289.3794	0.1928
289.5922	0.1791
289.8049	0.168
290.0177	0.1758
290.2304	0.1796
290.4432	0.1743
290.6559	0.177
290.8686	0.1787
291.0813	0.1749
291.294	0.1814
291.5067	0.1798
291.7194	0.1768
291.932	0.1851
292.1447	0.1867
292.3573	0.175
292.5699	0.1821
292.7825	0.1503
292.9951	0.1765
293.2077	0.1707
293.4203	0.1871
293.6328	0.1869
293.8454	0.1727
294.0579	0.1829
294.2704	0.173
294.4829	0.1783
294.6954	0.1773
294.9079	0.1769
295.1204	0.1891
295.3328	0.1689
295.5453	0.166
295.7577	0.1662
295.9701	0.1667
296.1825	0.178
296.3949	0.1647
296.6073	0.1625
296.8197	0.1687
297.0321	0.17
297.2444	0.1731
297.4567	0.1707
297.6691	0.1739
297.8814	0.1675
298.0937	0.1759
298.306	0.1703
298.5182	0.1841
298.7305	0.1674
298.9428	0.1706
299.155	0.1657
299.3672	0.1587
299.5794	0.1672
299.7916	0.1696
300.0038	0.1584
300.216	0.1659
300.4282	0.1709
300.6403	0.1818
300.8525	0.1727
301.0646	0.1765
301.2767	0.1648
301.4888	0.1545
301.7009	0.1652
301.913	0.1579
302.125	0.173
302.3371	0.1728
302.5491	0.1744
302.7612	0.1616
302.9732	0.1619
303.1852	0.1695
303.3972	0.1657
303.6092	0.1521
303.8211	0.167
304.0331	0.1605
304.245	0.1475
304.457	0.1651
304.6689	0.163
304.8808	0.1538
305.0927	0.1553
305.3046	0.1481
305.5164	0.1595
305.7283	0.1528
305.9401	0.1539
306.152	0.1332
306.3638	0.1459
306.5756	0.139
306.7874	0.147
306.9992	0.1541
307.2109	0.1427
307.4227	0.1503
307.6344	0.1441
307.8462	0.1402
308.0579	0.1407
308.2696	0.1452
308.4813	0.1291
308.693	0.1355
308.9046	0.1363
309.1163	0.1301
309.328	0.1336
309.5396	0.138
309.7512	0.1328
309.9628	0.1252
310.1744	0.1278
310.386	0.1129
310.5976	0.1337
310.8091	0.1265
311.0207	0.1306
311.2322	0.1136
311.4437	0.1286
311.6552	0.1193
311.8667	0.1252
312.0782	0.1311
312.2897	0.1101
312.5012	0.1105
312.7126	0.1194
312.924	0.1109
313.1355	0.1239
313.3469	0.1205
313.5583	0.1041
313.7696	0.1267
313.981	0.1198
314.1924	0.1149
314.4037	0.1128
314.6151	0.1163
314.8264	0.1172
315.0377	0.1127
315.249	0.1122
315.4603	0.1044
315.6716	0.1092
315.8828	0.0965
316.0941	0.102
316.3053	0.1095
316.5165	0.1097
316.7277	0.0975
316.9389	0.1209
317.1501	0.1026
317.3613	0.0943
317.5724	0.1161
317.7836	0.1125
317.9947	0.116
318.2058	0.1081
318.417	0.1065
318.6281	0.1111
318.8391	0.1068
319.0502	0.1079
319.2613	0.1154
319.4723	0.1167
319.6834	0.1078
319.8944	0.1019
320.1054	0.1168
320.3164	0.115
320.5274	0.1011
320.7383	0.1083
320.9493	0.1137
321.1602	0.1227
321.3712	0.1023
321.5821	0.1173
321.793	0.1087
322.0039	0.1193
322.2148	0.1209
322.4257	0.1057
322.6365	0.1117
322.8474	0.1026
323.0582	0.1178
323.269	0.1086
323.4798	0.1236
323.6906	0.1023
323.9014	0.1099
324.1122	0.1135
324.3229	0.1117
324.5337	0.1214
324.7444	0.117
324.9551	0.1158
325.1658	0.1175
325.3765	0.1166
325.5872	0.1136
325.7979	0.1176
326.0085	0.1147
326.2192	0.107
326.4298	0.1343
326.6404	0.127
326.851	0.116
327.0616	0.117
327.2722	0.1187
327.4828	0.1287
327.6933	0.1167
327.9039	0.1062
328.1144	0.1076
328.3249	0.1095
328.5354	0.1108
328.7459	0.1187
328.9564	0.1213
329.1669	0.1258
329.3773	0.1167
329.5878	0.1232
329.7982	0.1202
330.0086	0.1119
330.219	0.1208
330.4294	0.1211
330.6398	0.1158
330.8502	0.117
331.0605	0.1221
331.2708	0.1068
331.4812	0.1208
331.6915	0.1146
331.9018	0.1209
332.1121	0.1109
332.3224	0.1205
332.5326	0.1091
332.7429	0.1125
332.9531	0.1127
333.1633	0.1099
333.3735	0.1149
333.5837	0.113
333.7939	0.1176
334.0041	0.1259
334.2143	0.1108
334.4244	0.1266
334.6346	0.1024
334.8447	0.1224
335.0548	0.1142
335.2649	0.1133
335.475	0.1255
335.685	0.1113
335.8951	0.118
336.1051	0.1238
336.3152	0.1088
336.5252	0.1233
336.7352	0.1297
336.9452	0.1187
337.1552	0.1191
337.3652	0.1282
337.5751	0.1343
337.7851	0.1173
337.995	0.1206
338.2049	0.1203
338.4148	0.1264
338.6247	0.1221
338.8346	0.1324
339.0445	0.1246
339.2543	0.1263
339.4642	0.1348
339.674	0.1232
339.8838	0.1312
340.0936	0.1374
340.3034	0.1155
340.5132	0.1255
340.7229	0.1382
340.9327	0.1196
341.1424	0.1342
341.3522	0.1226
341.5619	0.1287
341.7716	0.1311
341.9813	0.1234
342.1909	0.1304
342.4006	0.1437
342.6102	0.1249
342.8199	0.1278
343.0295	0.1461
343.2391	0.1256
343.4487	0.1274
343.6583	0.1415
343.8679	0.1365
344.0774	0.1495
344.287	0.1354
344.4965	0.1278
344.706	0.1343
344.9155	0.1283
345.125	0.1259
345.3345	0.1374
345.544	0.1347
345.7534	0.1256
345.9629	0.1367
346.1723	0.1341
346.3817	0.1367
346.5911	0.1388
346.8005	0.128
347.0099	0.1302
347.2193	0.1289
347.4286	0.145
347.638	0.143
347.8473	0.1357
348.0566	0.1272
348.2659	0.1439
348.4752	0.1358
348.6845	0.1344
348.8937	0.15
349.103	0.131
349.3122	0.1354
349.5214	0.1449
349.7306	0.1353
349.9398	0.1405
350.149	0.1437
350.3582	0.147
350.5674	0.1559
350.7765	0.1423
350.9856	0.1391
351.1948	0.1437
351.4039	0.1555
351.613	0.1367
351.822	0.1358
352.0311	0.1512
352.2402	0.1422
352.4492	0.1479
352.6582	0.1476
352.8672	0.1494
353.0762	0.1496
353.2852	0.1508
353.4942	0.137
353.7032	0.1597
353.9121	0.155
354.1211	0.132
354.33	0.1624
354.5389	0.1582
354.7478	0.1627
354.9567	0.1658
355.1655	0.16
355.3744	0.1623
355.5833	0.1846
355.7921	0.1521
356.0009	0.1512
356.2097	0.1408
356.4185	0.1427
356.6273	0.1556
356.8361	0.1587
357.0448	0.1465
357.2536	0.1505
357.4623	0.1607
357.671	0.157
357.8797	0.1538
358.0884	0.1781
358.2971	0.1713
358.5057	0.1683
358.7144	0.1748
358.923	0.1796
359.1316	0.1584
359.3402	0.1806
359.5488	0.1705
359.7574	0.1729
359.966	0.1688
360.1746	0.1686
360.3831	0.1638
360.5916	0.1783
360.8002	0.1801
361.0087	0.1774
361.2172	0.1758
361.4256	0.1811
361.6341	0.1819
361.8426	0.189
362.051	0.1812
362.2594	0.1796
362.4678	0.176
362.6762	0.1847
362.8846	0.1717
363.093	0.1776
363.3014	0.176
363.5097	0.17
363.718	0.1853
363.9264	0.1995
364.1347	0.1912
364.343	0.1871
364.5513	0.1866
364.7595	0.1831
364.9678	0.1822
365.176	0.1926
365.3842	0.1804
365.5925	0.1749
365.8007	0.1882
366.0089	0.2006
366.217	0.1952
366.4252	0.1826
366.6333	0.1929
366.8415	0.1928
367.0496	0.1815
367.2577	0.1945
367.4658	0.1981
367.6739	0.1963
367.882	0.2034
368.09	0.2071
368.2981	0.2002
368.5061	0.2005
368.7141	0.2014
368.9221	0.1893
369.1301	0.1813
369.3381	0.1976
369.5461	0.199
369.754	0.1839
369.962	0.1934
370.1699	0.1989
370.3778	0.2
370.5857	0.1944
370.7936	0.2028
371.0015	0.1998
371.2093	0.1979
371.4172	0.1948
371.625	0.196
371.8328	0.2183
372.0406	0.1929
372.2484	0.1835
372.4562	0.2134
372.664	0.205
372.8717	0.1813
373.0795	0.2062
373.2872	0.2086
373.4949	0.2024
373.7026	0.2175
373.9103	0.2085
374.118	0.1937
374.3256	0.2027
374.5333	0.2191
374.7409	0.1875
374.9485	0.1961
375.1561	0.2125
375.3637	0.2022
375.5713	0.2053
375.7789	0.2083
375.9864	0.2014
376.194	0.22
376.4015	0.2295
376.609	0.2119
376.8165	0.1948
377.024	0.2122
377.2315	0.1985
377.4389	0.213
377.6464	0.2172
377.8538	0.2109
378.0612	0.214
378.2686	0.2335
378.476	0.2105
378.6834	0.2197
378.8908	0.2045
379.0981	0.2273
379.3055	0.2177
379.5128	0.2207
379.7201	0.2309
379.9274	0.2312
380.1347	0.2058
380.342	0.217
380.5492	0.2146
380.7565	0.245
380.9637	0.2232
381.1709	0.2396
381.3781	0.2428
381.5853	0.2253
381.7925	0.2127
381.9997	0.2124
382.2068	0.2287
382.4139	0.2312
382.6211	0.2335
382.8282	0.2302
383.0353	0.2102
383.2424	0.2393
383.4494	0.225
383.6565	0.2257
383.8635	0.2302
384.0706	0.2369
384.2776	0.2306
384.4846	0.2193
384.6916	0.2348
384.8986	0.2166
385.1055	0.2149
385.3125	0.227
385.5194	0.2264
385.7263	0.2404
385.9333	0.2187
386.1402	0.2213
386.347	0.232
386.5539	0.2197
386.7608	0.2278
386.9676	0.2179
387.1744	0.2166
387.3813	0.2193
387.5881	0.221
387.7948	0.238
388.0016	0.2148
388.2084	0.2129
388.4151	0.2214
388.6219	0.2253
388.8286	0.2161
389.0353	0.2143
389.242	0.2095
389.4487	0.2211
389.6553	0.2052
389.862	0.2326
390.0686	0.207
390.2753	0.2345
390.4819	0.2077
390.6885	0.218
390.8951	0.2026
391.1016	0.2237
391.3082	0.2085
391.5147	0.2092
391.7213	0.2006
391.9278	0.211
392.1343	0.1952
392.3408	0.2081
392.5473	0.2002
392.7537	0.2063
392.9602	0.2159
393.1666	0.2117
393.373	0.1638
393.5794	0.1921
393.7858	0.192
393.9922	0.1983
394.1986	0.2231
394.4049	0.2022
394.6113	0.1856
394.8176	0.2014
395.0239	0.2016
395.2302	0.1965
395.4365	0.1909
395.6428	0.1945
395.8491	0.1783
396.0553	0.1916
396.2615	0.2124
396.4678	0.2
396.674	0.1791
396.8802	0.1808
397.0863	0.188
397.2925	0.1861
397.4987	0.1986
397.7048	0.2016
397.9109	0.179
398.117	0.1759
398.3231	0.1938
398.5292	0.1917
398.7353	0.1865
398.9413	0.1826
399.1474	0.1862
399.3534	0.1799
399.5594	0.1944
399.7654	0.1896
399.9714	0.1865
400.1774	0.1787
400.3833	0.1873
400.5893	0.1767
400.7952	0.194
401.0011	0.2078
401.207	0.1857
401.4129	0.182
401.6188	0.1747
401.8247	0.1839
402.0305	0.1708
402.2364	0.1876
402.4422	0.1792
402.648	0.1714
402.8538	0.1882
403.0596	0.1804
403.2654	0.1958
403.4711	0.1801
403.6768	0.1599
403.8826	0.1775
404.0883	0.166
404.294	0.1987
404.4997	0.1698
404.7054	0.1874
404.911	0.1874
405.1167	0.1641
405.3223	0.1743
405.5279	0.1781
405.7335	0.1942
405.9391	0.1832
406.1447	0.1918
406.3502	0.1574
406.5558	0.1874
406.7613	0.188
406.9668	0.1665
407.1724	0.1892
407.3778	0.1961
407.5833	0.1746
407.7888	0.1806
407.9942	0.1715
408.1997	0.1745
408.4051	0.1827
408.6105	0.1716
408.8159	0.1778
409.0213	0.1738
409.2267	0.1805
409.432	0.1896
409.6374	0.1851
409.8427	0.1841
410.048	0.2067
410.2533	0.1799
410.4586	0.1715
410.6639	0.1764
410.8691	0.1767
411.0744	0.1842
411.2796	0.1693
411.4848	0.1838
411.69	0.1767
411.8952	0.1629
412.1004	0.1813
412.3056	0.1696
412.5107	0.1607
412.7158	0.158
412.921	0.1951
413.1261	0.1844
413.3312	0.1768
413.5362	0.1868
413.7413	0.1579
413.9464	0.188
414.1514	0.1749
414.3564	0.1724
414.5614	0.1583
414.7664	0.1667
414.9714	0.188
415.1764	0.1732
415.3813	0.1732
415.5863	0.1675
415.7912	0.1683
415.9961	0.1916
416.201	0.1777
416.4059	0.1681
416.6108	0.1814
416.8156	0.1685
417.0205	0.16
417.2253	0.1754
417.4301	0.1584
417.6349	0.1786
417.8397	0.1672
418.0445	0.1605
418.2492	0.1546
418.454	0.1684
418.6587	0.1827
418.8634	0.1654
419.0681	0.1835
419.2728	0.1421
419.4775	0.1802
419.6822	0.1811
419.8868	0.177
420.0915	0.1513
420.2961	0.1499
420.5007	0.1457
420.7053	0.1703
420.9099	0.1599
421.1144	0.1828
421.319	0.1638
421.5235	0.1759
421.728	0.1424
421.9325	0.1667
422.137	0.1591
422.3415	0.153
422.546	0.1327
422.7504	0.1632
422.9549	0.1582
423.1593	0.1647
423.3637	0.1574
423.5681	0.1334
423.7725	0.1454
423.9769	0.1531
424.1812	0.1559
424.3856	0.1527
424.5899	0.1507
424.7942	0.1446
424.9985	0.1652
425.2028	0.1353
425.4071	0.141
425.6113	0.1532
425.8156	0.1708
426.0198	0.1539
426.224	0.1474
426.4282	0.1394
426.6324	0.1406
