Data from MonoPyChalIsomerACN10uM400nmA_Absorbance_12-08-40-328.txt Node
Date: Fri Jul 05 12:08:40 BST 2024
User: LASERRRRR
Spectrometer: FLMT03099
Trigger mode: 0
Integration Time (sec): 1.000000E-1
Scans to average: 1
Electric dark correction enabled: true
Nonlinearity correction enabled: false
Boxcar width: 0
XAxis mode: Wavelengths
Number of Pixels in Spectrum: 3648
>>>>>Begin Spectral Data<<<<<
179.3399	-0.0687
179.5586	-0.0687
179.7771	-0.0687
179.9957	0.6572
180.2143	-0
180.4329	-0
180.6514	-0
180.8699	-0
181.0885	-0
181.307	-0.0945
181.5255	-0.472
181.744	0.1748
181.9625	-0.4316
182.181	-0
182.3994	-0.3846
182.6179	-0
182.8363	-0
183.0547	0.1404
183.2732	0.1883
183.4916	0.0247
183.71	0.1031
183.9284	0.1294
184.1467	-0.1464
184.3651	-0.055
184.5835	0.1665
184.8018	0.0435
185.0201	0.0777
185.2385	0.0993
185.4568	0.094
185.6751	-0.0667
185.8934	-0.0163
186.1117	0.1532
186.3299	0.0278
186.5482	0.2175
186.7664	0.0208
186.9847	0.2138
187.2029	0.0021
187.4211	-0.2575
187.6393	-0.0734
187.8575	0.1207
188.0757	0.0746
188.2939	0.1213
188.512	-0.0648
188.7302	-0.0075
188.9483	-0.0349
189.1665	-0.0504
189.3846	0.0329
189.6027	0.2254
189.8208	0.0721
190.0389	0.1679
190.257	0.1702
190.475	0.305
190.6931	0.0783
190.9111	0.121
191.1292	0.1877
191.3472	0.5131
191.5652	0.1056
191.7832	0.2368
192.0012	0.4641
192.2192	0.4386
192.4371	0.4332
192.6551	0.4055
192.873	0.4898
193.091	0.2721
193.3089	0.32
193.5268	0.6543
193.7447	0.3898
193.9626	0.5287
194.1805	0.414
194.3984	0.5325
194.6162	0.4607
194.8341	0.5713
195.0519	0.5064
195.2697	0.4663
195.4875	0.5766
195.7054	0.5512
195.9231	0.3951
196.1409	0.5789
196.3587	0.5537
196.5765	0.5946
196.7942	0.6943
197.012	0.8208
197.2297	0.5386
197.4474	0.7052
197.6651	0.6607
197.8828	0.6081
198.1005	0.5899
198.3182	0.6656
198.5358	0.7057
198.7535	0.6502
198.9711	0.5888
199.1888	0.7026
199.4064	0.7798
199.624	0.6792
199.8416	0.6303
200.0592	0.7832
200.2767	0.6338
200.4943	0.5674
200.7119	0.6203
200.9294	0.6938
201.1469	0.7714
201.3645	0.73
201.582	0.7297
201.7995	1.0678
202.017	0.7367
202.2344	0.636
202.4519	0.7921
202.6694	0.982
202.8868	0.8202
203.1042	0.6314
203.3217	0.653
203.5391	0.893
203.7565	0.7945
203.9739	0.7233
204.1913	0.963
204.4086	0.8127
204.626	0.7591
204.8433	0.901
205.0607	0.7427
205.278	0.8164
205.4953	0.8003
205.7126	0.7069
205.9299	0.8213
206.1472	0.729
206.3644	0.5996
206.5817	0.7716
206.7989	0.6487
207.0162	0.8134
207.2334	0.7616
207.4506	0.8598
207.6678	0.7915
207.885	0.7573
208.1022	0.8547
208.3194	0.7023
208.5365	0.7642
208.7537	0.7426
208.9708	0.7681
209.1879	0.7631
209.405	0.7036
209.6222	0.8041
209.8392	0.7384
210.0563	0.7185
210.2734	0.7737
210.4905	0.822
210.7075	0.7669
210.9245	0.7955
211.1416	0.7075
211.3586	0.7922
211.5756	0.7469
211.7926	0.7424
212.0096	0.7524
212.2265	0.6474
212.4435	0.7991
212.6604	0.8009
212.8774	0.7797
213.0943	0.6886
213.3112	0.6871
213.5281	0.6546
213.745	0.6695
213.9619	0.7155
214.1788	0.6362
214.3956	0.7137
214.6125	0.6509
214.8293	0.6985
215.0461	0.7199
215.2629	0.6418
215.4798	0.6323
215.6965	0.6811
215.9133	0.6154
216.1301	0.6011
216.3469	0.636
216.5636	0.6483
216.7803	0.5862
216.9971	0.6605
217.2138	0.6427
217.4305	0.6178
217.6472	0.5887
217.8639	0.6167
218.0805	0.5855
218.2972	0.5873
218.5138	0.6133
218.7305	0.5648
218.9471	0.5628
219.1637	0.5374
219.3803	0.519
219.5969	0.5643
219.8135	0.5807
220.0301	0.565
220.2466	0.5488
220.4632	0.5462
220.6797	0.5851
220.8962	0.5464
221.1127	0.5292
221.3292	0.5328
221.5457	0.5784
221.7622	0.5493
221.9787	0.5533
222.1951	0.5923
222.4116	0.5586
222.628	0.5721
222.8444	0.5665
223.0608	0.57
223.2772	0.5694
223.4936	0.5525
223.71	0.5695
223.9264	0.5444
224.1427	0.5486
224.3591	0.5544
224.5754	0.5659
224.7917	0.5493
225.008	0.5967
225.2243	0.5525
225.4406	0.5379
225.6569	0.548
225.8732	0.5837
226.0894	0.5386
226.3057	0.5531
226.5219	0.5722
226.7381	0.6073
226.9543	0.6059
227.1705	0.589
227.3867	0.578
227.6029	0.5533
227.8191	0.5659
228.0352	0.5753
228.2513	0.5514
228.4675	0.5815
228.6836	0.591
228.8997	0.597
229.1158	0.5696
229.3319	0.5712
229.548	0.6132
229.764	0.6036
229.9801	0.5658
230.1961	0.5865
230.4121	0.6058
230.6282	0.5688
230.8442	0.5759
231.0602	0.5538
231.2761	0.5659
231.4921	0.5892
231.7081	0.5827
231.924	0.6147
232.14	0.5639
232.3559	0.581
232.5718	0.5978
232.7877	0.5669
233.0036	0.5868
233.2195	0.5674
233.4353	0.5767
233.6512	0.6026
233.867	0.589
234.0829	0.5438
234.2987	0.6016
234.5145	0.5494
234.7303	0.5829
234.9461	0.5695
235.1619	0.5626
235.3776	0.57
235.5934	0.5496
235.8091	0.5571
236.0249	0.55
236.2406	0.5376
236.4563	0.5836
236.672	0.5395
236.8877	0.5503
237.1034	0.5294
237.319	0.5349
237.5347	0.5622
237.7503	0.5656
237.966	0.5333
238.1816	0.5626
238.3972	0.5811
238.6128	0.5482
238.8284	0.5209
239.0439	0.5397
239.2595	0.5497
239.475	0.539
239.6906	0.564
239.9061	0.5239
240.1216	0.5361
240.3371	0.5131
240.5526	0.5185
240.7681	0.5373
240.9836	0.5555
241.199	0.4953
241.4145	0.503
241.6299	0.4913
241.8453	0.4825
242.0607	0.5077
242.2761	0.4823
242.4915	0.4579
242.7069	0.4532
242.9223	0.4756
243.1376	0.4311
243.353	0.4395
243.5683	0.4175
243.7836	0.4135
243.9989	0.4147
244.2142	0.4115
244.4295	0.3788
244.6448	0.3752
244.86	0.3681
245.0753	0.3613
245.2905	0.3748
245.5057	0.3528
245.721	0.3482
245.9362	0.3443
246.1514	0.3309
246.3665	0.3095
246.5817	0.3331
246.7969	0.3171
247.012	0.3056
247.2271	0.3116
247.4423	0.2948
247.6574	0.2888
247.8725	0.2905
248.0876	0.2945
248.3026	0.2735
248.5177	0.2978
248.7328	0.279
248.9478	0.2757
249.1628	0.2559
249.3779	0.2697
249.5929	0.2717
249.8079	0.2385
250.0228	0.2625
250.2378	0.2543
250.4528	0.261
250.6677	0.2546
250.8827	0.2255
251.0976	0.234
251.3125	0.2303
251.5274	0.2334
251.7423	0.2222
251.9572	0.2207
252.172	0.2115
252.3869	0.2249
252.6017	0.217
252.8166	0.2046
253.0314	0.2012
253.2462	0.2176
253.461	0.2069
253.6758	0.1916
253.8906	0.2167
254.1053	0.2034
254.3201	0.2054
254.5348	0.2172
254.7496	0.1968
254.9643	0.1947
255.179	0.1977
255.3937	0.1938
255.6083	0.2032
255.823	0.1878
256.0377	0.194
256.2523	0.1946
256.467	0.1759
256.6816	0.1862
256.8962	0.1979
257.1108	0.2101
257.3254	0.1899
257.54	0.1988
257.7545	0.1968
257.9691	0.2066
258.1836	0.1763
258.3981	0.1934
258.6127	0.1877
258.8272	0.1953
259.0417	0.1801
259.2561	0.1888
259.4706	0.1867
259.6851	0.1849
259.8995	0.1943
260.114	0.1659
260.3284	0.1831
260.5428	0.1868
260.7572	0.1948
260.9716	0.1981
261.186	0.1971
261.4003	0.188
261.6147	0.1996
261.829	0.2102
262.0433	0.1825
262.2577	0.1776
262.472	0.1899
262.6863	0.1884
262.9005	0.1873
263.1148	0.1797
263.3291	0.1863
263.5433	0.1728
263.7576	0.1858
263.9718	0.1987
264.186	0.177
264.4002	0.204
264.6144	0.1769
264.8286	0.1862
265.0427	0.1785
265.2569	0.1859
265.471	0.1748
265.6851	0.1767
265.8993	0.1844
266.1134	0.1741
266.3275	0.1796
266.5415	0.1789
266.7556	0.1733
266.9697	0.1796
267.1837	0.1852
267.3978	0.194
267.6118	0.1763
267.8258	0.2005
268.0398	0.1872
268.2538	0.1786
268.4677	0.183
268.6817	0.1686
268.8957	0.1805
269.1096	0.1788
269.3235	0.1831
269.5374	0.177
269.7514	0.1675
269.9652	0.1871
270.1791	0.1732
270.393	0.1643
270.6068	0.1759
270.8207	0.1759
271.0345	0.1609
271.2483	0.1745
271.4622	0.1687
271.676	0.1623
271.8897	0.181
272.1035	0.1597
272.3173	0.1621
272.531	0.1622
272.7448	0.1508
272.9585	0.17
273.1722	0.1769
273.3859	0.1611
273.5996	0.1722
273.8133	0.1707
274.0269	0.1605
274.2406	0.1593
274.4542	0.1702
274.6679	0.1683
274.8815	0.1533
275.0951	0.1738
275.3087	0.1653
275.5223	0.1555
275.7358	0.1594
275.9494	0.1684
276.1629	0.1598
276.3765	0.1462
276.59	0.1641
276.8035	0.1628
277.017	0.159
277.2305	0.1662
277.444	0.1649
277.6574	0.1654
277.8709	0.1543
278.0843	0.1692
278.2978	0.165
278.5112	0.1781
278.7246	0.1582
278.938	0.1578
279.1513	0.1666
279.3647	0.1509
279.5781	0.1693
279.7914	0.1686
280.0047	0.172
280.2181	0.1648
280.4314	0.1677
280.6447	0.1724
280.8579	0.176
281.0712	0.172
281.2845	0.1753
281.4977	0.176
281.711	0.174
281.9242	0.1795
282.1374	0.1623
282.3506	0.1825
282.5638	0.1895
282.7769	0.177
282.9901	0.1792
283.2033	0.1779
283.4164	0.1697
283.6295	0.168
283.8426	0.1711
284.0557	0.1723
284.2688	0.163
284.4819	0.169
284.695	0.1752
284.908	0.1833
285.1211	0.1807
285.3341	0.1918
285.5471	0.192
285.7601	0.1876
285.9731	0.191
286.1861	0.2026
286.3991	0.166
286.612	0.1794
286.825	0.1872
287.0379	0.1882
287.2508	0.177
287.4637	0.1875
287.6766	0.1817
287.8895	0.1769
288.1024	0.1788
288.3152	0.1934
288.5281	0.1855
288.7409	0.1867
288.9538	0.1835
289.1666	0.1929
289.3794	0.1754
289.5922	0.1861
289.8049	0.1775
290.0177	0.181
290.2304	0.1936
290.4432	0.183
290.6559	0.1947
290.8686	0.1941
291.0813	0.1857
291.294	0.1857
291.5067	0.1822
291.7194	0.1859
291.932	0.1953
292.1447	0.1962
292.3573	0.2004
292.5699	0.181
292.7825	0.1832
292.9951	0.2034
293.2077	0.1902
293.4203	0.1852
293.6328	0.1939
293.8454	0.187
294.0579	0.1946
294.2704	0.1902
294.4829	0.1843
294.6954	0.1899
294.9079	0.1896
295.1204	0.1967
295.3328	0.1787
295.5453	0.1805
295.7577	0.1876
295.9701	0.1928
296.1825	0.1931
296.3949	0.1818
296.6073	0.1886
296.8197	0.189
297.0321	0.1896
297.2444	0.1786
297.4567	0.183
297.6691	0.1852
297.8814	0.1853
298.0937	0.1778
298.306	0.1835
298.5182	0.1871
298.7305	0.1944
298.9428	0.1833
299.155	0.1862
299.3672	0.175
299.5794	0.1915
299.7916	0.1728
300.0038	0.1931
300.216	0.1802
300.4282	0.1888
300.6403	0.1944
300.8525	0.189
301.0646	0.1977
301.2767	0.1921
301.4888	0.1815
301.7009	0.1873
301.913	0.1921
302.125	0.1767
302.3371	0.192
302.5491	0.1828
302.7612	0.1836
302.9732	0.1717
303.1852	0.1811
303.3972	0.1841
303.6092	0.1768
303.8211	0.1891
304.0331	0.1761
304.245	0.1787
304.457	0.1758
304.6689	0.1712
304.8808	0.1711
305.0927	0.1692
305.3046	0.1629
305.5164	0.1706
305.7283	0.1695
305.9401	0.1646
306.152	0.1749
306.3638	0.1576
306.5756	0.1612
306.7874	0.1676
306.9992	0.1486
307.2109	0.1581
307.4227	0.1553
307.6344	0.1578
307.8462	0.1415
308.0579	0.1577
308.2696	0.1557
308.4813	0.1394
308.693	0.1374
308.9046	0.1418
309.1163	0.1376
309.328	0.1347
309.5396	0.1365
309.7512	0.1319
309.9628	0.127
310.1744	0.1342
310.386	0.1278
310.5976	0.1249
310.8091	0.1173
311.0207	0.1338
311.2322	0.1191
311.4437	0.1238
311.6552	0.1247
311.8667	0.1166
312.0782	0.1174
312.2897	0.1014
312.5012	0.111
312.7126	0.1161
312.924	0.1071
313.1355	0.1198
313.3469	0.1066
313.5583	0.1144
313.7696	0.1172
313.981	0.1218
314.1924	0.1107
314.4037	0.1105
314.6151	0.109
314.8264	0.1095
315.0377	0.1036
315.249	0.0958
315.4603	0.0989
315.6716	0.1091
315.8828	0.1002
316.0941	0.0971
316.3053	0.1034
316.5165	0.1068
316.7277	0.0936
316.9389	0.0947
317.1501	0.102
317.3613	0.0768
317.5724	0.1062
317.7836	0.0967
317.9947	0.1014
318.2058	0.097
318.417	0.096
318.6281	0.1054
318.8391	0.0928
319.0502	0.0938
319.2613	0.1049
319.4723	0.089
319.6834	0.095
319.8944	0.0864
320.1054	0.0979
320.3164	0.1034
320.5274	0.0913
320.7383	0.0975
320.9493	0.0937
321.1602	0.0988
321.3712	0.0936
321.5821	0.1044
321.793	0.1012
322.0039	0.1008
322.2148	0.0902
322.4257	0.098
322.6365	0.1017
322.8474	0.0791
323.0582	0.0989
323.269	0.1
323.4798	0.1055
323.6906	0.0799
323.9014	0.1042
324.1122	0.0992
324.3229	0.0941
324.5337	0.1014
324.7444	0.0988
324.9551	0.1001
325.1658	0.0978
325.3765	0.1045
325.5872	0.1038
325.7979	0.1061
326.0085	0.0855
326.2192	0.0791
326.4298	0.1077
326.6404	0.0963
326.851	0.0957
327.0616	0.1097
327.2722	0.094
327.4828	0.1183
327.6933	0.1019
327.9039	0.0976
328.1144	0.1002
328.3249	0.0939
328.5354	0.0847
328.7459	0.1082
328.9564	0.1019
329.1669	0.1047
329.3773	0.1102
329.5878	0.0924
329.7982	0.0882
330.0086	0.0982
330.219	0.1038
330.4294	0.0954
330.6398	0.1033
330.8502	0.0947
331.0605	0.1054
331.2708	0.0947
331.4812	0.1012
331.6915	0.0984
331.9018	0.0979
332.1121	0.0967
332.3224	0.1026
332.5326	0.1133
332.7429	0.1
332.9531	0.0989
333.1633	0.1064
333.3735	0.098
333.5837	0.1088
333.7939	0.104
334.0041	0.1124
334.2143	0.0982
334.4244	0.1114
334.6346	0.0886
334.8447	0.1025
335.0548	0.1078
335.2649	0.0987
335.475	0.1012
335.685	0.0908
335.8951	0.1019
336.1051	0.1084
336.3152	0.103
336.5252	0.113
336.7352	0.1157
336.9452	0.1058
337.1552	0.1238
337.3652	0.1026
337.5751	0.1065
337.7851	0.1006
337.995	0.1021
338.2049	0.1109
338.4148	0.1172
338.6247	0.1012
338.8346	0.1108
339.0445	0.1077
339.2543	0.1174
339.4642	0.1047
339.674	0.1139
339.8838	0.1076
340.0936	0.1062
340.3034	0.113
340.5132	0.1294
340.7229	0.112
340.9327	0.1041
341.1424	0.1069
341.3522	0.1058
341.5619	0.1173
341.7716	0.1164
341.9813	0.1075
342.1909	0.1075
342.4006	0.1234
342.6102	0.1234
342.8199	0.1149
343.0295	0.1312
343.2391	0.1153
343.4487	0.1258
343.6583	0.1183
343.8679	0.1118
344.0774	0.124
344.287	0.1209
344.4965	0.1295
344.706	0.1235
344.9155	0.1185
345.125	0.1218
345.3345	0.1226
345.544	0.1331
345.7534	0.1246
345.9629	0.1197
346.1723	0.1258
346.3817	0.1323
346.5911	0.1312
346.8005	0.1246
347.0099	0.1317
347.2193	0.1173
347.4286	0.1202
347.638	0.1312
347.8473	0.1313
348.0566	0.126
348.2659	0.1552
348.4752	0.127
348.6845	0.1337
348.8937	0.1304
349.103	0.1277
349.3122	0.1248
349.5214	0.1291
349.7306	0.1298
349.9398	0.1268
350.149	0.1407
350.3582	0.13
350.5674	0.1406
350.7765	0.1323
350.9856	0.1351
351.1948	0.1441
351.4039	0.153
351.613	0.1289
351.822	0.1428
352.0311	0.1429
352.2402	0.1322
352.4492	0.1395
352.6582	0.1339
352.8672	0.1404
353.0762	0.1359
353.2852	0.1432
353.4942	0.1415
353.7032	0.1396
353.9121	0.1326
354.1211	0.1308
354.33	0.1595
354.5389	0.145
354.7478	0.1526
354.9567	0.1387
355.1655	0.1469
355.3744	0.153
355.5833	0.1684
355.7921	0.1535
356.0009	0.157
356.2097	0.1484
356.4185	0.1601
356.6273	0.1563
356.8361	0.1633
357.0448	0.1528
357.2536	0.1482
357.4623	0.1701
357.671	0.1557
357.8797	0.1481
358.0884	0.1729
358.2971	0.1606
358.5057	0.168
358.7144	0.1656
358.923	0.1564
359.1316	0.1593
359.3402	0.1791
359.5488	0.1781
359.7574	0.1714
359.966	0.1775
360.1746	0.1715
360.3831	0.1639
360.5916	0.1811
360.8002	0.1818
361.0087	0.186
361.2172	0.1638
361.4256	0.1787
361.6341	0.1794
361.8426	0.199
362.051	0.1885
362.2594	0.1822
362.4678	0.1812
362.6762	0.1913
362.8846	0.1846
363.093	0.1891
363.3014	0.1951
363.5097	0.1779
363.718	0.198
363.9264	0.1961
364.1347	0.1814
364.343	0.1785
364.5513	0.1895
364.7595	0.2034
364.9678	0.1987
365.176	0.2001
365.3842	0.1956
365.5925	0.1757
365.8007	0.1973
366.0089	0.1998
366.217	0.2027
366.4252	0.2076
366.6333	0.2082
366.8415	0.2101
367.0496	0.1931
367.2577	0.223
367.4658	0.203
367.6739	0.2099
367.882	0.2208
368.09	0.2249
368.2981	0.2168
368.5061	0.2228
368.7141	0.2041
368.9221	0.2153
369.1301	0.2172
369.3381	0.2178
369.5461	0.2163
369.754	0.2177
369.962	0.2275
370.1699	0.2124
370.3778	0.2336
370.5857	0.2331
370.7936	0.2203
371.0015	0.233
371.2093	0.2406
371.4172	0.2254
371.625	0.2113
371.8328	0.228
372.0406	0.2156
372.2484	0.2267
372.4562	0.2332
372.664	0.2387
372.8717	0.213
373.0795	0.2501
373.2872	0.2436
373.4949	0.2282
373.7026	0.2403
373.9103	0.2459
374.118	0.2331
374.3256	0.2354
374.5333	0.2357
374.7409	0.2271
374.9485	0.2332
375.1561	0.2272
375.3637	0.2184
375.5713	0.248
375.7789	0.2434
375.9864	0.2408
376.194	0.2454
376.4015	0.2495
376.609	0.2435
376.8165	0.2562
377.024	0.2361
377.2315	0.2427
377.4389	0.2321
377.6464	0.238
377.8538	0.2515
378.0612	0.262
378.2686	0.2662
378.476	0.2632
378.6834	0.2617
378.8908	0.2501
379.0981	0.2706
379.3055	0.2682
379.5128	0.282
379.7201	0.2763
379.9274	0.2677
380.1347	0.2487
380.342	0.2544
380.5492	0.2523
380.7565	0.283
380.9637	0.2631
381.1709	0.263
381.3781	0.2741
381.5853	0.273
381.7925	0.2764
381.9997	0.2636
382.2068	0.2664
382.4139	0.2825
382.6211	0.28
382.8282	0.2641
383.0353	0.262
383.2424	0.2816
383.4494	0.2866
383.6565	0.2722
383.8635	0.2763
384.0706	0.2796
384.2776	0.2766
384.4846	0.2627
384.6916	0.2745
384.8986	0.266
385.1055	0.2624
385.3125	0.257
385.5194	0.285
385.7263	0.2899
385.9333	0.262
386.1402	0.2595
386.347	0.2853
386.5539	0.2761
386.7608	0.2836
386.9676	0.2514
387.1744	0.2615
387.3813	0.2706
387.5881	0.2676
387.7948	0.262
388.0016	0.2691
388.2084	0.2709
388.4151	0.2806
388.6219	0.2742
388.8286	0.2422
389.0353	0.2737
389.242	0.2706
389.4487	0.256
389.6553	0.2573
389.862	0.2666
390.0686	0.2676
390.2753	0.2707
390.4819	0.2472
390.6885	0.2642
390.8951	0.2376
391.1016	0.2655
391.3082	0.268
391.5147	0.244
391.7213	0.2592
391.9278	0.2633
392.1343	0.223
392.3408	0.254
392.5473	0.2654
392.7537	0.2447
392.9602	0.2619
393.1666	0.2447
393.373	0.2529
393.5794	0.2325
393.7858	0.2442
393.9922	0.2417
394.1986	0.2642
394.4049	0.2421
394.6113	0.2287
394.8176	0.2406
395.0239	0.2481
395.2302	0.2364
395.4365	0.2155
395.6428	0.2424
395.8491	0.236
396.0553	0.238
396.2615	0.2371
396.4678	0.254
396.674	0.2408
396.8802	0.2345
397.0863	0.2334
397.2925	0.228
397.4987	0.2395
397.7048	0.2332
397.9109	0.2286
398.117	0.2314
398.3231	0.2335
398.5292	0.2543
398.7353	0.2276
398.9413	0.2153
399.1474	0.2173
399.3534	0.2128
399.5594	0.2351
399.7654	0.2402
399.9714	0.2314
400.1774	0.212
400.3833	0.2395
400.5893	0.223
400.7952	0.2358
401.0011	0.2259
401.207	0.2305
401.4129	0.2309
401.6188	0.2216
401.8247	0.2281
402.0305	0.2194
402.2364	0.2377
402.4422	0.227
402.648	0.2179
402.8538	0.2312
403.0596	0.2368
403.2654	0.2443
403.4711	0.2256
403.6768	0.2373
403.8826	0.2505
404.0883	0.228
404.294	0.2352
404.4997	0.1993
404.7054	0.238
404.911	0.2208
405.1167	0.2171
405.3223	0.2224
405.5279	0.2313
405.7335	0.2524
405.9391	0.2298
406.1447	0.259
406.3502	0.2201
406.5558	0.2304
406.7613	0.231
406.9668	0.2316
407.1724	0.2241
407.3778	0.2282
407.5833	0.2323
407.7888	0.2301
407.9942	0.2245
408.1997	0.2169
408.4051	0.2307
408.6105	0.2235
408.8159	0.2383
409.0213	0.2184
409.2267	0.2396
409.432	0.2455
409.6374	0.225
409.8427	0.2312
410.048	0.218
410.2533	0.2338
410.4586	0.2147
410.6639	0.2294
410.8691	0.2347
411.0744	0.223
411.2796	0.2064
411.4848	0.2219
411.69	0.221
411.8952	0.239
412.1004	0.2229
412.3056	0.2236
412.5107	0.2177
412.7158	0.2155
412.921	0.2286
413.1261	0.2325
413.3312	0.2194
413.5362	0.2405
413.7413	0.2189
413.9464	0.2331
414.1514	0.2146
414.3564	0.2178
414.5614	0.2033
414.7664	0.2112
414.9714	0.2277
415.1764	0.2366
415.3813	0.2292
415.5863	0.2197
415.7912	0.2175
415.9961	0.2252
416.201	0.2396
416.4059	0.233
416.6108	0.2353
416.8156	0.2212
417.0205	0.233
417.2253	0.2365
417.4301	0.2202
417.6349	0.2203
417.8397	0.2063
418.0445	0.2156
418.2492	0.2063
418.454	0.2149
418.6587	0.2149
418.8634	0.229
419.0681	0.22
419.2728	0.2058
419.4775	0.2276
419.6822	0.2154
419.8868	0.2214
420.0915	0.1939
420.2961	0.2053
420.5007	0.2108
420.7053	0.2234
420.9099	0.2064
421.1144	0.2313
421.319	0.2199
421.5235	0.2233
421.728	0.1993
421.9325	0.2165
422.137	0.2042
422.3415	0.1942
422.546	0.2059
422.7504	0.2306
422.9549	0.2042
423.1593	0.2075
423.3637	0.2154
423.5681	0.1988
423.7725	0.2
423.9769	0.2195
424.1812	0.2051
424.3856	0.1877
424.5899	0.2117
424.7942	0.1813
424.9985	0.204
425.2028	0.1712
425.4071	0.1732
425.6113	0.191
425.8156	0.2137
426.0198	0.1972
426.224	0.1877
426.4282	0.1975
426.6324	0.1989
426.8366	0.1927
427.0407	0.1788
