Data from MonoPyChalIsomerACN10uM400nmA_Absorbance_12-08-40-728.txt Node
Date: Fri Jul 05 12:08:40 BST 2024
User: LASERRRRR
Spectrometer: FLMT03099
Trigger mode: 0
Integration Time (sec): 1.000000E-1
Scans to average: 1
Electric dark correction enabled: true
Nonlinearity correction enabled: false
Boxcar width: 0
XAxis mode: Wavelengths
Number of Pixels in Spectrum: 3648
>>>>>Begin Spectral Data<<<<<
179.3399	0.0202
179.5586	0.0202
179.7771	0.0202
179.9957	0.3062
180.2143	-0.8578
180.4329	-0
180.6514	-0.4517
180.8699	0.1525
181.0885	-0.1239
181.307	0.2851
181.5255	-0.6562
181.744	-0
181.9625	0.622
182.181	-0.1155
182.3994	0.427
182.6179	-0.3316
182.8363	-0.3024
183.0547	0.3139
183.2732	0.035
183.4916	0.221
183.71	0.1223
183.9284	-0.0107
184.1467	0.0534
184.3651	0.0254
184.5835	0.1254
184.8018	0.1254
185.0201	0.0602
185.2385	-0.0734
185.4568	0.1168
185.6751	0.0431
185.8934	0.0108
186.1117	0.0699
186.3299	0.1191
186.5482	0.2866
186.7664	0.2357
186.9847	0.1535
187.2029	-0.0193
187.4211	-0.3018
187.6393	-0.0126
187.8575	0.1966
188.0757	0.018
188.2939	0.1123
188.512	0.0699
188.7302	-0.1743
188.9483	0.1628
189.1665	0.1475
189.3846	0.0966
189.6027	0.1829
189.8208	0.0569
190.0389	0.0608
190.257	0.1018
190.475	0.2037
190.6931	0.2043
190.9111	0.2472
191.1292	0.2593
191.3472	0.3718
191.5652	0.0394
191.7832	0.6691
192.0012	0.3714
192.2192	0.5742
192.4371	0.2744
192.6551	0.4087
192.873	0.5265
193.091	0.5747
193.3089	0.3529
193.5268	0.6009
193.7447	0.554
193.9626	0.4679
194.1805	0.6009
194.3984	0.5883
194.6162	0.5868
194.8341	0.6182
195.0519	0.5595
195.2697	0.8033
195.4875	0.566
195.7054	0.634
195.9231	0.8691
196.1409	0.5327
196.3587	0.5602
196.5765	0.5302
196.7942	0.7229
197.012	0.902
197.2297	0.9373
197.4474	0.6281
197.6651	0.7307
197.8828	0.5845
198.1005	0.7216
198.3182	0.7729
198.5358	0.726
198.7535	0.6152
198.9711	0.6379
199.1888	0.81
199.4064	0.9946
199.624	0.7664
199.8416	0.878
200.0592	0.9752
200.2767	0.603
200.4943	0.8206
200.7119	0.7335
200.9294	0.7799
201.1469	0.7392
201.3645	0.6259
201.582	0.5761
201.7995	0.8329
202.017	0.7569
202.2344	0.6562
202.4519	0.7371
202.6694	1.0451
202.8868	0.874
203.1042	0.823
203.3217	0.6324
203.5391	0.6848
203.7565	0.8411
203.9739	0.7673
204.1913	0.9345
204.4086	0.8683
204.626	0.736
204.8433	0.9041
205.0607	0.8789
205.278	0.9194
205.4953	0.8357
205.7126	0.7129
205.9299	0.765
206.1472	0.7429
206.3644	0.6937
206.5817	0.6967
206.7989	0.6742
207.0162	0.8042
207.2334	0.8278
207.4506	0.7137
207.6678	0.7884
207.885	0.6978
208.1022	0.7424
208.3194	0.6471
208.5365	0.7233
208.7537	0.962
208.9708	0.7073
209.1879	0.7776
209.405	0.6892
209.6222	0.863
209.8392	0.8269
210.0563	0.7484
210.2734	0.7377
210.4905	0.7539
210.7075	0.7856
210.9245	0.6986
211.1416	0.7523
211.3586	0.8455
211.5756	0.7677
211.7926	0.7437
212.0096	0.7194
212.2265	0.7469
212.4435	0.7355
212.6604	0.7464
212.8774	0.6968
213.0943	0.7229
213.3112	0.7156
213.5281	0.576
213.745	0.7803
213.9619	0.6723
214.1788	0.7055
214.3956	0.6542
214.6125	0.6249
214.8293	0.7901
215.0461	0.6712
215.2629	0.653
215.4798	0.5998
215.6965	0.6856
215.9133	0.6621
216.1301	0.5783
216.3469	0.6737
216.5636	0.606
216.7803	0.6174
216.9971	0.6581
217.2138	0.6549
217.4305	0.6402
217.6472	0.5995
217.8639	0.6055
218.0805	0.6116
218.2972	0.5545
218.5138	0.6379
218.7305	0.5916
218.9471	0.5705
219.1637	0.5334
219.3803	0.5502
219.5969	0.5833
219.8135	0.5922
220.0301	0.5751
220.2466	0.5444
220.4632	0.5922
220.6797	0.5606
220.8962	0.5708
221.1127	0.5736
221.3292	0.5244
221.5457	0.5934
221.7622	0.557
221.9787	0.5761
222.1951	0.5316
222.4116	0.5436
222.628	0.5959
222.8444	0.5546
223.0608	0.564
223.2772	0.5605
223.4936	0.586
223.71	0.5488
223.9264	0.5604
224.1427	0.5935
224.3591	0.5992
224.5754	0.5515
224.7917	0.5473
225.008	0.5799
225.2243	0.5666
225.4406	0.5618
225.6569	0.568
225.8732	0.5988
226.0894	0.5824
226.3057	0.5637
226.5219	0.583
226.7381	0.5903
226.9543	0.5814
227.1705	0.5648
227.3867	0.5722
227.6029	0.5256
227.8191	0.5696
228.0352	0.5836
228.2513	0.5761
228.4675	0.5597
228.6836	0.5738
228.8997	0.5811
229.1158	0.5321
229.3319	0.5992
229.548	0.576
229.764	0.6109
229.9801	0.5946
230.1961	0.5895
230.4121	0.5832
230.6282	0.5468
230.8442	0.5557
231.0602	0.5597
231.2761	0.5573
231.4921	0.5827
231.7081	0.5751
231.924	0.5663
232.14	0.5809
232.3559	0.5858
232.5718	0.6017
232.7877	0.5849
233.0036	0.6001
233.2195	0.5499
233.4353	0.5743
233.6512	0.5876
233.867	0.5768
234.0829	0.5667
234.2987	0.5945
234.5145	0.5344
234.7303	0.5878
234.9461	0.5724
235.1619	0.5684
235.3776	0.5703
235.5934	0.5444
235.8091	0.582
236.0249	0.5457
236.2406	0.5379
236.4563	0.5753
236.672	0.5497
236.8877	0.5646
237.1034	0.5388
237.319	0.5493
237.5347	0.5569
237.7503	0.542
237.966	0.5258
238.1816	0.5475
238.3972	0.5881
238.6128	0.5398
238.8284	0.5502
239.0439	0.5648
239.2595	0.5508
239.475	0.5481
239.6906	0.53
239.9061	0.522
240.1216	0.543
240.3371	0.5287
240.5526	0.5244
240.7681	0.5273
240.9836	0.5458
241.199	0.5007
241.4145	0.4948
241.6299	0.5094
241.8453	0.4752
242.0607	0.5003
242.2761	0.4801
242.4915	0.4896
242.7069	0.4705
242.9223	0.4692
243.1376	0.4313
243.353	0.4493
243.5683	0.4358
243.7836	0.4092
243.9989	0.4136
244.2142	0.3941
244.4295	0.3788
244.6448	0.3822
244.86	0.3507
245.0753	0.3576
245.2905	0.3763
245.5057	0.3653
245.721	0.3603
245.9362	0.3301
246.1514	0.3284
246.3665	0.3347
246.5817	0.33
246.7969	0.3175
247.012	0.317
247.2271	0.3301
247.4423	0.2908
247.6574	0.3022
247.8725	0.2946
248.0876	0.2786
248.3026	0.2819
248.5177	0.287
248.7328	0.2728
248.9478	0.2686
249.1628	0.2635
249.3779	0.2499
249.5929	0.258
249.8079	0.2507
250.0228	0.2472
250.2378	0.2406
250.4528	0.2392
250.6677	0.2383
250.8827	0.238
251.0976	0.2273
251.3125	0.2422
251.5274	0.2313
251.7423	0.2378
251.9572	0.2296
252.172	0.2184
252.3869	0.225
252.6017	0.2208
252.8166	0.2009
253.0314	0.2106
253.2462	0.2158
253.461	0.2138
253.6758	0.1956
253.8906	0.2161
254.1053	0.2032
254.3201	0.2087
254.5348	0.2158
254.7496	0.188
254.9643	0.1878
255.179	0.1878
255.3937	0.2023
255.6083	0.1897
255.823	0.2022
256.0377	0.195
256.2523	0.1997
256.467	0.1996
256.6816	0.1938
256.8962	0.1982
257.1108	0.1924
257.3254	0.1961
257.54	0.1933
257.7545	0.1951
257.9691	0.1951
258.1836	0.182
258.3981	0.1862
258.6127	0.1908
258.8272	0.1957
259.0417	0.1768
259.2561	0.1881
259.4706	0.1836
259.6851	0.1874
259.8995	0.1874
260.114	0.1772
260.3284	0.1898
260.5428	0.1993
260.7572	0.198
260.9716	0.1816
261.186	0.1836
261.4003	0.1769
261.6147	0.1922
261.829	0.203
262.0433	0.1757
262.2577	0.1738
262.472	0.1892
262.6863	0.1891
262.9005	0.1954
263.1148	0.1853
263.3291	0.1968
263.5433	0.1748
263.7576	0.1925
263.9718	0.1769
264.186	0.1815
264.4002	0.1896
264.6144	0.1813
264.8286	0.1884
265.0427	0.1878
265.2569	0.1883
265.471	0.1896
265.6851	0.1841
265.8993	0.1813
266.1134	0.1838
266.3275	0.1872
266.5415	0.1742
266.7556	0.1939
266.9697	0.1939
267.1837	0.1842
267.3978	0.1924
267.6118	0.1797
267.8258	0.1961
268.0398	0.1952
268.2538	0.1991
268.4677	0.1837
268.6817	0.1827
268.8957	0.2016
269.1096	0.1728
269.3235	0.1843
269.5374	0.1795
269.7514	0.1651
269.9652	0.1773
270.1791	0.1689
270.393	0.1696
270.6068	0.1798
270.8207	0.1789
271.0345	0.1597
271.2483	0.1719
271.4622	0.18
271.676	0.1817
271.8897	0.1718
272.1035	0.171
272.3173	0.1676
272.531	0.1663
272.7448	0.1644
272.9585	0.1658
273.1722	0.163
273.3859	0.1625
273.5996	0.1624
273.8133	0.168
274.0269	0.1617
274.2406	0.1698
274.4542	0.1608
274.6679	0.1681
274.8815	0.1655
275.0951	0.1701
275.3087	0.1697
275.5223	0.1662
275.7358	0.1596
275.9494	0.1681
276.1629	0.1669
276.3765	0.1666
276.59	0.1724
276.8035	0.1582
277.017	0.1685
277.2305	0.157
277.444	0.1732
277.6574	0.1633
277.8709	0.1544
278.0843	0.1766
278.2978	0.1728
278.5112	0.1687
278.7246	0.156
278.938	0.1768
279.1513	0.1795
279.3647	0.1679
279.5781	0.1715
279.7914	0.1805
280.0047	0.1795
280.2181	0.1645
280.4314	0.1708
280.6447	0.1849
280.8579	0.1704
281.0712	0.1728
281.2845	0.179
281.4977	0.174
281.711	0.1709
281.9242	0.1677
282.1374	0.1662
282.3506	0.1732
282.5638	0.1807
282.7769	0.1721
282.9901	0.1787
283.2033	0.1764
283.4164	0.1685
283.6295	0.1847
283.8426	0.1775
284.0557	0.175
284.2688	0.1654
284.4819	0.1798
284.695	0.1765
284.908	0.187
285.1211	0.1811
285.3341	0.1889
285.5471	0.1887
285.7601	0.1906
285.9731	0.1934
286.1861	0.1882
286.3991	0.17
286.612	0.1843
286.825	0.1877
287.0379	0.1805
287.2508	0.1815
287.4637	0.183
287.6766	0.1905
287.8895	0.1941
288.1024	0.1828
288.3152	0.1977
288.5281	0.1764
288.7409	0.1803
288.9538	0.1946
289.1666	0.1889
289.3794	0.1837
289.5922	0.1805
289.8049	0.1752
290.0177	0.1895
290.2304	0.1773
290.4432	0.176
290.6559	0.1999
290.8686	0.1847
291.0813	0.191
291.294	0.1895
291.5067	0.1985
291.7194	0.1793
291.932	0.1838
292.1447	0.1952
292.3573	0.2084
292.5699	0.1951
292.7825	0.1866
292.9951	0.2042
293.2077	0.2041
293.4203	0.1852
293.6328	0.1914
293.8454	0.1904
294.0579	0.2004
294.2704	0.189
294.4829	0.1882
294.6954	0.1958
294.9079	0.1855
295.1204	0.1965
295.3328	0.1799
295.5453	0.1843
295.7577	0.1876
295.9701	0.1833
296.1825	0.188
296.3949	0.1886
296.6073	0.184
296.8197	0.1883
297.0321	0.1796
297.2444	0.1873
297.4567	0.193
297.6691	0.1824
297.8814	0.1894
298.0937	0.1927
298.306	0.1827
298.5182	0.1809
298.7305	0.1773
298.9428	0.1848
299.155	0.1819
299.3672	0.1739
299.5794	0.1896
299.7916	0.1772
300.0038	0.1888
300.216	0.18
300.4282	0.1932
300.6403	0.2009
300.8525	0.1857
301.0646	0.1868
301.2767	0.205
301.4888	0.1848
301.7009	0.1818
301.913	0.182
302.125	0.1769
302.3371	0.1903
302.5491	0.1714
302.7612	0.18
302.9732	0.1767
303.1852	0.1789
303.3972	0.193
303.6092	0.1739
303.8211	0.182
304.0331	0.1759
304.245	0.1642
304.457	0.1737
304.6689	0.1758
304.8808	0.1679
305.0927	0.1804
305.3046	0.1626
305.5164	0.1696
305.7283	0.1717
305.9401	0.1485
306.152	0.1623
306.3638	0.1624
306.5756	0.1567
306.7874	0.1619
306.9992	0.155
307.2109	0.1484
307.4227	0.1614
307.6344	0.1601
307.8462	0.1345
308.0579	0.1484
308.2696	0.1503
308.4813	0.141
308.693	0.1542
308.9046	0.1471
309.1163	0.1395
309.328	0.1376
309.5396	0.1444
309.7512	0.1397
309.9628	0.1258
310.1744	0.1307
310.386	0.1276
310.5976	0.1319
310.8091	0.1302
311.0207	0.1251
311.2322	0.1167
311.4437	0.1185
311.6552	0.1276
311.8667	0.1178
312.0782	0.1125
312.2897	0.1081
312.5012	0.1202
312.7126	0.1231
312.924	0.1075
313.1355	0.1274
313.3469	0.116
313.5583	0.1062
313.7696	0.1159
313.981	0.1079
314.1924	0.1121
314.4037	0.1012
314.6151	0.1092
314.8264	0.1097
315.0377	0.1129
315.249	0.1074
315.4603	0.0994
315.6716	0.1074
315.8828	0.1101
316.0941	0.0936
316.3053	0.0999
316.5165	0.0987
316.7277	0.0916
316.9389	0.1076
317.1501	0.1032
317.3613	0.093
317.5724	0.1049
317.7836	0.0936
317.9947	0.102
318.2058	0.0982
318.417	0.1074
318.6281	0.1003
318.8391	0.091
319.0502	0.0953
319.2613	0.0972
319.4723	0.0965
319.6834	0.0981
319.8944	0.0963
320.1054	0.0917
320.3164	0.1035
320.5274	0.0854
320.7383	0.091
320.9493	0.0905
321.1602	0.1111
321.3712	0.0835
321.5821	0.0993
321.793	0.101
322.0039	0.0985
322.2148	0.1
322.4257	0.0937
322.6365	0.1016
322.8474	0.0955
323.0582	0.1024
323.269	0.1014
323.4798	0.112
323.6906	0.0895
323.9014	0.1007
324.1122	0.1005
324.3229	0.1021
324.5337	0.1078
324.7444	0.1017
324.9551	0.1031
325.1658	0.1154
325.3765	0.1088
325.5872	0.0953
325.7979	0.102
326.0085	0.0846
326.2192	0.0864
326.4298	0.1102
326.6404	0.1058
326.851	0.0992
327.0616	0.105
327.2722	0.0953
327.4828	0.1143
327.6933	0.0975
327.9039	0.1013
328.1144	0.1009
328.3249	0.0917
328.5354	0.0949
328.7459	0.1117
328.9564	0.1012
329.1669	0.1069
329.3773	0.1082
329.5878	0.0973
329.7982	0.094
330.0086	0.0988
330.219	0.0969
330.4294	0.1047
330.6398	0.1092
330.8502	0.1166
331.0605	0.1104
331.2708	0.0949
331.4812	0.1083
331.6915	0.0911
331.9018	0.1068
332.1121	0.1044
332.3224	0.0978
332.5326	0.1108
332.7429	0.0965
332.9531	0.096
333.1633	0.109
333.3735	0.1045
333.5837	0.1081
333.7939	0.0982
334.0041	0.1178
334.2143	0.1173
334.4244	0.117
334.6346	0.083
334.8447	0.1107
335.0548	0.1008
335.2649	0.1056
335.475	0.0981
335.685	0.1005
335.8951	0.1156
336.1051	0.105
336.3152	0.1182
336.5252	0.1076
336.7352	0.115
336.9452	0.1038
337.1552	0.1226
337.3652	0.124
337.5751	0.1146
337.7851	0.0978
337.995	0.1106
338.2049	0.105
338.4148	0.1123
338.6247	0.1087
338.8346	0.1127
339.0445	0.1098
339.2543	0.1196
339.4642	0.1151
339.674	0.1077
339.8838	0.1184
340.0936	0.1197
340.3034	0.1155
340.5132	0.1204
340.7229	0.1243
340.9327	0.1019
341.1424	0.1087
341.3522	0.1111
341.5619	0.1128
341.7716	0.1047
341.9813	0.1192
342.1909	0.1149
342.4006	0.1151
342.6102	0.109
342.8199	0.1046
343.0295	0.115
343.2391	0.1114
343.4487	0.1197
343.6583	0.1232
343.8679	0.1229
344.0774	0.1274
344.287	0.1294
344.4965	0.1217
344.706	0.1257
344.9155	0.1228
345.125	0.1168
345.3345	0.1311
345.544	0.1299
345.7534	0.1331
345.9629	0.1098
346.1723	0.12
346.3817	0.1211
346.5911	0.1296
346.8005	0.1351
347.0099	0.1256
347.2193	0.1314
347.4286	0.1359
347.638	0.1336
347.8473	0.1325
348.0566	0.1264
348.2659	0.1408
348.4752	0.1408
348.6845	0.1338
348.8937	0.1382
349.103	0.1332
349.3122	0.1278
349.5214	0.1349
349.7306	0.1349
349.9398	0.1302
350.149	0.1261
350.3582	0.1373
350.5674	0.1388
350.7765	0.1416
350.9856	0.1341
351.1948	0.1465
351.4039	0.1494
351.613	0.1373
351.822	0.1305
352.0311	0.1485
352.2402	0.1346
352.4492	0.1422
352.6582	0.1453
352.8672	0.1387
353.0762	0.1494
353.2852	0.1535
353.4942	0.1517
353.7032	0.1416
353.9121	0.1328
354.1211	0.1314
354.33	0.145
354.5389	0.1513
354.7478	0.1733
354.9567	0.1475
355.1655	0.1424
355.3744	0.1403
355.5833	0.1754
355.7921	0.1596
356.0009	0.1539
356.2097	0.1395
356.4185	0.1385
356.6273	0.1494
356.8361	0.17
357.0448	0.1419
357.2536	0.1632
357.4623	0.1763
357.671	0.1742
357.8797	0.1618
358.0884	0.1667
358.2971	0.1589
358.5057	0.1691
358.7144	0.1621
358.923	0.1669
359.1316	0.1559
359.3402	0.182
359.5488	0.1739
359.7574	0.1768
359.966	0.1755
360.1746	0.1816
360.3831	0.1583
360.5916	0.1753
360.8002	0.1874
361.0087	0.1854
361.2172	0.1741
361.4256	0.1995
361.6341	0.1704
361.8426	0.1817
362.051	0.1715
362.2594	0.2007
362.4678	0.1753
362.6762	0.1925
362.8846	0.1851
363.093	0.1808
363.3014	0.1875
363.5097	0.1775
363.718	0.1965
363.9264	0.1961
364.1347	0.1965
364.343	0.1884
364.5513	0.1998
364.7595	0.1937
364.9678	0.1942
365.176	0.2001
365.3842	0.1956
365.5925	0.1792
365.8007	0.2017
366.0089	0.2073
366.217	0.2153
366.4252	0.2104
366.6333	0.2037
366.8415	0.2048
367.0496	0.2097
367.2577	0.2166
367.4658	0.2145
367.6739	0.2223
367.882	0.2049
368.09	0.2236
368.2981	0.2065
368.5061	0.2092
368.7141	0.2085
368.9221	0.2192
369.1301	0.2073
369.3381	0.2238
369.5461	0.2301
369.754	0.2117
369.962	0.2112
370.1699	0.2128
370.3778	0.2283
370.5857	0.2218
370.7936	0.2309
371.0015	0.2203
371.2093	0.2421
371.4172	0.2219
371.625	0.2196
371.8328	0.2232
372.0406	0.222
372.2484	0.2249
372.4562	0.2408
372.664	0.2358
372.8717	0.2108
373.0795	0.2209
373.2872	0.2301
373.4949	0.2354
373.7026	0.2358
373.9103	0.2476
374.118	0.2392
374.3256	0.2421
374.5333	0.2398
374.7409	0.2071
374.9485	0.2236
375.1561	0.2434
375.3637	0.2326
375.5713	0.2415
375.7789	0.2427
375.9864	0.2475
376.194	0.2494
376.4015	0.261
376.609	0.2531
376.8165	0.2425
377.024	0.2437
377.2315	0.2287
377.4389	0.2515
377.6464	0.232
377.8538	0.2467
378.0612	0.257
378.2686	0.2505
378.476	0.2572
378.6834	0.2562
378.8908	0.2372
379.0981	0.2615
379.3055	0.2723
379.5128	0.2636
379.7201	0.2669
379.9274	0.2448
380.1347	0.2564
380.342	0.2602
380.5492	0.2775
380.7565	0.2721
380.9637	0.2598
381.1709	0.2642
381.3781	0.2669
381.5853	0.2729
381.7925	0.2773
381.9997	0.2605
382.2068	0.269
382.4139	0.2743
382.6211	0.276
382.8282	0.2448
383.0353	0.258
383.2424	0.2652
383.4494	0.2468
383.6565	0.2616
383.8635	0.2924
384.0706	0.284
384.2776	0.2763
384.4846	0.2645
384.6916	0.2749
384.8986	0.2696
385.1055	0.2546
385.3125	0.2609
385.5194	0.2592
385.7263	0.2784
385.9333	0.2655
386.1402	0.235
386.347	0.2791
386.5539	0.2597
386.7608	0.2708
386.9676	0.2668
387.1744	0.2748
387.3813	0.2803
387.5881	0.277
387.7948	0.2655
388.0016	0.2633
388.2084	0.2759
388.4151	0.2689
388.6219	0.2639
388.8286	0.2534
389.0353	0.2489
389.242	0.2488
389.4487	0.2581
389.6553	0.268
389.862	0.2653
390.0686	0.2575
390.2753	0.2762
390.4819	0.2573
390.6885	0.2674
390.8951	0.262
391.1016	0.2696
391.3082	0.2506
391.5147	0.2672
391.7213	0.2412
391.9278	0.266
392.1343	0.2452
392.3408	0.237
392.5473	0.2524
392.7537	0.2465
392.9602	0.2562
393.1666	0.2416
393.373	0.2146
393.5794	0.2327
393.7858	0.2357
393.9922	0.2607
394.1986	0.2618
394.4049	0.2479
394.6113	0.2334
394.8176	0.241
395.0239	0.2426
395.2302	0.2336
395.4365	0.2202
395.6428	0.2459
395.8491	0.2287
396.0553	0.2288
396.2615	0.245
396.4678	0.2258
396.674	0.2152
396.8802	0.2368
397.0863	0.218
397.2925	0.2286
397.4987	0.2362
397.7048	0.2258
397.9109	0.2385
398.117	0.2141
398.3231	0.2393
398.5292	0.239
398.7353	0.2397
398.9413	0.2124
399.1474	0.2227
399.3534	0.2309
399.5594	0.2309
399.7654	0.2422
399.9714	0.2264
400.1774	0.2181
400.3833	0.2322
400.5893	0.2178
400.7952	0.2364
401.0011	0.2281
401.207	0.2205
401.4129	0.2304
401.6188	0.228
401.8247	0.2251
402.0305	0.2103
402.2364	0.2369
402.4422	0.2208
402.648	0.2243
402.8538	0.2381
403.0596	0.2138
403.2654	0.2342
403.4711	0.214
403.6768	0.2211
403.8826	0.2196
404.0883	0.22
404.294	0.2273
404.4997	0.2176
404.7054	0.2311
404.911	0.2313
405.1167	0.1997
405.3223	0.2244
405.5279	0.2324
405.7335	0.2361
405.9391	0.2417
406.1447	0.2422
406.3502	0.2412
406.5558	0.2286
406.7613	0.2396
406.9668	0.2163
407.1724	0.2273
407.3778	0.2369
407.5833	0.2189
407.7888	0.2185
407.9942	0.2177
408.1997	0.2343
408.4051	0.2224
408.6105	0.2169
408.8159	0.2203
409.0213	0.221
409.2267	0.2326
409.432	0.2327
409.6374	0.2237
409.8427	0.2159
410.048	0.2421
410.2533	0.2148
410.4586	0.1934
410.6639	0.236
410.8691	0.2219
411.0744	0.2229
411.2796	0.2134
411.4848	0.2331
411.69	0.1961
411.8952	0.2152
412.1004	0.2184
412.3056	0.2424
412.5107	0.2121
412.7158	0.2075
412.921	0.2348
413.1261	0.2171
413.3312	0.2226
413.5362	0.2276
413.7413	0.2153
413.9464	0.2339
414.1514	0.228
414.3564	0.2333
414.5614	0.1907
414.7664	0.2375
414.9714	0.2266
415.1764	0.2301
415.3813	0.2057
415.5863	0.2388
415.7912	0.2121
415.9961	0.2461
416.201	0.217
416.4059	0.2039
416.6108	0.2214
416.8156	0.2295
417.0205	0.2065
417.2253	0.2272
417.4301	0.2186
417.6349	0.2231
417.8397	0.226
418.0445	0.2061
418.2492	0.2065
418.454	0.2287
418.6587	0.2277
418.8634	0.2216
419.0681	0.2381
419.2728	0.1967
419.4775	0.2228
419.6822	0.2073
419.8868	0.2152
420.0915	0.1819
420.2961	0.2095
420.5007	0.2101
420.7053	0.2047
420.9099	0.2012
421.1144	0.2266
421.319	0.2078
421.5235	0.2046
421.728	0.2188
421.9325	0.2132
422.137	0.2
422.3415	0.2018
422.546	0.202
422.7504	0.2153
422.9549	0.2088
423.1593	0.1942
423.3637	0.2058
423.5681	0.1907
423.7725	0.1931
423.9769	0.2202
424.1812	0.1982
424.3856	0.2096
424.5899	0.2004
424.7942	0.1908
424.9985	0.1918
425.2028	0.1645
425.4071	0.1791
425.6113	0.1943
425.8156	0.2026
426.0198	0.1935
426.224	0.1678
426.4282	0.1958
426.6324	0.1867
