Data from MonoPyChalIsomerACN10uM400nmA_Absorbance_12-08-46-528.txt Node
Date: Fri Jul 05 12:08:46 BST 2024
User: LASERRRRR
Spectrometer: FLMT03099
Trigger mode: 0
Integration Time (sec): 1.000000E-1
Scans to average: 1
Electric dark correction enabled: true
Nonlinearity correction enabled: false
Boxcar width: 0
XAxis mode: Wavelengths
Number of Pixels in Spectrum: 3648
>>>>>Begin Spectral Data<<<<<
179.3399	0.1118
179.5586	0.1118
179.7771	0.1118
179.9957	0.9689
180.2143	0.7033
180.4329	-0
180.6514	-0.6614
180.8699	-0.239
181.0885	1.0284
181.307	-0.2317
181.5255	-0
181.744	-0.4618
181.9625	-0.7628
182.181	0.1383
182.3994	-0
182.6179	-0.1212
182.8363	-0.3905
183.0547	0.1572
183.2732	1.1069
183.4916	0.018
183.71	0.0717
183.9284	0.0878
184.1467	0.0941
184.3651	0.0563
184.5835	0.2146
184.8018	0.0009
185.0201	0.1046
185.2385	0.3721
185.4568	0.297
185.6751	0.1764
185.8934	-0.0264
186.1117	0.3092
186.3299	-0.0133
186.5482	0.1066
186.7664	0.3353
186.9847	0.2121
187.2029	0.0268
187.4211	-0.2687
187.6393	-0.0827
187.8575	-0.0273
188.0757	0.211
188.2939	0.1496
188.512	0.014
188.7302	0.0114
188.9483	0.1152
189.1665	-0.0074
189.3846	0.1156
189.6027	-0.0088
189.8208	0.2271
190.0389	0.1991
190.257	0.0665
190.475	0.5261
190.6931	0.2849
190.9111	0.9562
191.1292	0.1523
191.3472	0.5546
191.5652	0.215
191.7832	0.6028
192.0012	1.2566
192.2192	0.346
192.4371	0.4535
192.6551	0.3183
192.873	0.4477
193.091	0.4725
193.3089	0.4577
193.5268	1.1053
193.7447	0.6484
193.9626	0.7548
194.1805	0.6622
194.3984	0.3842
194.6162	0.4304
194.8341	0.6467
195.0519	0.65
195.2697	0.6844
195.4875	0.5999
195.7054	0.5046
195.9231	0.4516
196.1409	0.6139
196.3587	0.5244
196.5765	0.6591
196.7942	0.8905
197.012	0.8123
197.2297	0.6655
197.4474	0.6912
197.6651	0.6382
197.8828	0.4636
198.1005	0.6549
198.3182	0.7828
198.5358	0.8404
198.7535	0.6674
198.9711	0.6446
199.1888	0.7922
199.4064	1.2773
199.624	0.7144
199.8416	0.7402
200.0592	1.0078
200.2767	0.6425
200.4943	0.7508
200.7119	0.8723
200.9294	0.68
201.1469	0.9184
201.3645	0.7976
201.582	0.715
201.7995	0.8705
202.017	0.9165
202.2344	0.6328
202.4519	0.8188
202.6694	1.203
202.8868	0.7807
203.1042	0.7688
203.3217	0.7936
203.5391	0.9158
203.7565	0.7568
203.9739	0.7226
204.1913	0.8432
204.4086	0.8086
204.626	0.8615
204.8433	0.9206
205.0607	0.6944
205.278	0.8958
205.4953	0.8926
205.7126	0.6265
205.9299	1.0651
206.1472	0.7405
206.3644	0.6334
206.5817	0.6859
206.7989	0.7079
207.0162	0.8242
207.2334	0.7288
207.4506	0.7096
207.6678	0.7293
207.885	0.746
208.1022	0.7594
208.3194	0.7624
208.5365	0.7233
208.7537	0.7875
208.9708	0.7174
209.1879	0.8071
209.405	0.7791
209.6222	0.8657
209.8392	0.704
210.0563	0.718
210.2734	0.732
210.4905	0.7147
210.7075	0.9258
210.9245	0.7325
211.1416	0.72
211.3586	0.7937
211.5756	0.7637
211.7926	0.69
212.0096	0.6105
212.2265	0.7189
212.4435	0.7339
212.6604	0.7637
212.8774	0.7352
213.0943	0.6837
213.3112	0.737
213.5281	0.6399
213.745	0.7406
213.9619	0.6472
214.1788	0.696
214.3956	0.735
214.6125	0.6699
214.8293	0.7424
215.0461	0.6558
215.2629	0.6647
215.4798	0.6221
215.6965	0.7039
215.9133	0.6913
216.1301	0.6215
216.3469	0.6642
216.5636	0.6922
216.7803	0.6524
216.9971	0.5925
217.2138	0.6436
217.4305	0.6473
217.6472	0.5543
217.8639	0.6355
218.0805	0.5844
218.2972	0.615
218.5138	0.6196
218.7305	0.5891
218.9471	0.5603
219.1637	0.5962
219.3803	0.5573
219.5969	0.5457
219.8135	0.5573
220.0301	0.5577
220.2466	0.5842
220.4632	0.5468
220.6797	0.5722
220.8962	0.5435
221.1127	0.5216
221.3292	0.5599
221.5457	0.6043
221.7622	0.6119
221.9787	0.53
222.1951	0.5341
222.4116	0.5487
222.628	0.5733
222.8444	0.5719
223.0608	0.542
223.2772	0.5204
223.4936	0.5658
223.71	0.5405
223.9264	0.5572
224.1427	0.5654
224.3591	0.5905
224.5754	0.5503
224.7917	0.5615
225.008	0.5914
225.2243	0.5248
225.4406	0.5773
225.6569	0.5243
225.8732	0.5951
226.0894	0.5451
226.3057	0.5908
226.5219	0.5321
226.7381	0.5903
226.9543	0.5524
227.1705	0.561
227.3867	0.5579
227.6029	0.5537
227.8191	0.5508
228.0352	0.6017
228.2513	0.5632
228.4675	0.5536
228.6836	0.602
228.8997	0.5486
229.1158	0.5359
229.3319	0.5695
229.548	0.5692
229.764	0.6172
229.9801	0.5489
230.1961	0.5798
230.4121	0.5906
230.6282	0.5784
230.8442	0.5834
231.0602	0.5721
231.2761	0.5734
231.4921	0.5683
231.7081	0.5521
231.924	0.6014
232.14	0.5904
232.3559	0.5814
232.5718	0.5557
232.7877	0.5677
233.0036	0.5668
233.2195	0.5783
233.4353	0.5611
233.6512	0.5766
233.867	0.6062
234.0829	0.5646
234.2987	0.5845
234.5145	0.5748
234.7303	0.5691
234.9461	0.583
235.1619	0.5539
235.3776	0.5513
235.5934	0.5753
235.8091	0.572
236.0249	0.5235
236.2406	0.5557
236.4563	0.5927
236.672	0.5747
236.8877	0.5579
237.1034	0.5481
237.319	0.5379
237.5347	0.5694
237.7503	0.5459
237.966	0.5182
238.1816	0.566
238.3972	0.5619
238.6128	0.5416
238.8284	0.5162
239.0439	0.5528
239.2595	0.5307
239.475	0.5106
239.6906	0.523
239.9061	0.5178
240.1216	0.5379
240.3371	0.5445
240.5526	0.5334
240.7681	0.5326
240.9836	0.5425
241.199	0.5075
241.4145	0.5052
241.6299	0.4915
241.8453	0.5015
242.0607	0.5103
242.2761	0.4829
242.4915	0.4636
242.7069	0.4647
242.9223	0.4665
243.1376	0.4425
243.353	0.4574
243.5683	0.4358
243.7836	0.4288
243.9989	0.4379
244.2142	0.4179
244.4295	0.4144
244.6448	0.401
244.86	0.3898
245.0753	0.3808
245.2905	0.3761
245.5057	0.3793
245.721	0.3662
245.9362	0.3578
246.1514	0.3422
246.3665	0.3462
246.5817	0.3405
246.7969	0.3273
247.012	0.3272
247.2271	0.3358
247.4423	0.3093
247.6574	0.3174
247.8725	0.3212
248.0876	0.305
248.3026	0.2941
248.5177	0.3079
248.7328	0.2922
248.9478	0.2889
249.1628	0.2697
249.3779	0.2588
249.5929	0.2514
249.8079	0.2572
250.0228	0.2644
250.2378	0.2638
250.4528	0.2544
250.6677	0.2414
250.8827	0.2413
251.0976	0.2329
251.3125	0.2416
251.5274	0.2425
251.7423	0.2335
251.9572	0.2443
252.172	0.2245
252.3869	0.22
252.6017	0.2296
252.8166	0.2161
253.0314	0.2127
253.2462	0.2189
253.461	0.2178
253.6758	0.198
253.8906	0.2133
254.1053	0.2114
254.3201	0.1937
254.5348	0.2124
254.7496	0.2159
254.9643	0.2081
255.179	0.2085
255.3937	0.2017
255.6083	0.2078
255.823	0.1955
256.0377	0.1938
256.2523	0.2007
256.467	0.2004
256.6816	0.1955
256.8962	0.2031
257.1108	0.2035
257.3254	0.1973
257.54	0.1869
257.7545	0.2016
257.9691	0.1909
258.1836	0.1786
258.3981	0.1835
258.6127	0.1967
258.8272	0.1929
259.0417	0.1803
259.2561	0.1793
259.4706	0.1847
259.6851	0.1947
259.8995	0.1936
260.114	0.1725
260.3284	0.1818
260.5428	0.1886
260.7572	0.1971
260.9716	0.1882
261.186	0.1869
261.4003	0.2059
261.6147	0.2001
261.829	0.1887
262.0433	0.1913
262.2577	0.1797
262.472	0.1891
262.6863	0.1994
262.9005	0.1875
263.1148	0.1751
263.3291	0.1977
263.5433	0.1882
263.7576	0.1919
263.9718	0.1926
264.186	0.1895
264.4002	0.1925
264.6144	0.1824
264.8286	0.1863
265.0427	0.1941
265.2569	0.1989
265.471	0.1752
265.6851	0.1796
265.8993	0.1997
266.1134	0.1775
266.3275	0.1818
266.5415	0.1767
266.7556	0.1862
266.9697	0.1886
267.1837	0.2037
267.3978	0.203
267.6118	0.2081
267.8258	0.2005
268.0398	0.2
268.2538	0.2078
268.4677	0.1984
268.6817	0.2071
268.8957	0.1915
269.1096	0.1839
269.3235	0.1778
269.5374	0.1979
269.7514	0.1703
269.9652	0.1827
270.1791	0.1827
270.393	0.1843
270.6068	0.1926
270.8207	0.1803
271.0345	0.1771
271.2483	0.1836
271.4622	0.186
271.676	0.1851
271.8897	0.1895
272.1035	0.1854
272.3173	0.1797
272.531	0.1749
272.7448	0.1811
272.9585	0.1802
273.1722	0.1963
273.3859	0.1833
273.5996	0.1839
273.8133	0.1795
274.0269	0.1848
274.2406	0.1889
274.4542	0.1808
274.6679	0.185
274.8815	0.1746
275.0951	0.2066
275.3087	0.1843
275.5223	0.1885
275.7358	0.1888
275.9494	0.1732
276.1629	0.1877
276.3765	0.1866
276.59	0.1851
276.8035	0.182
277.017	0.1851
277.2305	0.1925
277.444	0.1914
277.6574	0.1927
277.8709	0.1812
278.0843	0.1974
278.2978	0.1864
278.5112	0.1985
278.7246	0.1868
278.938	0.19
279.1513	0.1955
279.3647	0.1891
279.5781	0.1892
279.7914	0.1934
280.0047	0.1991
280.2181	0.1858
280.4314	0.1846
280.6447	0.2077
280.8579	0.1941
281.0712	0.1993
281.2845	0.1919
281.4977	0.2042
281.711	0.1959
281.9242	0.1842
282.1374	0.1868
282.3506	0.1826
282.5638	0.2017
282.7769	0.1912
282.9901	0.1917
283.2033	0.1859
283.4164	0.1886
283.6295	0.1807
283.8426	0.1901
284.0557	0.1847
284.2688	0.1882
284.4819	0.1813
284.695	0.1966
284.908	0.1797
285.1211	0.1982
285.3341	0.1945
285.5471	0.1809
285.7601	0.1871
285.9731	0.1951
286.1861	0.204
286.3991	0.1853
286.612	0.196
286.825	0.1872
287.0379	0.1866
287.2508	0.1836
287.4637	0.1813
287.6766	0.1779
287.8895	0.1774
288.1024	0.1702
288.3152	0.1834
288.5281	0.172
288.7409	0.186
288.9538	0.1771
289.1666	0.1722
289.3794	0.1754
289.5922	0.1756
289.8049	0.1698
290.0177	0.1802
290.2304	0.175
290.4432	0.1731
290.6559	0.1883
290.8686	0.1698
291.0813	0.1645
291.294	0.1745
291.5067	0.1858
291.7194	0.1685
291.932	0.1789
292.1447	0.186
292.3573	0.1804
292.5699	0.1767
292.7825	0.1631
292.9951	0.1886
293.2077	0.1778
293.4203	0.1765
293.6328	0.1874
293.8454	0.1636
294.0579	0.1752
294.2704	0.1748
294.4829	0.1747
294.6954	0.1741
294.9079	0.1683
295.1204	0.1822
295.3328	0.1603
295.5453	0.1693
295.7577	0.1671
295.9701	0.1672
296.1825	0.1756
296.3949	0.1636
296.6073	0.1682
296.8197	0.1645
297.0321	0.1667
297.2444	0.1677
297.4567	0.1644
297.6691	0.1595
297.8814	0.1748
298.0937	0.1696
298.306	0.1738
298.5182	0.1781
298.7305	0.1763
298.9428	0.162
299.155	0.1671
299.3672	0.1567
299.5794	0.1614
299.7916	0.1789
300.0038	0.151
300.216	0.1621
300.4282	0.1693
300.6403	0.1746
300.8525	0.1725
301.0646	0.1669
301.2767	0.1742
301.4888	0.1724
301.7009	0.1633
301.913	0.1715
302.125	0.1721
302.3371	0.1622
302.5491	0.1681
302.7612	0.1532
302.9732	0.1707
303.1852	0.171
303.3972	0.1638
303.6092	0.1643
303.8211	0.1707
304.0331	0.1587
304.245	0.1598
304.457	0.1568
304.6689	0.1595
304.8808	0.1468
305.0927	0.1604
305.3046	0.1484
305.5164	0.159
305.7283	0.155
305.9401	0.158
306.152	0.1479
306.3638	0.153
306.5756	0.1462
306.7874	0.1531
306.9992	0.1333
307.2109	0.1494
307.4227	0.1402
307.6344	0.152
307.8462	0.1351
308.0579	0.1415
308.2696	0.1483
308.4813	0.1311
308.693	0.1417
308.9046	0.1279
309.1163	0.1336
309.328	0.13
309.5396	0.1379
309.7512	0.1344
309.9628	0.1244
310.1744	0.1233
310.386	0.1173
310.5976	0.1292
310.8091	0.1226
311.0207	0.1257
311.2322	0.1234
311.4437	0.1306
311.6552	0.1232
311.8667	0.1241
312.0782	0.1313
312.2897	0.1041
312.5012	0.1244
312.7126	0.127
312.924	0.1093
313.1355	0.1249
313.3469	0.1145
313.5583	0.1147
313.7696	0.1264
313.981	0.1351
314.1924	0.1289
314.4037	0.1121
314.6151	0.1249
314.8264	0.1187
315.0377	0.1284
315.249	0.1135
315.4603	0.1133
315.6716	0.1231
315.8828	0.1171
316.0941	0.0896
316.3053	0.0976
316.5165	0.1164
316.7277	0.1017
316.9389	0.1079
317.1501	0.1044
317.3613	0.0934
317.5724	0.1182
317.7836	0.1069
317.9947	0.1138
318.2058	0.1146
318.417	0.1119
318.6281	0.1084
318.8391	0.1051
319.0502	0.1112
319.2613	0.1135
319.4723	0.1213
319.6834	0.1036
319.8944	0.1165
320.1054	0.1238
320.3164	0.1178
320.5274	0.0992
320.7383	0.1028
320.9493	0.1128
321.1602	0.1159
321.3712	0.0992
321.5821	0.1203
321.793	0.116
322.0039	0.1137
322.2148	0.1073
322.4257	0.1061
322.6365	0.1208
322.8474	0.0948
323.0582	0.1262
323.269	0.116
323.4798	0.1183
323.6906	0.1065
323.9014	0.1291
324.1122	0.1123
324.3229	0.1168
324.5337	0.117
324.7444	0.12
324.9551	0.1249
325.1658	0.1202
325.3765	0.1297
325.5872	0.109
325.7979	0.1152
326.0085	0.1036
326.2192	0.1057
326.4298	0.1359
326.6404	0.1283
326.851	0.117
327.0616	0.1142
327.2722	0.1211
327.4828	0.1192
327.6933	0.1139
327.9039	0.1117
328.1144	0.1194
328.3249	0.1092
328.5354	0.1174
328.7459	0.1199
328.9564	0.1157
329.1669	0.1231
329.3773	0.1254
329.5878	0.1132
329.7982	0.1094
330.0086	0.1227
330.219	0.1123
330.4294	0.1136
330.6398	0.1158
330.8502	0.1255
331.0605	0.1245
331.2708	0.1097
331.4812	0.1157
331.6915	0.1103
331.9018	0.1223
332.1121	0.1165
332.3224	0.1209
332.5326	0.1253
332.7429	0.123
332.9531	0.1227
333.1633	0.1281
333.3735	0.1096
333.5837	0.1163
333.7939	0.1081
334.0041	0.1266
334.2143	0.1218
334.4244	0.1231
334.6346	0.1147
334.8447	0.123
335.0548	0.1238
335.2649	0.1351
335.475	0.1241
335.685	0.1142
335.8951	0.1359
336.1051	0.1361
336.3152	0.1252
336.5252	0.1194
336.7352	0.1336
336.9452	0.1186
337.1552	0.1432
337.3652	0.1211
337.5751	0.1222
337.7851	0.1115
337.995	0.1362
338.2049	0.1313
338.4148	0.1261
338.6247	0.1165
338.8346	0.1281
339.0445	0.118
339.2543	0.1316
339.4642	0.1295
339.674	0.1274
339.8838	0.1279
340.0936	0.1303
340.3034	0.1369
340.5132	0.1401
340.7229	0.1308
340.9327	0.1302
341.1424	0.1352
341.3522	0.1292
341.5619	0.1277
341.7716	0.1441
341.9813	0.1413
342.1909	0.1337
342.4006	0.1291
342.6102	0.1284
342.8199	0.1345
343.0295	0.1372
343.2391	0.1371
343.4487	0.1317
343.6583	0.1355
343.8679	0.1419
344.0774	0.1378
344.287	0.1371
344.4965	0.1326
344.706	0.1334
344.9155	0.137
345.125	0.1308
345.3345	0.1389
345.544	0.1511
345.7534	0.1387
345.9629	0.14
346.1723	0.1344
346.3817	0.1422
346.5911	0.1456
346.8005	0.1335
347.0099	0.1335
347.2193	0.1465
347.4286	0.1432
347.638	0.1363
347.8473	0.1295
348.0566	0.126
348.2659	0.1562
348.4752	0.1416
348.6845	0.1398
348.8937	0.1396
349.103	0.1355
349.3122	0.1452
349.5214	0.1534
349.7306	0.1371
349.9398	0.1507
350.149	0.1439
350.3582	0.1463
350.5674	0.1518
350.7765	0.1376
350.9856	0.1405
351.1948	0.1514
351.4039	0.1711
351.613	0.1449
351.822	0.1449
352.0311	0.158
352.2402	0.1436
352.4492	0.1629
352.6582	0.1419
352.8672	0.1401
353.0762	0.1425
353.2852	0.1546
353.4942	0.1471
353.7032	0.1587
353.9121	0.1438
354.1211	0.1489
354.33	0.1653
354.5389	0.1529
354.7478	0.1534
354.9567	0.1587
355.1655	0.1645
355.3744	0.1477
355.5833	0.1731
355.7921	0.1557
356.0009	0.1602
356.2097	0.1517
356.4185	0.1515
356.6273	0.1582
356.8361	0.1609
357.0448	0.1464
357.2536	0.1601
357.4623	0.1576
357.671	0.165
357.8797	0.1726
358.0884	0.1522
358.2971	0.1663
358.5057	0.162
358.7144	0.1683
358.923	0.1644
359.1316	0.1532
359.3402	0.1777
359.5488	0.1697
359.7574	0.1848
359.966	0.1669
360.1746	0.1652
360.3831	0.1637
360.5916	0.1898
360.8002	0.182
361.0087	0.1852
361.2172	0.157
361.4256	0.1844
361.6341	0.1775
361.8426	0.1793
362.051	0.1689
362.2594	0.1839
362.4678	0.1685
362.6762	0.1655
362.8846	0.2015
363.093	0.1594
363.3014	0.1718
363.5097	0.1799
363.718	0.1959
363.9264	0.1716
364.1347	0.1872
364.343	0.1831
364.5513	0.1693
364.7595	0.1777
364.9678	0.2046
365.176	0.1907
365.3842	0.1796
365.5925	0.1701
365.8007	0.1937
366.0089	0.1862
366.217	0.192
366.4252	0.1889
366.6333	0.1955
366.8415	0.194
367.0496	0.1772
367.2577	0.201
367.4658	0.1893
367.6739	0.1998
367.882	0.1911
368.09	0.202
368.2981	0.1819
368.5061	0.2011
368.7141	0.1863
368.9221	0.1784
369.1301	0.1888
369.3381	0.2075
369.5461	0.1931
369.754	0.1912
369.962	0.181
370.1699	0.1821
370.3778	0.1854
370.5857	0.2105
370.7936	0.1933
371.0015	0.2041
371.2093	0.1993
371.4172	0.1938
371.625	0.2063
371.8328	0.2052
372.0406	0.2116
372.2484	0.1921
372.4562	0.208
372.664	0.2201
372.8717	0.1704
373.0795	0.1995
373.2872	0.2089
373.4949	0.1988
373.7026	0.2108
373.9103	0.2115
374.118	0.1854
374.3256	0.2015
374.5333	0.2208
374.7409	0.2038
374.9485	0.2039
375.1561	0.2065
375.3637	0.1979
375.5713	0.2183
375.7789	0.205
375.9864	0.2222
376.194	0.2143
376.4015	0.2028
376.609	0.2137
376.8165	0.2148
377.024	0.2112
377.2315	0.208
377.4389	0.2017
377.6464	0.1996
377.8538	0.1923
378.0612	0.2086
378.2686	0.2227
378.476	0.2227
378.6834	0.1979
378.8908	0.2106
379.0981	0.2127
379.3055	0.2203
379.5128	0.2195
379.7201	0.2166
379.9274	0.2214
380.1347	0.2099
380.342	0.2121
380.5492	0.217
380.7565	0.2239
380.9637	0.2102
381.1709	0.216
381.3781	0.2161
381.5853	0.2404
381.7925	0.2154
381.9997	0.2061
382.2068	0.2131
382.4139	0.2219
382.6211	0.222
382.8282	0.2135
383.0353	0.2035
383.2424	0.2206
383.4494	0.2213
383.6565	0.2257
383.8635	0.2228
384.0706	0.2361
384.2776	0.2175
384.4846	0.1997
384.6916	0.2353
384.8986	0.22
385.1055	0.2073
385.3125	0.2217
385.5194	0.207
385.7263	0.2281
385.9333	0.2236
386.1402	0.2087
386.347	0.2334
386.5539	0.2332
386.7608	0.2078
386.9676	0.2026
387.1744	0.2266
387.3813	0.2281
387.5881	0.2126
387.7948	0.2174
388.0016	0.2195
388.2084	0.2175
388.4151	0.2212
388.6219	0.2194
388.8286	0.2225
389.0353	0.2019
389.242	0.2123
389.4487	0.2272
389.6553	0.211
389.862	0.2123
390.0686	0.2276
390.2753	0.2187
390.4819	0.1982
390.6885	0.2035
390.8951	0.1968
391.1016	0.214
391.3082	0.2119
391.5147	0.2015
391.7213	0.193
391.9278	0.1889
392.1343	0.183
392.3408	0.208
392.5473	0.2018
392.7537	0.2034
392.9602	0.2014
393.1666	0.2031
393.373	0.168
393.5794	0.177
393.7858	0.186
393.9922	0.1983
394.1986	0.2054
394.4049	0.1924
394.6113	0.1859
394.8176	0.1816
395.0239	0.1991
395.2302	0.1698
395.4365	0.1794
395.6428	0.1921
395.8491	0.1888
396.0553	0.1957
396.2615	0.1929
396.4678	0.1852
396.674	0.1819
396.8802	0.1732
397.0863	0.1722
397.2925	0.1838
397.4987	0.184
397.7048	0.1873
397.9109	0.19
398.117	0.1778
398.3231	0.1908
398.5292	0.1861
398.7353	0.1867
398.9413	0.1723
399.1474	0.1652
399.3534	0.158
399.5594	0.1922
399.7654	0.1805
399.9714	0.1631
400.1774	0.1702
400.3833	0.1755
400.5893	0.162
400.7952	0.1907
401.0011	0.1944
401.207	0.1616
401.4129	0.1852
401.6188	0.1735
401.8247	0.1864
402.0305	0.1796
402.2364	0.1925
402.4422	0.182
402.648	0.1763
402.8538	0.1765
403.0596	0.1752
403.2654	0.1785
403.4711	0.174
403.6768	0.1667
403.8826	0.1694
404.0883	0.1637
404.294	0.1863
404.4997	0.1535
404.7054	0.1583
404.911	0.1765
405.1167	0.167
405.3223	0.1662
405.5279	0.169
405.7335	0.1851
405.9391	0.1664
406.1447	0.1864
406.3502	0.1525
406.5558	0.1903
406.7613	0.1914
406.9668	0.165
407.1724	0.1765
407.3778	0.1895
407.5833	0.1787
407.7888	0.1786
407.9942	0.1738
408.1997	0.1695
408.4051	0.1758
408.6105	0.1632
408.8159	0.1844
409.0213	0.1749
409.2267	0.1913
409.432	0.1873
409.6374	0.1745
409.8427	0.1624
410.048	0.176
410.2533	0.184
410.4586	0.1523
410.6639	0.1741
410.8691	0.1706
411.0744	0.1669
411.2796	0.1685
411.4848	0.1817
411.69	0.1618
411.8952	0.1863
412.1004	0.1572
412.3056	0.1726
412.5107	0.1691
412.7158	0.1634
412.921	0.164
413.1261	0.1731
413.3312	0.1679
413.5362	0.176
413.7413	0.1541
413.9464	0.174
414.1514	0.1704
414.3564	0.151
414.5614	0.1455
414.7664	0.1626
414.9714	0.1581
415.1764	0.1712
415.3813	0.1558
415.5863	0.1436
415.7912	0.1644
415.9961	0.1822
416.201	0.1707
416.4059	0.1684
416.6108	0.1685
416.8156	0.1551
417.0205	0.1596
417.2253	0.1723
417.4301	0.1496
417.6349	0.1793
417.8397	0.1566
418.0445	0.1381
418.2492	0.1533
418.454	0.1573
418.6587	0.169
418.8634	0.1643
419.0681	0.174
419.2728	0.1594
419.4775	0.1798
419.6822	0.1613
419.8868	0.1676
420.0915	0.162
420.2961	0.1541
420.5007	0.15
420.7053	0.1664
420.9099	0.1488
421.1144	0.1747
421.319	0.1484
421.5235	0.1779
421.728	0.1525
421.9325	0.1529
422.137	0.1543
422.3415	0.1401
422.546	0.1449
422.7504	0.1584
422.9549	0.1574
423.1593	0.1391
423.3637	0.163
423.5681	0.148
423.7725	0.13
423.9769	0.1552
424.1812	0.1472
424.3856	0.1605
424.5899	0.1629
424.7942	0.1374
424.9985	0.1698
425.2028	0.1326
425.4071	0.1501
425.6113	0.1494
425.8156	0.1532
426.0198	0.1394
426.224	0.1282
426.4282	0.1454
