Data from MonoPyChalIsomerACN10uM360nmA_Absorbance_13-57-29-804.txt Node
Date: Fri Jul 05 13:57:29 BST 2024
User: LASERRRRR
Spectrometer: FLMT03099
Trigger mode: 0
Integration Time (sec): 1.000000E-1
Scans to average: 1
Electric dark correction enabled: true
Nonlinearity correction enabled: false
Boxcar width: 0
XAxis mode: Wavelengths
Number of Pixels in Spectrum: 3648
>>>>>Begin Spectral Data<<<<<
179.3399	-0.1471
179.5586	-0.1471
179.7771	-0.1471
179.9957	0.5582
180.2143	-0
180.4329	-0
180.6514	-0
180.8699	-0
181.0885	0.3866
181.307	0.0245
181.5255	-0
181.744	-0.1761
181.9625	-0
182.181	-0
182.3994	0.9495
182.6179	-0
182.8363	-0
183.0547	0.1479
183.2732	-0.0332
183.4916	0.2304
183.71	0.0881
183.9284	0.1572
184.1467	-0.0031
184.3651	-0.0806
184.5835	0.0448
184.8018	0.1278
185.0201	-0.0076
185.2385	-0.1407
185.4568	0.3544
185.6751	0.4825
185.8934	0.5953
186.1117	0.2093
186.3299	0.169
186.5482	0.0155
186.7664	0.0317
186.9847	-0.0736
187.2029	0.1343
187.4211	0.0077
187.6393	0.0902
187.8575	-0.0638
188.0757	0.2433
188.2939	0.0804
188.512	0.0928
188.7302	-0.0034
188.9483	0.0091
189.1665	0.1762
189.3846	-0.1172
189.6027	0.178
189.8208	0.085
190.0389	0.0847
190.257	0.2419
190.475	0.4607
190.6931	0.2483
190.9111	0.2915
191.1292	0.1509
191.3472	0.5965
191.5652	0.4605
191.7832	0.3246
192.0012	0.6267
192.2192	0.2381
192.4371	0.6447
192.6551	0.328
192.873	0.4935
193.091	0.4171
193.3089	1.2764
193.5268	0.9913
193.7447	0.4935
193.9626	0.4996
194.1805	0.5272
194.3984	1.2484
194.6162	0.5907
194.8341	0.477
195.0519	0.6683
195.2697	0.6699
195.4875	0.5507
195.7054	0.5457
195.9231	0.5716
196.1409	0.5053
196.3587	0.6545
196.5765	0.641
196.7942	0.5721
197.012	0.6325
197.2297	0.6635
197.4474	0.8279
197.6651	0.5968
197.8828	0.5153
198.1005	0.595
198.3182	0.6265
198.5358	0.703
198.7535	0.5592
198.9711	0.5777
199.1888	0.6421
199.4064	0.8697
199.624	0.6575
199.8416	0.5517
200.0592	0.6964
200.2767	0.7685
200.4943	0.6448
200.7119	0.7716
200.9294	0.7462
201.1469	0.5699
201.3645	0.6205
201.582	0.5941
201.7995	0.745
202.017	0.6378
202.2344	0.7062
202.4519	0.7148
202.6694	0.7155
202.8868	0.5832
203.1042	0.6947
203.3217	0.7095
203.5391	0.6128
203.7565	0.6511
203.9739	0.7041
204.1913	0.5807
204.4086	0.6735
204.626	0.6868
204.8433	0.6923
205.0607	0.6265
205.278	0.6684
205.4953	0.6162
205.7126	0.6543
205.9299	0.8751
206.1472	0.854
206.3644	0.6628
206.5817	0.8074
206.7989	0.6843
207.0162	0.6382
207.2334	0.7331
207.4506	0.6633
207.6678	0.5853
207.885	0.6687
208.1022	0.6671
208.3194	0.5889
208.5365	0.7175
208.7537	0.6496
208.9708	0.5846
209.1879	0.6472
209.405	0.6685
209.6222	0.7131
209.8392	0.576
210.0563	0.5905
210.2734	0.6402
210.4905	0.7463
210.7075	0.6056
210.9245	0.6085
211.1416	0.6945
211.3586	0.5636
211.5756	0.6021
211.7926	0.5862
212.0096	0.5788
212.2265	0.5519
212.4435	0.5814
212.6604	0.5343
212.8774	0.5555
213.0943	0.6113
213.3112	0.5522
213.5281	0.5184
213.745	0.5169
213.9619	0.5163
214.1788	0.4749
214.3956	0.4731
214.6125	0.4803
214.8293	0.4488
215.0461	0.5027
215.2629	0.4436
215.4798	0.4723
215.6965	0.4058
215.9133	0.4417
216.1301	0.4079
216.3469	0.4215
216.5636	0.4164
216.7803	0.3824
216.9971	0.4109
217.2138	0.3959
217.4305	0.3775
217.6472	0.3574
217.8639	0.4031
218.0805	0.361
218.2972	0.3614
218.5138	0.3432
218.7305	0.3173
218.9471	0.3035
219.1637	0.2934
219.3803	0.2843
219.5969	0.307
219.8135	0.2585
220.0301	0.2946
220.2466	0.2762
220.4632	0.2724
220.6797	0.241
220.8962	0.2654
221.1127	0.2671
221.3292	0.2662
221.5457	0.2563
221.7622	0.2538
221.9787	0.2587
222.1951	0.2506
222.4116	0.2799
222.628	0.2513
222.8444	0.2541
223.0608	0.2595
223.2772	0.2523
223.4936	0.2753
223.71	0.2611
223.9264	0.2766
224.1427	0.2607
224.3591	0.2623
224.5754	0.2691
224.7917	0.25
225.008	0.2798
225.2243	0.2515
225.4406	0.2896
225.6569	0.2738
225.8732	0.2699
226.0894	0.2678
226.3057	0.2673
226.5219	0.2923
226.7381	0.2549
226.9543	0.2695
227.1705	0.3016
227.3867	0.285
227.6029	0.3064
227.8191	0.3027
228.0352	0.3137
228.2513	0.3023
228.4675	0.3032
228.6836	0.2923
228.8997	0.3093
229.1158	0.3119
229.3319	0.3243
229.548	0.3172
229.764	0.3369
229.9801	0.3204
230.1961	0.3321
230.4121	0.3472
230.6282	0.3535
230.8442	0.3242
231.0602	0.3512
231.2761	0.3378
231.4921	0.3382
231.7081	0.3586
231.924	0.3537
232.14	0.3606
232.3559	0.3461
232.5718	0.3923
232.7877	0.3502
233.0036	0.3407
233.2195	0.3664
233.4353	0.3763
233.6512	0.3816
233.867	0.3764
234.0829	0.368
234.2987	0.3624
234.5145	0.3611
234.7303	0.3662
234.9461	0.3817
235.1619	0.3722
235.3776	0.3859
235.5934	0.3973
235.8091	0.3752
236.0249	0.3892
236.2406	0.3812
236.4563	0.3775
236.672	0.4022
236.8877	0.4073
237.1034	0.4105
237.319	0.3881
237.5347	0.4222
237.7503	0.4015
237.966	0.4065
238.1816	0.4059
238.3972	0.4091
238.6128	0.3859
238.8284	0.4122
239.0439	0.4072
239.2595	0.3951
239.475	0.4134
239.6906	0.412
239.9061	0.4166
240.1216	0.4007
240.3371	0.4144
240.5526	0.405
240.7681	0.4251
240.9836	0.4008
241.199	0.4057
241.4145	0.396
241.6299	0.3829
241.8453	0.3901
242.0607	0.3979
242.2761	0.3602
242.4915	0.3712
242.7069	0.3762
242.9223	0.3739
243.1376	0.3339
243.353	0.3579
243.5683	0.3583
243.7836	0.3303
243.9989	0.3343
244.2142	0.3065
244.4295	0.3332
244.6448	0.3317
244.86	0.304
245.0753	0.3048
245.2905	0.3019
245.5057	0.2772
245.721	0.2752
245.9362	0.272
246.1514	0.2657
246.3665	0.2706
246.5817	0.2577
246.7969	0.2625
247.012	0.2508
247.2271	0.2592
247.4423	0.25
247.6574	0.2446
247.8725	0.2345
248.0876	0.2222
248.3026	0.2301
248.5177	0.2364
248.7328	0.2095
248.9478	0.2141
249.1628	0.2145
249.3779	0.2282
249.5929	0.2102
249.8079	0.2051
250.0228	0.2086
250.2378	0.2049
250.4528	0.2019
250.6677	0.1929
250.8827	0.1972
251.0976	0.1981
251.3125	0.2013
251.5274	0.1646
251.7423	0.1835
251.9572	0.186
252.172	0.1888
252.3869	0.1899
252.6017	0.1903
252.8166	0.1623
253.0314	0.1708
253.2462	0.1692
253.461	0.181
253.6758	0.1686
253.8906	0.173
254.1053	0.1686
254.3201	0.1636
254.5348	0.1758
254.7496	0.183
254.9643	0.1782
255.179	0.1823
255.3937	0.1717
255.6083	0.1701
255.823	0.1894
256.0377	0.1692
256.2523	0.1738
256.467	0.1538
256.6816	0.175
256.8962	0.1684
257.1108	0.1579
257.3254	0.1679
257.54	0.1611
257.7545	0.1614
257.9691	0.1656
258.1836	0.1691
258.3981	0.179
258.6127	0.179
258.8272	0.1687
259.0417	0.1617
259.2561	0.1688
259.4706	0.1602
259.6851	0.1639
259.8995	0.1651
260.114	0.1791
260.3284	0.1628
260.5428	0.1586
260.7572	0.167
260.9716	0.1632
261.186	0.1669
261.4003	0.1568
261.6147	0.1719
261.829	0.1716
262.0433	0.163
262.2577	0.1659
262.472	0.1683
262.6863	0.1635
262.9005	0.1633
263.1148	0.1606
263.3291	0.1459
263.5433	0.1632
263.7576	0.1572
263.9718	0.1648
264.186	0.1633
264.4002	0.1547
264.6144	0.1587
264.8286	0.1811
265.0427	0.1571
265.2569	0.1569
265.471	0.152
265.6851	0.1616
265.8993	0.1585
266.1134	0.1659
266.3275	0.1687
266.5415	0.1588
266.7556	0.1767
266.9697	0.1658
267.1837	0.1649
267.3978	0.1726
267.6118	0.1781
267.8258	0.1746
268.0398	0.155
268.2538	0.1671
268.4677	0.1769
268.6817	0.1612
268.8957	0.1626
269.1096	0.151
269.3235	0.1705
269.5374	0.1691
269.7514	0.1478
269.9652	0.1525
270.1791	0.1446
270.393	0.1459
270.6068	0.1631
270.8207	0.1364
271.0345	0.1382
271.2483	0.1687
271.4622	0.1459
271.676	0.1538
271.8897	0.1466
272.1035	0.1537
272.3173	0.1497
272.531	0.1514
272.7448	0.1514
272.9585	0.1426
273.1722	0.1517
273.3859	0.1543
273.5996	0.1413
273.8133	0.1468
274.0269	0.1402
274.2406	0.1444
274.4542	0.1466
274.6679	0.1385
274.8815	0.1488
275.0951	0.156
275.3087	0.1543
275.5223	0.1544
275.7358	0.1459
275.9494	0.1558
276.1629	0.1382
276.3765	0.1579
276.59	0.1578
276.8035	0.168
277.017	0.1496
277.2305	0.1508
277.444	0.1577
277.6574	0.1494
277.8709	0.1487
278.0843	0.1379
278.2978	0.1459
278.5112	0.152
278.7246	0.1528
278.938	0.1532
279.1513	0.1501
279.3647	0.1622
279.5781	0.1513
279.7914	0.1471
280.0047	0.1654
280.2181	0.1561
280.4314	0.1542
280.6447	0.1632
280.8579	0.1501
281.0712	0.1684
281.2845	0.1529
281.4977	0.16
281.711	0.1492
281.9242	0.1602
282.1374	0.1734
282.3506	0.1496
282.5638	0.1621
282.7769	0.146
282.9901	0.1558
283.2033	0.1659
283.4164	0.1576
283.6295	0.1612
283.8426	0.153
284.0557	0.1487
284.2688	0.1643
284.4819	0.1727
284.695	0.1727
284.908	0.1577
285.1211	0.1524
285.3341	0.1561
285.5471	0.1679
285.7601	0.1527
285.9731	0.1536
286.1861	0.1539
286.3991	0.1716
286.612	0.1773
286.825	0.1679
287.0379	0.1746
287.2508	0.1612
287.4637	0.1697
287.6766	0.1582
287.8895	0.1672
288.1024	0.1843
288.3152	0.1691
288.5281	0.1456
288.7409	0.1657
288.9538	0.1651
289.1666	0.1572
289.3794	0.1632
289.5922	0.1574
289.8049	0.155
290.0177	0.1721
290.2304	0.1724
290.4432	0.1638
290.6559	0.1674
290.8686	0.1605
291.0813	0.1563
291.294	0.1595
291.5067	0.1781
291.7194	0.1661
291.932	0.1754
292.1447	0.166
292.3573	0.1498
292.5699	0.1621
292.7825	0.1667
292.9951	0.1622
293.2077	0.1741
293.4203	0.1639
293.6328	0.1538
293.8454	0.1657
294.0579	0.1658
294.2704	0.1542
294.4829	0.1586
294.6954	0.178
294.9079	0.1627
295.1204	0.1583
295.3328	0.1706
295.5453	0.1566
295.7577	0.1662
295.9701	0.1588
296.1825	0.1716
296.3949	0.1503
296.6073	0.1691
296.8197	0.1517
297.0321	0.1744
297.2444	0.1506
297.4567	0.1602
297.6691	0.1594
297.8814	0.1581
298.0937	0.1542
298.306	0.1666
298.5182	0.1715
298.7305	0.1592
298.9428	0.1668
299.155	0.1711
299.3672	0.1605
299.5794	0.1586
299.7916	0.1672
300.0038	0.1634
300.216	0.1623
300.4282	0.1651
300.6403	0.161
300.8525	0.1643
301.0646	0.157
301.2767	0.1653
301.4888	0.1539
301.7009	0.1714
301.913	0.1568
302.125	0.1644
302.3371	0.1505
302.5491	0.1598
302.7612	0.1628
302.9732	0.1683
303.1852	0.1656
303.3972	0.1643
303.6092	0.1548
303.8211	0.1483
304.0331	0.1496
304.245	0.1397
304.457	0.1418
304.6689	0.1517
304.8808	0.1562
305.0927	0.1442
305.3046	0.1601
305.5164	0.1547
305.7283	0.1443
305.9401	0.1541
306.152	0.1449
306.3638	0.1516
306.5756	0.1417
306.7874	0.1569
306.9992	0.1457
307.2109	0.13
307.4227	0.1336
307.6344	0.1437
307.8462	0.1399
308.0579	0.137
308.2696	0.1439
308.4813	0.1225
308.693	0.1377
308.9046	0.1293
309.1163	0.1248
309.328	0.1317
309.5396	0.1226
309.7512	0.1225
309.9628	0.1184
310.1744	0.1249
310.386	0.118
310.5976	0.124
310.8091	0.1204
311.0207	0.1221
311.2322	0.1277
311.4437	0.1219
311.6552	0.1187
311.8667	0.107
312.0782	0.0885
312.2897	0.1076
312.5012	0.1154
312.7126	0.1088
312.924	0.0977
313.1355	0.1119
313.3469	0.1067
313.5583	0.1116
313.7696	0.1129
313.981	0.1102
314.1924	0.0995
314.4037	0.1079
314.6151	0.113
314.8264	0.1073
315.0377	0.105
315.249	0.1065
315.4603	0.1047
315.6716	0.1121
315.8828	0.0959
316.0941	0.0899
316.3053	0.0881
316.5165	0.0934
316.7277	0.0899
316.9389	0.099
317.1501	0.0974
317.3613	0.1054
317.5724	0.0978
317.7836	0.0989
317.9947	0.1077
318.2058	0.1011
318.417	0.0924
318.6281	0.0874
318.8391	0.1003
319.0502	0.0993
319.2613	0.1026
319.4723	0.1162
319.6834	0.1023
319.8944	0.0947
320.1054	0.103
320.3164	0.1026
320.5274	0.0938
320.7383	0.0998
320.9493	0.0983
321.1602	0.1064
321.3712	0.0878
321.5821	0.098
321.793	0.0953
322.0039	0.0945
322.2148	0.0991
322.4257	0.1052
322.6365	0.111
322.8474	0.1123
323.0582	0.1036
323.269	0.0969
323.4798	0.1081
323.6906	0.0981
323.9014	0.1023
324.1122	0.1129
324.3229	0.0988
324.5337	0.1051
324.7444	0.096
324.9551	0.1142
325.1658	0.1096
325.3765	0.109
325.5872	0.107
325.7979	0.1053
326.0085	0.104
326.2192	0.1153
326.4298	0.1045
326.6404	0.0986
326.851	0.1077
327.0616	0.0895
327.2722	0.1108
327.4828	0.1192
327.6933	0.0999
327.9039	0.1252
328.1144	0.115
328.3249	0.1149
328.5354	0.1016
328.7459	0.1048
328.9564	0.1082
329.1669	0.1069
329.3773	0.1027
329.5878	0.1098
329.7982	0.1203
330.0086	0.11
330.219	0.1159
330.4294	0.1024
330.6398	0.1138
330.8502	0.0961
331.0605	0.1074
331.2708	0.1129
331.4812	0.1185
331.6915	0.1105
331.9018	0.1033
332.1121	0.1096
332.3224	0.1127
332.5326	0.1162
332.7429	0.1137
332.9531	0.1129
333.1633	0.1081
333.3735	0.1093
333.5837	0.0945
333.7939	0.1114
334.0041	0.1235
334.2143	0.1161
334.4244	0.1083
334.6346	0.0928
334.8447	0.1163
335.0548	0.1073
335.2649	0.0943
335.475	0.1298
335.685	0.1004
335.8951	0.1185
336.1051	0.1029
336.3152	0.1141
336.5252	0.1168
336.7352	0.1246
336.9452	0.1092
337.1552	0.1124
337.3652	0.1086
337.5751	0.1088
337.7851	0.1173
337.995	0.0951
338.2049	0.1107
338.4148	0.1145
338.6247	0.1212
338.8346	0.1056
339.0445	0.1054
339.2543	0.1117
339.4642	0.1154
339.674	0.1128
339.8838	0.11
340.0936	0.1201
340.3034	0.1278
340.5132	0.1305
340.7229	0.1289
340.9327	0.1075
341.1424	0.1088
341.3522	0.1267
341.5619	0.1198
341.7716	0.126
341.9813	0.1351
342.1909	0.123
342.4006	0.1348
342.6102	0.1217
342.8199	0.1282
343.0295	0.1312
343.2391	0.1209
343.4487	0.1411
343.6583	0.1213
343.8679	0.1299
344.0774	0.1131
344.287	0.1414
344.4965	0.1242
344.706	0.1328
344.9155	0.1175
345.125	0.1232
345.3345	0.1272
345.544	0.1132
345.7534	0.1318
345.9629	0.128
346.1723	0.1313
346.3817	0.1217
346.5911	0.1238
346.8005	0.1241
347.0099	0.1371
347.2193	0.1348
347.4286	0.1304
347.638	0.1435
347.8473	0.1391
348.0566	0.1378
348.2659	0.1326
348.4752	0.1243
348.6845	0.1316
348.8937	0.1424
349.103	0.1442
349.3122	0.1331
349.5214	0.1213
349.7306	0.1465
349.9398	0.1374
350.149	0.14
350.3582	0.1326
350.5674	0.1526
350.7765	0.1451
350.9856	0.1468
351.1948	0.1421
351.4039	0.1293
351.613	0.142
351.822	0.1583
352.0311	0.148
352.2402	0.1406
352.4492	0.1568
352.6582	0.1537
352.8672	0.1531
353.0762	0.1524
353.2852	0.1487
353.4942	0.1448
353.7032	0.1505
353.9121	0.1459
354.1211	0.1555
354.33	0.1497
354.5389	0.1534
354.7478	0.1486
354.9567	0.1408
355.1655	0.1331
355.3744	0.1564
355.5833	0.1533
355.7921	0.164
356.0009	0.154
356.2097	0.1813
356.4185	0.1649
356.6273	0.1713
356.8361	0.1606
357.0448	0.1515
357.2536	0.1503
357.4623	0.1597
357.671	0.1729
357.8797	0.1489
358.0884	0.1627
358.2971	0.1645
358.5057	0.1686
358.7144	0.1578
358.923	0.1686
359.1316	0.1683
359.3402	0.164
359.5488	0.1657
359.7574	0.159
359.966	0.171
360.1746	0.175
360.3831	0.1864
360.5916	0.1552
360.8002	0.1479
361.0087	0.181
361.2172	0.1871
361.4256	0.1782
361.6341	0.1745
361.8426	0.186
362.051	0.1696
362.2594	0.1752
362.4678	0.1807
362.6762	0.1975
362.8846	0.185
363.093	0.1934
363.3014	0.1713
363.5097	0.1629
363.718	0.1906
363.9264	0.1938
364.1347	0.1708
364.343	0.1915
364.5513	0.1954
364.7595	0.201
364.9678	0.2011
365.176	0.1865
365.3842	0.1916
365.5925	0.2004
365.8007	0.1754
366.0089	0.2006
366.217	0.1826
366.4252	0.2006
366.6333	0.2024
366.8415	0.1943
367.0496	0.1941
367.2577	0.2115
367.4658	0.2092
367.6739	0.1986
367.882	0.2078
368.09	0.1848
368.2981	0.2069
368.5061	0.1938
368.7141	0.2009
368.9221	0.203
369.1301	0.2149
369.3381	0.214
369.5461	0.2089
369.754	0.2088
369.962	0.2225
370.1699	0.2184
370.3778	0.2137
370.5857	0.212
370.7936	0.2184
371.0015	0.2188
371.2093	0.2251
371.4172	0.2115
371.625	0.2108
371.8328	0.2168
372.0406	0.208
372.2484	0.2215
372.4562	0.2196
372.664	0.2267
372.8717	0.2243
373.0795	0.2087
373.2872	0.2114
373.4949	0.2191
373.7026	0.2176
373.9103	0.2332
374.118	0.22
374.3256	0.2354
374.5333	0.2221
374.7409	0.2179
374.9485	0.2298
375.1561	0.2301
375.3637	0.2434
375.5713	0.2208
375.7789	0.2189
375.9864	0.2207
376.194	0.2196
376.4015	0.2537
376.609	0.259
376.8165	0.2301
377.024	0.2365
377.2315	0.2206
377.4389	0.2303
377.6464	0.2322
377.8538	0.2285
378.0612	0.2317
378.2686	0.2378
378.476	0.249
378.6834	0.2414
378.8908	0.243
379.0981	0.2278
379.3055	0.2395
379.5128	0.2262
379.7201	0.2468
379.9274	0.2241
380.1347	0.2363
380.342	0.2593
380.5492	0.2321
380.7565	0.233
380.9637	0.2533
381.1709	0.2398
381.3781	0.2427
381.5853	0.2498
381.7925	0.2565
381.9997	0.2635
382.2068	0.2496
382.4139	0.2504
382.6211	0.243
382.8282	0.2389
383.0353	0.2392
383.2424	0.2469
383.4494	0.2557
383.6565	0.2504
383.8635	0.24
384.0706	0.2568
384.2776	0.2676
384.4846	0.2415
384.6916	0.2515
384.8986	0.2556
385.1055	0.2355
385.3125	0.2389
385.5194	0.2415
385.7263	0.264
385.9333	0.2522
386.1402	0.2449
386.347	0.2417
386.5539	0.2285
386.7608	0.2583
386.9676	0.2348
387.1744	0.2523
387.3813	0.2349
387.5881	0.239
387.7948	0.2571
388.0016	0.234
388.2084	0.2417
388.4151	0.2356
388.6219	0.2498
388.8286	0.2422
389.0353	0.2487
389.242	0.2652
389.4487	0.2442
389.6553	0.2408
389.862	0.1997
390.0686	0.241
390.2753	0.2644
390.4819	0.2525
390.6885	0.2133
390.8951	0.2204
391.1016	0.2406
391.3082	0.236
391.5147	0.2367
391.7213	0.2312
391.9278	0.2263
392.1343	0.2404
392.3408	0.227
392.5473	0.2146
392.7537	0.2076
392.9602	0.2323
393.1666	0.2291
393.373	0.219
393.5794	0.2311
393.7858	0.2171
393.9922	0.205
394.1986	0.229
394.4049	0.2119
394.6113	0.2111
394.8176	0.202
395.0239	0.2242
395.2302	0.2123
395.4365	0.219
395.6428	0.2087
395.8491	0.2075
396.0553	0.2144
396.2615	0.193
396.4678	0.2039
396.674	0.2038
396.8802	0.2131
397.0863	0.2142
397.2925	0.1958
397.4987	0.2168
397.7048	0.2034
397.9109	0.2117
398.117	0.2077
398.3231	0.1929
398.5292	0.2076
398.7353	0.2191
398.9413	0.2043
399.1474	0.2068
399.3534	0.1955
399.5594	0.2013
399.7654	0.2211
399.9714	0.2195
400.1774	0.1969
400.3833	0.2053
400.5893	0.2146
400.7952	0.2098
401.0011	0.2046
401.207	0.2144
401.4129	0.2284
401.6188	0.2063
401.8247	0.2191
402.0305	0.188
402.2364	0.1989
402.4422	0.2228
402.648	0.2252
402.8538	0.221
403.0596	0.2018
403.2654	0.2268
403.4711	0.1915
403.6768	0.2153
403.8826	0.2146
404.0883	0.2114
404.294	0.2008
404.4997	0.2119
404.7054	0.1954
404.911	0.1902
405.1167	0.1981
405.3223	0.215
405.5279	0.2107
405.7335	0.2223
405.9391	0.2166
406.1447	0.1797
406.3502	0.2181
406.5558	0.1879
406.7613	0.2284
406.9668	0.2083
407.1724	0.1875
407.3778	0.1993
407.5833	0.2044
407.7888	0.1899
407.9942	0.2213
408.1997	0.1926
408.4051	0.1957
408.6105	0.2021
408.8159	0.1878
409.0213	0.1921
409.2267	0.2059
409.432	0.1924
409.6374	0.2324
409.8427	0.1992
410.048	0.2022
410.2533	0.2014
410.4586	0.2017
410.6639	0.1904
410.8691	0.207
411.0744	0.1867
411.2796	0.1974
411.4848	0.2022
411.69	0.1885
411.8952	0.2281
412.1004	0.2014
412.3056	0.204
412.5107	0.1801
412.7158	0.2177
412.921	0.1947
413.1261	0.2078
413.3312	0.1881
413.5362	0.1897
413.7413	0.2097
413.9464	0.2036
414.1514	0.1895
414.3564	0.1803
414.5614	0.1934
414.7664	0.1947
414.9714	0.2025
415.1764	0.2161
415.3813	0.228
415.5863	0.2028
415.7912	0.1927
415.9961	0.1881
416.201	0.189
416.4059	0.2059
416.6108	0.186
416.8156	0.1898
417.0205	0.2151
417.2253	0.1827
417.4301	0.1878
417.6349	0.1792
417.8397	0.1878
418.0445	0.1948
418.2492	0.203
418.454	0.1973
418.6587	0.199
418.8634	0.2049
419.0681	0.1655
419.2728	0.1783
419.4775	0.1976
419.6822	0.1927
419.8868	0.1684
420.0915	0.2007
420.2961	0.1848
420.5007	0.1897
420.7053	0.177
420.9099	0.1827
421.1144	0.1809
421.319	0.1899
421.5235	0.1908
421.728	0.1958
421.9325	0.1764
422.137	0.198
422.3415	0.1842
422.546	0.1959
422.7504	0.1712
422.9549	0.18
423.1593	0.1933
423.3637	0.1869
423.5681	0.177
423.7725	0.171
423.9769	0.181
424.1812	0.1631
424.3856	0.1615
424.5899	0.1833
424.7942	0.1736
424.9985	0.1812
425.2028	0.1526
425.4071	0.1879
425.6113	0.1371
425.8156	0.168
426.0198	0.1675
426.224	0.1526
426.4282	0.1633
426.6324	0.169
426.8366	0.1597
