Data from MonoPyChalIsomerACN10uM360nmA_Absorbance_13-57-27-104.txt Node
Date: Fri Jul 05 13:57:27 BST 2024
User: LASERRRRR
Spectrometer: FLMT03099
Trigger mode: 0
Integration Time (sec): 1.000000E-1
Scans to average: 1
Electric dark correction enabled: true
Nonlinearity correction enabled: false
Boxcar width: 0
XAxis mode: Wavelengths
Number of Pixels in Spectrum: 3648
>>>>>Begin Spectral Data<<<<<
179.3399	-0.4209
179.5586	-0.4209
179.7771	-0.4209
179.9957	-0.0449
180.2143	-0
180.4329	-0.2318
180.6514	0.6075
180.8699	-0
181.0885	0.8637
181.307	0.5652
181.5255	-0
181.744	-0
181.9625	-0
182.181	-0
182.3994	-0
182.6179	-0.3696
182.8363	-0
183.0547	-0.242
183.2732	-0.0728
183.4916	0.16
183.71	-0.0293
183.9284	0.1884
184.1467	-0.1488
184.3651	-0.1227
184.5835	-0.0295
184.8018	-0.0421
185.0201	-0.0317
185.2385	-0.0187
185.4568	0.6044
185.6751	0.2334
185.8934	0.6723
186.1117	0.1361
186.3299	-0.0135
186.5482	0.1555
186.7664	-0.1154
186.9847	-0.0894
187.2029	0.1162
187.4211	0.1164
187.6393	0.2623
187.8575	-0.1647
188.0757	0.1992
188.2939	0.1384
188.512	-0.0719
188.7302	0.2583
188.9483	0.1622
189.1665	0.0325
189.3846	0.0577
189.6027	0.1929
189.8208	0.1927
190.0389	0.1248
190.257	0.1875
190.475	0.2765
190.6931	0.6517
190.9111	0.4783
191.1292	0.1166
191.3472	0.544
191.5652	0.2745
191.7832	0.207
192.0012	0.4254
192.2192	0.2684
192.4371	0.5832
192.6551	0.5523
192.873	0.5162
193.091	0.2947
193.3089	0.5091
193.5268	0.5866
193.7447	0.6128
193.9626	0.5546
194.1805	0.6295
194.3984	0.6297
194.6162	0.4712
194.8341	0.6314
195.0519	0.4843
195.2697	0.7329
195.4875	0.7305
195.7054	0.8894
195.9231	0.3999
196.1409	0.5226
196.3587	0.6098
196.5765	0.5143
196.7942	0.5121
197.012	0.5127
197.2297	0.6196
197.4474	0.543
197.6651	0.5584
197.8828	0.6125
198.1005	0.8001
198.3182	0.5916
198.5358	0.8225
198.7535	0.6635
198.9711	0.5671
199.1888	0.5742
199.4064	0.7995
199.624	0.6681
199.8416	0.6771
200.0592	0.6202
200.2767	0.6913
200.4943	0.7252
200.7119	0.7903
200.9294	0.7045
201.1469	0.5981
201.3645	0.6058
201.582	0.5839
201.7995	0.7265
202.017	0.7122
202.2344	0.6333
202.4519	0.7027
202.6694	0.694
202.8868	0.6216
203.1042	0.5935
203.3217	0.6783
203.5391	0.6889
203.7565	0.5998
203.9739	0.6435
204.1913	0.6578
204.4086	0.6436
204.626	0.6708
204.8433	0.7372
205.0607	0.6028
205.278	0.724
205.4953	0.5639
205.7126	0.656
205.9299	0.7244
206.1472	0.727
206.3644	0.6429
206.5817	0.6218
206.7989	0.7662
207.0162	0.5915
207.2334	0.6155
207.4506	0.663
207.6678	0.5866
207.885	0.6039
208.1022	0.6204
208.3194	0.6334
208.5365	0.6338
208.7537	0.6385
208.9708	0.5765
209.1879	0.6616
209.405	0.6168
209.6222	0.7283
209.8392	0.554
210.0563	0.6189
210.2734	0.7092
210.4905	0.6156
210.7075	0.5876
210.9245	0.5833
211.1416	0.6462
211.3586	0.6724
211.5756	0.562
211.7926	0.5942
212.0096	0.5719
212.2265	0.5341
212.4435	0.5903
212.6604	0.5952
212.8774	0.5658
213.0943	0.5745
213.3112	0.5659
213.5281	0.4739
213.745	0.4818
213.9619	0.4702
214.1788	0.4963
214.3956	0.4729
214.6125	0.467
214.8293	0.4393
215.0461	0.4759
215.2629	0.4775
215.4798	0.5153
215.6965	0.4131
215.9133	0.4471
216.1301	0.4521
216.3469	0.4335
216.5636	0.3972
216.7803	0.3678
216.9971	0.362
217.2138	0.3533
217.4305	0.3931
217.6472	0.3795
217.8639	0.3787
218.0805	0.3462
218.2972	0.3198
218.5138	0.3214
218.7305	0.3226
218.9471	0.3005
219.1637	0.2963
219.3803	0.2992
219.5969	0.2953
219.8135	0.2656
220.0301	0.2779
220.2466	0.3021
220.4632	0.2558
220.6797	0.2307
220.8962	0.238
221.1127	0.2753
221.3292	0.2513
221.5457	0.2382
221.7622	0.2344
221.9787	0.2622
222.1951	0.2465
222.4116	0.2792
222.628	0.2515
222.8444	0.241
223.0608	0.2664
223.2772	0.2538
223.4936	0.2571
223.71	0.2579
223.9264	0.263
224.1427	0.2527
224.3591	0.2482
224.5754	0.274
224.7917	0.2864
225.008	0.2715
225.2243	0.2498
225.4406	0.2789
225.6569	0.2723
225.8732	0.275
226.0894	0.2813
226.3057	0.2701
226.5219	0.2718
226.7381	0.2752
226.9543	0.2766
227.1705	0.2974
227.3867	0.2843
227.6029	0.2849
227.8191	0.2965
228.0352	0.296
228.2513	0.3203
228.4675	0.3004
228.6836	0.3129
228.8997	0.2941
229.1158	0.2924
229.3319	0.3168
229.548	0.3188
229.764	0.3319
229.9801	0.3339
230.1961	0.3264
230.4121	0.3414
230.6282	0.3576
230.8442	0.3341
231.0602	0.3569
231.2761	0.3566
231.4921	0.3352
231.7081	0.3824
231.924	0.3511
232.14	0.3581
232.3559	0.3531
232.5718	0.3693
232.7877	0.3861
233.0036	0.3414
233.2195	0.3702
233.4353	0.3691
233.6512	0.3499
233.867	0.378
234.0829	0.3749
234.2987	0.3575
234.5145	0.3992
234.7303	0.3705
234.9461	0.3795
235.1619	0.3832
235.3776	0.3848
235.5934	0.3753
235.8091	0.3538
236.0249	0.4069
236.2406	0.3809
236.4563	0.3825
236.672	0.3768
236.8877	0.399
237.1034	0.3935
237.319	0.3947
237.5347	0.4114
237.7503	0.3785
237.966	0.4123
238.1816	0.4061
238.3972	0.3999
238.6128	0.4072
238.8284	0.4021
239.0439	0.4314
239.2595	0.3974
239.475	0.4376
239.6906	0.411
239.9061	0.4012
240.1216	0.3991
240.3371	0.4101
240.5526	0.4018
240.7681	0.4153
240.9836	0.3919
241.199	0.3855
241.4145	0.3927
241.6299	0.3781
241.8453	0.3782
242.0607	0.3961
242.2761	0.3599
242.4915	0.3789
242.7069	0.3642
242.9223	0.3682
243.1376	0.3563
243.353	0.3252
243.5683	0.3492
243.7836	0.3263
243.9989	0.3354
244.2142	0.3389
244.4295	0.311
244.6448	0.3082
244.86	0.2951
245.0753	0.3028
245.2905	0.2881
245.5057	0.2898
245.721	0.2565
245.9362	0.2687
246.1514	0.2818
246.3665	0.2467
246.5817	0.2487
246.7969	0.2621
247.012	0.2394
247.2271	0.2509
247.4423	0.232
247.6574	0.2379
247.8725	0.2399
248.0876	0.2261
248.3026	0.2226
248.5177	0.2456
248.7328	0.2118
248.9478	0.2079
249.1628	0.2074
249.3779	0.2219
249.5929	0.2006
249.8079	0.2074
250.0228	0.2115
250.2378	0.1982
250.4528	0.2083
250.6677	0.1872
250.8827	0.1904
251.0976	0.1942
251.3125	0.1836
251.5274	0.178
251.7423	0.1887
251.9572	0.1839
252.172	0.1718
252.3869	0.1763
252.6017	0.1838
252.8166	0.1655
253.0314	0.1697
253.2462	0.1633
253.461	0.1771
253.6758	0.1666
253.8906	0.185
254.1053	0.1674
254.3201	0.1641
254.5348	0.1865
254.7496	0.1742
254.9643	0.1728
255.179	0.1645
255.3937	0.1721
255.6083	0.1675
255.823	0.1721
256.0377	0.1659
256.2523	0.1661
256.467	0.151
256.6816	0.1699
256.8962	0.1673
257.1108	0.1599
257.3254	0.1849
257.54	0.1561
257.7545	0.1557
257.9691	0.172
258.1836	0.1808
258.3981	0.1796
258.6127	0.1643
258.8272	0.1656
259.0417	0.1626
259.2561	0.1782
259.4706	0.1555
259.6851	0.1607
259.8995	0.159
260.114	0.153
260.3284	0.164
260.5428	0.1501
260.7572	0.1709
260.9716	0.1637
261.186	0.1617
261.4003	0.1602
261.6147	0.1688
261.829	0.1652
262.0433	0.1691
262.2577	0.1633
262.472	0.1685
262.6863	0.154
262.9005	0.1655
263.1148	0.1714
263.3291	0.1448
263.5433	0.1737
263.7576	0.1676
263.9718	0.1501
264.186	0.1608
264.4002	0.1607
264.6144	0.1576
264.8286	0.1586
265.0427	0.1618
265.2569	0.1613
265.471	0.15
265.6851	0.1641
265.8993	0.1525
266.1134	0.1635
266.3275	0.163
266.5415	0.1656
266.7556	0.1677
266.9697	0.1669
267.1837	0.1582
267.3978	0.1619
267.6118	0.1667
267.8258	0.1785
268.0398	0.1477
268.2538	0.1671
268.4677	0.1631
268.6817	0.1558
268.8957	0.1643
269.1096	0.1722
269.3235	0.1704
269.5374	0.1583
269.7514	0.1551
269.9652	0.1518
270.1791	0.1592
270.393	0.143
270.6068	0.152
270.8207	0.145
271.0345	0.1369
271.2483	0.1477
271.4622	0.1497
271.676	0.1577
271.8897	0.1432
272.1035	0.1451
272.3173	0.1429
272.531	0.1616
272.7448	0.1341
272.9585	0.1346
273.1722	0.1447
273.3859	0.1497
273.5996	0.1266
273.8133	0.1309
274.0269	0.1465
274.2406	0.1386
274.4542	0.1387
274.6679	0.1343
274.8815	0.1383
275.0951	0.156
275.3087	0.1532
275.5223	0.1511
275.7358	0.1477
275.9494	0.1445
276.1629	0.1364
276.3765	0.1619
276.59	0.1576
276.8035	0.1388
277.017	0.1501
277.2305	0.1399
277.444	0.1479
277.6574	0.143
277.8709	0.1531
278.0843	0.1308
278.2978	0.1359
278.5112	0.1401
278.7246	0.1353
278.938	0.1536
279.1513	0.1449
279.3647	0.1564
279.5781	0.1417
279.7914	0.1417
280.0047	0.1624
280.2181	0.1475
280.4314	0.1606
280.6447	0.1481
280.8579	0.1551
281.0712	0.1551
281.2845	0.1584
281.4977	0.1485
281.711	0.1481
281.9242	0.1564
282.1374	0.1634
282.3506	0.154
282.5638	0.1525
282.7769	0.1531
282.9901	0.1595
283.2033	0.166
283.4164	0.1546
283.6295	0.1445
283.8426	0.1536
284.0557	0.1598
284.2688	0.1671
284.4819	0.1558
284.695	0.157
284.908	0.1628
285.1211	0.1564
285.3341	0.1568
285.5471	0.1675
285.7601	0.1642
285.9731	0.1429
286.1861	0.1585
286.3991	0.1625
286.612	0.1681
286.825	0.1605
287.0379	0.1615
287.2508	0.1602
287.4637	0.1703
287.6766	0.1606
287.8895	0.1732
288.1024	0.1861
288.3152	0.1618
288.5281	0.1605
288.7409	0.1589
288.9538	0.1592
289.1666	0.1689
289.3794	0.1676
289.5922	0.1649
289.8049	0.1622
290.0177	0.1606
290.2304	0.1635
290.4432	0.1784
290.6559	0.166
290.8686	0.166
291.0813	0.1736
291.294	0.1602
291.5067	0.1889
291.7194	0.1509
291.932	0.1752
292.1447	0.168
292.3573	0.1594
292.5699	0.1653
292.7825	0.1782
292.9951	0.1665
293.2077	0.168
293.4203	0.165
293.6328	0.156
293.8454	0.1709
294.0579	0.1718
294.2704	0.1656
294.4829	0.1624
294.6954	0.1664
294.9079	0.1592
295.1204	0.1745
295.3328	0.16
295.5453	0.1734
295.7577	0.1726
295.9701	0.148
296.1825	0.1611
296.3949	0.1698
296.6073	0.1562
296.8197	0.1471
297.0321	0.1645
297.2444	0.1522
297.4567	0.1623
297.6691	0.1682
297.8814	0.1583
298.0937	0.1642
298.306	0.1649
298.5182	0.1662
298.7305	0.1748
298.9428	0.1541
299.155	0.1717
299.3672	0.1599
299.5794	0.1581
299.7916	0.1538
300.0038	0.169
300.216	0.164
300.4282	0.1732
300.6403	0.1679
300.8525	0.1736
301.0646	0.1558
301.2767	0.1585
301.4888	0.1595
301.7009	0.1714
301.913	0.154
302.125	0.173
302.3371	0.1543
302.5491	0.1666
302.7612	0.1603
302.9732	0.1807
303.1852	0.1634
303.3972	0.1719
303.6092	0.1569
303.8211	0.1633
304.0331	0.1591
304.245	0.1572
304.457	0.1489
304.6689	0.1442
304.8808	0.1692
305.0927	0.1547
305.3046	0.1489
305.5164	0.1546
305.7283	0.1363
305.9401	0.1495
306.152	0.148
306.3638	0.1571
306.5756	0.1458
306.7874	0.15
306.9992	0.1523
307.2109	0.1474
307.4227	0.1169
307.6344	0.1441
307.8462	0.1332
308.0579	0.1355
308.2696	0.1338
308.4813	0.1239
308.693	0.1299
308.9046	0.1445
309.1163	0.1324
309.328	0.1188
309.5396	0.121
309.7512	0.1287
309.9628	0.1225
310.1744	0.1235
310.386	0.1195
310.5976	0.1237
310.8091	0.1112
311.0207	0.1141
311.2322	0.1305
311.4437	0.1172
311.6552	0.1141
311.8667	0.1127
312.0782	0.0925
312.2897	0.1072
312.5012	0.0994
312.7126	0.1014
312.924	0.1026
313.1355	0.1187
313.3469	0.1198
313.5583	0.11
313.7696	0.1086
313.981	0.1124
314.1924	0.1014
314.4037	0.0929
314.6151	0.1202
314.8264	0.0975
315.0377	0.1033
315.249	0.1062
315.4603	0.1103
315.6716	0.0976
315.8828	0.0878
316.0941	0.092
316.3053	0.0959
316.5165	0.0894
316.7277	0.0909
316.9389	0.1125
317.1501	0.0908
317.3613	0.0962
317.5724	0.0865
317.7836	0.1051
317.9947	0.0978
318.2058	0.1016
318.417	0.0839
318.6281	0.0872
318.8391	0.0992
319.0502	0.0961
319.2613	0.0952
319.4723	0.106
319.6834	0.1099
319.8944	0.0912
320.1054	0.1021
320.3164	0.0962
320.5274	0.0888
320.7383	0.1104
320.9493	0.1042
321.1602	0.0973
321.3712	0.0925
321.5821	0.0966
321.793	0.0988
322.0039	0.1011
322.2148	0.0933
322.4257	0.1026
322.6365	0.1081
322.8474	0.1002
323.0582	0.103
323.269	0.1082
323.4798	0.1018
323.6906	0.0927
323.9014	0.1134
324.1122	0.0964
324.3229	0.0978
324.5337	0.1004
324.7444	0.0978
324.9551	0.1116
325.1658	0.1013
325.3765	0.1037
325.5872	0.0954
325.7979	0.0953
326.0085	0.1065
326.2192	0.1025
326.4298	0.1158
326.6404	0.0992
326.851	0.0969
327.0616	0.099
327.2722	0.0994
327.4828	0.1014
327.6933	0.0967
327.9039	0.1073
328.1144	0.1169
328.3249	0.1058
328.5354	0.0936
328.7459	0.1062
328.9564	0.096
329.1669	0.1114
329.3773	0.1009
329.5878	0.1031
329.7982	0.1036
330.0086	0.1034
330.219	0.1057
330.4294	0.1028
330.6398	0.1064
330.8502	0.1074
331.0605	0.1141
331.2708	0.109
331.4812	0.115
331.6915	0.1121
331.9018	0.1034
332.1121	0.1052
332.3224	0.1003
332.5326	0.1128
332.7429	0.0961
332.9531	0.1106
333.1633	0.1076
333.3735	0.1056
333.5837	0.1158
333.7939	0.1096
334.0041	0.115
334.2143	0.1084
334.4244	0.1026
334.6346	0.0966
334.8447	0.1217
335.0548	0.096
335.2649	0.0959
335.475	0.118
335.685	0.1072
335.8951	0.1098
336.1051	0.1149
336.3152	0.114
336.5252	0.1027
336.7352	0.1135
336.9452	0.112
337.1552	0.117
337.3652	0.1155
337.5751	0.1079
337.7851	0.1082
337.995	0.1008
338.2049	0.1089
338.4148	0.1176
338.6247	0.1188
338.8346	0.1127
339.0445	0.114
339.2543	0.1129
339.4642	0.1072
339.674	0.1173
339.8838	0.1122
340.0936	0.1177
340.3034	0.1251
340.5132	0.115
340.7229	0.1222
340.9327	0.1123
341.1424	0.1131
341.3522	0.133
341.5619	0.1191
341.7716	0.1228
341.9813	0.1283
342.1909	0.106
342.4006	0.129
342.6102	0.1333
342.8199	0.1107
343.0295	0.1344
343.2391	0.1245
343.4487	0.1322
343.6583	0.1235
343.8679	0.1225
344.0774	0.1211
344.287	0.1366
344.4965	0.1227
344.706	0.1231
344.9155	0.1186
345.125	0.1169
345.3345	0.1197
345.544	0.123
345.7534	0.1266
345.9629	0.125
346.1723	0.1207
346.3817	0.1209
346.5911	0.1152
346.8005	0.1289
347.0099	0.1293
347.2193	0.1242
347.4286	0.1289
347.638	0.1417
347.8473	0.1304
348.0566	0.1353
348.2659	0.1375
348.4752	0.1357
348.6845	0.1195
348.8937	0.1241
349.103	0.1421
349.3122	0.1154
349.5214	0.1157
349.7306	0.1452
349.9398	0.1393
350.149	0.1466
350.3582	0.1236
350.5674	0.1458
350.7765	0.1372
350.9856	0.1411
351.1948	0.1389
351.4039	0.136
351.613	0.1241
351.822	0.144
352.0311	0.152
352.2402	0.1446
352.4492	0.1421
352.6582	0.1487
352.8672	0.1432
353.0762	0.1455
353.2852	0.1453
353.4942	0.1418
353.7032	0.1488
353.9121	0.1438
354.1211	0.1514
354.33	0.1614
354.5389	0.1476
354.7478	0.1491
354.9567	0.1504
355.1655	0.137
355.3744	0.1573
355.5833	0.1456
355.7921	0.1856
356.0009	0.1438
356.2097	0.1559
356.4185	0.1652
356.6273	0.1592
356.8361	0.1536
357.0448	0.1689
357.2536	0.1378
357.4623	0.1537
357.671	0.1734
357.8797	0.1653
358.0884	0.1657
358.2971	0.1653
358.5057	0.1837
358.7144	0.1638
358.923	0.1652
359.1316	0.1776
359.3402	0.1675
359.5488	0.1691
359.7574	0.1525
359.966	0.1671
360.1746	0.1743
360.3831	0.1763
360.5916	0.1475
360.8002	0.1643
361.0087	0.1841
361.2172	0.1765
361.4256	0.1723
361.6341	0.1804
361.8426	0.1945
362.051	0.1761
362.2594	0.1764
362.4678	0.1846
362.6762	0.1911
362.8846	0.1861
363.093	0.183
363.3014	0.1777
363.5097	0.1683
363.718	0.1826
363.9264	0.182
364.1347	0.172
364.343	0.1931
364.5513	0.2
364.7595	0.2059
364.9678	0.1792
365.176	0.1985
365.3842	0.1965
365.5925	0.1874
365.8007	0.1915
366.0089	0.1983
366.217	0.2083
366.4252	0.2229
366.6333	0.2088
366.8415	0.2059
367.0496	0.1902
367.2577	0.2122
367.4658	0.1984
367.6739	0.2174
367.882	0.2146
368.09	0.2034
368.2981	0.2225
368.5061	0.2087
368.7141	0.212
368.9221	0.2164
369.1301	0.2229
369.3381	0.2098
369.5461	0.2236
369.754	0.2122
369.962	0.2303
370.1699	0.2146
370.3778	0.2203
370.5857	0.1982
370.7936	0.2265
371.0015	0.2216
371.2093	0.2276
371.4172	0.222
371.625	0.2159
371.8328	0.2127
372.0406	0.2141
372.2484	0.2188
372.4562	0.2218
372.664	0.2252
372.8717	0.2161
373.0795	0.1981
373.2872	0.2382
373.4949	0.2254
373.7026	0.2243
373.9103	0.2388
374.118	0.217
374.3256	0.2337
374.5333	0.2202
374.7409	0.2177
374.9485	0.2435
375.1561	0.2397
375.3637	0.2302
375.5713	0.2385
375.7789	0.2397
375.9864	0.2243
376.194	0.221
376.4015	0.2443
376.609	0.251
376.8165	0.2372
377.024	0.2239
377.2315	0.2169
377.4389	0.2371
377.6464	0.2379
377.8538	0.2484
378.0612	0.2351
378.2686	0.2388
378.476	0.2602
378.6834	0.2371
378.8908	0.2461
379.0981	0.2547
379.3055	0.2454
379.5128	0.2344
379.7201	0.244
379.9274	0.2369
380.1347	0.253
380.342	0.2557
380.5492	0.2559
380.7565	0.2494
380.9637	0.2574
381.1709	0.251
381.3781	0.2402
381.5853	0.2702
381.7925	0.2644
381.9997	0.2572
382.2068	0.273
382.4139	0.2546
382.6211	0.2212
382.8282	0.2411
383.0353	0.2686
383.2424	0.2513
383.4494	0.2593
383.6565	0.2509
383.8635	0.2577
384.0706	0.2579
384.2776	0.2742
384.4846	0.2363
384.6916	0.2689
384.8986	0.2413
385.1055	0.2636
385.3125	0.2645
385.5194	0.2414
385.7263	0.2717
385.9333	0.2473
386.1402	0.2663
386.347	0.2485
386.5539	0.2564
386.7608	0.2708
386.9676	0.2368
387.1744	0.2532
387.3813	0.2433
387.5881	0.2502
387.7948	0.2437
388.0016	0.2458
388.2084	0.2554
388.4151	0.2295
388.6219	0.2478
388.8286	0.2412
389.0353	0.2606
389.242	0.2634
389.4487	0.2496
389.6553	0.2616
389.862	0.2337
390.0686	0.2297
390.2753	0.2393
390.4819	0.2446
390.6885	0.2387
390.8951	0.2327
391.1016	0.2426
391.3082	0.2209
391.5147	0.2402
391.7213	0.2382
391.9278	0.2251
392.1343	0.2299
392.3408	0.2244
392.5473	0.2452
392.7537	0.2306
392.9602	0.2208
393.1666	0.2223
393.373	0.2444
393.5794	0.235
393.7858	0.2345
393.9922	0.2193
394.1986	0.2347
394.4049	0.2418
394.6113	0.2106
394.8176	0.2091
395.0239	0.2042
395.2302	0.1989
395.4365	0.2208
395.6428	0.2257
395.8491	0.2211
396.0553	0.2177
396.2615	0.2261
396.4678	0.2152
396.674	0.2047
396.8802	0.217
397.0863	0.2278
397.2925	0.2197
397.4987	0.2064
397.7048	0.2193
397.9109	0.2262
398.117	0.2045
398.3231	0.2102
398.5292	0.2064
398.7353	0.217
398.9413	0.2126
399.1474	0.2183
399.3534	0.2154
399.5594	0.2004
399.7654	0.2223
399.9714	0.2227
400.1774	0.2047
400.3833	0.2064
400.5893	0.2223
400.7952	0.212
401.0011	0.2152
401.207	0.2063
401.4129	0.1972
401.6188	0.2136
401.8247	0.2065
402.0305	0.2035
402.2364	0.2137
402.4422	0.2145
402.648	0.2166
402.8538	0.2182
403.0596	0.2108
403.2654	0.2137
403.4711	0.2093
403.6768	0.2094
403.8826	0.2212
404.0883	0.2073
404.294	0.2115
404.4997	0.2082
404.7054	0.2186
404.911	0.1994
405.1167	0.2097
405.3223	0.2257
405.5279	0.2135
405.7335	0.2136
405.9391	0.2318
406.1447	0.2032
406.3502	0.2333
406.5558	0.2141
406.7613	0.2215
406.9668	0.2153
407.1724	0.2064
407.3778	0.2062
407.5833	0.2223
407.7888	0.2146
407.9942	0.2277
408.1997	0.213
408.4051	0.2026
408.6105	0.2174
408.8159	0.1927
409.0213	0.2119
409.2267	0.2294
409.432	0.1956
409.6374	0.2155
409.8427	0.2241
410.048	0.2089
410.2533	0.2068
410.4586	0.2056
410.6639	0.1966
410.8691	0.2043
411.0744	0.2119
411.2796	0.2074
411.4848	0.2074
411.69	0.1989
411.8952	0.2186
412.1004	0.2039
412.3056	0.2132
412.5107	0.2037
412.7158	0.2183
412.921	0.2054
413.1261	0.2068
413.3312	0.2117
413.5362	0.2081
413.7413	0.1877
413.9464	0.215
414.1514	0.2056
414.3564	0.2142
414.5614	0.1896
414.7664	0.2146
414.9714	0.21
415.1764	0.2113
415.3813	0.2182
415.5863	0.1928
415.7912	0.2151
415.9961	0.2152
416.201	0.1936
416.4059	0.2235
416.6108	0.1964
416.8156	0.2078
417.0205	0.1966
417.2253	0.1815
417.4301	0.2026
417.6349	0.1998
417.8397	0.21
418.0445	0.1972
418.2492	0.1852
418.454	0.1853
418.6587	0.1849
418.8634	0.2071
419.0681	0.1879
419.2728	0.2098
419.4775	0.1848
419.6822	0.188
419.8868	0.1714
420.0915	0.1961
420.2961	0.1704
420.5007	0.1769
420.7053	0.1751
420.9099	0.2074
421.1144	0.189
421.319	0.1751
421.5235	0.1943
421.728	0.197
421.9325	0.1901
422.137	0.1743
422.3415	0.1848
422.546	0.1957
422.7504	0.189
422.9549	0.186
423.1593	0.1953
423.3637	0.1935
423.5681	0.1767
423.7725	0.1675
423.9769	0.1763
424.1812	0.1801
424.3856	0.1633
424.5899	0.1727
424.7942	0.1685
424.9985	0.1807
425.2028	0.1691
425.4071	0.1904
425.6113	0.151
425.8156	0.1838
426.0198	0.1626
426.224	0.1653
426.4282	0.1507
