Data from MonoPyChalIsomerACN10uM360nmA_Absorbance_13-57-29-504.txt Node
Date: Fri Jul 05 13:57:29 BST 2024
User: LASERRRRR
Spectrometer: FLMT03099
Trigger mode: 0
Integration Time (sec): 1.000000E-1
Scans to average: 1
Electric dark correction enabled: true
Nonlinearity correction enabled: false
Boxcar width: 0
XAxis mode: Wavelengths
Number of Pixels in Spectrum: 3648
>>>>>Begin Spectral Data<<<<<
179.3399	-0.4506
179.5586	-0.4506
179.7771	-0.4506
179.9957	1.1922
180.2143	-0
180.4329	-0.0775
180.6514	-0
180.8699	0.4275
181.0885	1.5125
181.307	0.261
181.5255	-0.3496
181.744	-0
181.9625	-0
182.181	-0.8129
182.3994	0.6793
182.6179	0.1234
182.8363	0.1692
183.0547	-0.1488
183.2732	0.2853
183.4916	0.0139
183.71	0.305
183.9284	0.3279
184.1467	0.2697
184.3651	0.0785
184.5835	0.0188
184.8018	-0.0218
185.0201	0.4177
185.2385	-0.1193
185.4568	0.0197
185.6751	0.4597
185.8934	0.1441
186.1117	0.0824
186.3299	0.1412
186.5482	0.095
186.7664	-0.0974
186.9847	-0.0131
187.2029	0.1373
187.4211	0.2337
187.6393	0.0817
187.8575	-0.0999
188.0757	0.4051
188.2939	0.27
188.512	-0.0377
188.7302	0.0772
188.9483	0.2199
189.1665	0.088
189.3846	0.1895
189.6027	0.1974
189.8208	0.1502
190.0389	0.0765
190.257	0.3514
190.475	0.5075
190.6931	0.3711
190.9111	0.3767
191.1292	0.116
191.3472	0.8791
191.5652	0.2918
191.7832	0.3887
192.0012	1.0484
192.2192	0.2584
192.4371	0.83
192.6551	0.3979
192.873	0.3764
193.091	0.5404
193.3089	0.6636
193.5268	0.6545
193.7447	0.5637
193.9626	0.613
194.1805	0.6409
194.3984	0.7013
194.6162	0.515
194.8341	0.8222
195.0519	0.5739
195.2697	0.8408
195.4875	0.5753
195.7054	0.6349
195.9231	0.606
196.1409	0.5007
196.3587	0.5888
196.5765	0.5022
196.7942	0.5709
197.012	0.5152
197.2297	0.5761
197.4474	0.9912
197.6651	0.7052
197.8828	0.5455
198.1005	0.6348
198.3182	0.6742
198.5358	0.9464
198.7535	0.6775
198.9711	0.4994
199.1888	0.6146
199.4064	0.5863
199.624	0.6143
199.8416	0.6599
200.0592	0.6445
200.2767	0.5447
200.4943	0.6354
200.7119	0.7628
200.9294	0.632
201.1469	0.6553
201.3645	0.5507
201.582	0.5883
201.7995	0.5814
202.017	0.6342
202.2344	0.648
202.4519	0.7442
202.6694	0.6213
202.8868	0.6396
203.1042	0.8252
203.3217	0.6367
203.5391	0.6939
203.7565	0.5935
203.9739	0.6099
204.1913	0.5588
204.4086	0.6411
204.626	0.7189
204.8433	0.7873
205.0607	0.6258
205.278	0.7702
205.4953	0.6979
205.7126	0.622
205.9299	0.81
206.1472	0.6148
206.3644	0.5972
206.5817	0.6863
206.7989	0.7345
207.0162	0.6146
207.2334	0.6395
207.4506	0.6009
207.6678	0.639
207.885	0.774
208.1022	0.6596
208.3194	0.7334
208.5365	0.6433
208.7537	0.7242
208.9708	0.5789
209.1879	0.6219
209.405	0.6662
209.6222	0.6403
209.8392	0.6423
210.0563	0.5698
210.2734	0.6658
210.4905	0.6796
210.7075	0.7136
210.9245	0.574
211.1416	0.7767
211.3586	0.592
211.5756	0.5708
211.7926	0.6245
212.0096	0.5596
212.2265	0.5092
212.4435	0.5982
212.6604	0.5826
212.8774	0.5906
213.0943	0.6075
213.3112	0.5677
213.5281	0.5081
213.745	0.5087
213.9619	0.4889
214.1788	0.4496
214.3956	0.5045
214.6125	0.4472
214.8293	0.4209
215.0461	0.4901
215.2629	0.4523
215.4798	0.48
215.6965	0.4237
215.9133	0.4428
216.1301	0.4077
216.3469	0.4592
216.5636	0.4024
216.7803	0.3966
216.9971	0.4175
217.2138	0.3909
217.4305	0.3784
217.6472	0.3757
217.8639	0.4035
218.0805	0.3426
218.2972	0.3225
218.5138	0.3089
218.7305	0.3105
218.9471	0.3086
219.1637	0.2665
219.3803	0.3038
219.5969	0.2885
219.8135	0.2705
220.0301	0.2823
220.2466	0.2857
220.4632	0.2794
220.6797	0.2637
220.8962	0.2424
221.1127	0.2807
221.3292	0.2675
221.5457	0.2415
221.7622	0.2436
221.9787	0.2877
222.1951	0.2352
222.4116	0.2591
222.628	0.2549
222.8444	0.2708
223.0608	0.2513
223.2772	0.2446
223.4936	0.2673
223.71	0.2591
223.9264	0.2951
224.1427	0.2658
224.3591	0.2557
224.5754	0.2779
224.7917	0.2557
225.008	0.2742
225.2243	0.2656
225.4406	0.3088
225.6569	0.272
225.8732	0.2884
226.0894	0.2651
226.3057	0.2905
226.5219	0.2959
226.7381	0.3029
226.9543	0.2751
227.1705	0.315
227.3867	0.2777
227.6029	0.2919
227.8191	0.2901
228.0352	0.2894
228.2513	0.3164
228.4675	0.3066
228.6836	0.312
228.8997	0.2938
229.1158	0.3084
229.3319	0.339
229.548	0.3143
229.764	0.3379
229.9801	0.3175
230.1961	0.3241
230.4121	0.3355
230.6282	0.335
230.8442	0.3238
231.0602	0.3619
231.2761	0.3248
231.4921	0.356
231.7081	0.3506
231.924	0.3555
232.14	0.3725
232.3559	0.3516
232.5718	0.3818
232.7877	0.3675
233.0036	0.3608
233.2195	0.3578
233.4353	0.3624
233.6512	0.3832
233.867	0.362
234.0829	0.3638
234.2987	0.3601
234.5145	0.3721
234.7303	0.3712
234.9461	0.3743
235.1619	0.3807
235.3776	0.3729
235.5934	0.3915
235.8091	0.3738
236.0249	0.3691
236.2406	0.3903
236.4563	0.3775
236.672	0.3884
236.8877	0.4147
237.1034	0.3962
237.319	0.411
237.5347	0.4188
237.7503	0.4119
237.966	0.4009
238.1816	0.3957
238.3972	0.4155
238.6128	0.3893
238.8284	0.4234
239.0439	0.418
239.2595	0.393
239.475	0.4018
239.6906	0.4044
239.9061	0.4002
240.1216	0.4078
240.3371	0.4202
240.5526	0.3976
240.7681	0.4127
240.9836	0.3871
241.199	0.415
241.4145	0.3982
241.6299	0.3825
241.8453	0.3968
242.0607	0.3948
242.2761	0.3687
242.4915	0.3763
242.7069	0.3736
242.9223	0.3802
243.1376	0.3492
243.353	0.3524
243.5683	0.3667
243.7836	0.3349
243.9989	0.3274
244.2142	0.3111
244.4295	0.3172
244.6448	0.3239
244.86	0.3113
245.0753	0.3006
245.2905	0.296
245.5057	0.2848
245.721	0.2753
245.9362	0.2642
246.1514	0.2794
246.3665	0.2751
246.5817	0.2754
246.7969	0.2631
247.012	0.2484
247.2271	0.2366
247.4423	0.2554
247.6574	0.2478
247.8725	0.2409
248.0876	0.2135
248.3026	0.2363
248.5177	0.2257
248.7328	0.228
248.9478	0.2103
249.1628	0.2254
249.3779	0.2356
249.5929	0.2114
249.8079	0.2185
250.0228	0.2087
250.2378	0.2029
250.4528	0.2031
250.6677	0.1885
250.8827	0.1919
251.0976	0.2006
251.3125	0.1946
251.5274	0.1693
251.7423	0.1937
251.9572	0.1847
252.172	0.1845
252.3869	0.1873
252.6017	0.1831
252.8166	0.1696
253.0314	0.1698
253.2462	0.1729
253.461	0.1749
253.6758	0.1701
253.8906	0.1795
254.1053	0.1702
254.3201	0.1629
254.5348	0.1679
254.7496	0.1691
254.9643	0.1742
255.179	0.1756
255.3937	0.1582
255.6083	0.1827
255.823	0.1771
256.0377	0.1674
256.2523	0.1642
256.467	0.1471
256.6816	0.1797
256.8962	0.1622
257.1108	0.1681
257.3254	0.1744
257.54	0.1585
257.7545	0.1646
257.9691	0.1702
258.1836	0.1576
258.3981	0.1796
258.6127	0.182
258.8272	0.1571
259.0417	0.161
259.2561	0.1589
259.4706	0.1624
259.6851	0.1681
259.8995	0.17
260.114	0.1622
260.3284	0.1574
260.5428	0.1527
260.7572	0.1817
260.9716	0.1721
261.186	0.1637
261.4003	0.1588
261.6147	0.1586
261.829	0.1584
262.0433	0.1665
262.2577	0.1717
262.472	0.1668
262.6863	0.1585
262.9005	0.1738
263.1148	0.1631
263.3291	0.1438
263.5433	0.1605
263.7576	0.1702
263.9718	0.1672
264.186	0.1659
264.4002	0.16
264.6144	0.1648
264.8286	0.1766
265.0427	0.1523
265.2569	0.16
265.471	0.1547
265.6851	0.1506
265.8993	0.1636
266.1134	0.1579
266.3275	0.1638
266.5415	0.1603
266.7556	0.1669
266.9697	0.1567
267.1837	0.1649
267.3978	0.1737
267.6118	0.1737
267.8258	0.1681
268.0398	0.1551
268.2538	0.1722
268.4677	0.1616
268.6817	0.1553
268.8957	0.1685
269.1096	0.153
269.3235	0.1683
269.5374	0.1576
269.7514	0.1592
269.9652	0.1632
270.1791	0.1464
270.393	0.1548
270.6068	0.1619
270.8207	0.1483
271.0345	0.1433
271.2483	0.1668
271.4622	0.1357
271.676	0.1574
271.8897	0.1506
272.1035	0.1457
272.3173	0.1489
272.531	0.1536
272.7448	0.1358
272.9585	0.1299
273.1722	0.15
273.3859	0.1522
273.5996	0.1258
273.8133	0.1537
274.0269	0.1461
274.2406	0.1524
274.4542	0.1425
274.6679	0.1408
274.8815	0.1584
275.0951	0.1521
275.3087	0.1613
275.5223	0.1591
275.7358	0.1436
275.9494	0.1497
276.1629	0.155
276.3765	0.1498
276.59	0.1475
276.8035	0.1457
277.017	0.1439
277.2305	0.1551
277.444	0.1505
277.6574	0.1332
277.8709	0.1553
278.0843	0.1421
278.2978	0.1396
278.5112	0.1461
278.7246	0.1555
278.938	0.1607
279.1513	0.1613
279.3647	0.1562
279.5781	0.1411
279.7914	0.1521
280.0047	0.1636
280.2181	0.1646
280.4314	0.1611
280.6447	0.1546
280.8579	0.1578
281.0712	0.1585
281.2845	0.16
281.4977	0.1579
281.711	0.1532
281.9242	0.1574
282.1374	0.1667
282.3506	0.1626
282.5638	0.1576
282.7769	0.1536
282.9901	0.1538
283.2033	0.1682
283.4164	0.1758
283.6295	0.1481
283.8426	0.1491
284.0557	0.1529
284.2688	0.1696
284.4819	0.1625
284.695	0.1683
284.908	0.1623
285.1211	0.1499
285.3341	0.175
285.5471	0.1654
285.7601	0.1638
285.9731	0.1609
286.1861	0.1596
286.3991	0.1598
286.612	0.1621
286.825	0.1587
287.0379	0.1687
287.2508	0.1613
287.4637	0.1606
287.6766	0.1579
287.8895	0.1548
288.1024	0.1823
288.3152	0.1741
288.5281	0.1577
288.7409	0.1635
288.9538	0.1659
289.1666	0.1702
289.3794	0.1684
289.5922	0.1657
289.8049	0.1739
290.0177	0.1683
290.2304	0.1645
290.4432	0.1676
290.6559	0.166
290.8686	0.1741
291.0813	0.1565
291.294	0.1662
291.5067	0.1713
291.7194	0.1573
291.932	0.1707
292.1447	0.1683
292.3573	0.1459
292.5699	0.1741
292.7825	0.1671
292.9951	0.1487
293.2077	0.1579
293.4203	0.1613
293.6328	0.1489
293.8454	0.1693
294.0579	0.1642
294.2704	0.1614
294.4829	0.1526
294.6954	0.1672
294.9079	0.168
295.1204	0.1602
295.3328	0.158
295.5453	0.1652
295.7577	0.1743
295.9701	0.1459
296.1825	0.1558
296.3949	0.1691
296.6073	0.1631
296.8197	0.1538
297.0321	0.1791
297.2444	0.1618
297.4567	0.1609
297.6691	0.1613
297.8814	0.1611
298.0937	0.1634
298.306	0.1661
298.5182	0.1604
298.7305	0.1704
298.9428	0.1544
299.155	0.165
299.3672	0.1598
299.5794	0.1534
299.7916	0.1715
300.0038	0.1734
300.216	0.165
300.4282	0.1662
300.6403	0.1579
300.8525	0.1687
301.0646	0.1544
301.2767	0.1646
301.4888	0.1557
301.7009	0.1598
301.913	0.1554
302.125	0.1608
302.3371	0.1657
302.5491	0.1609
302.7612	0.1661
302.9732	0.1697
303.1852	0.1735
303.3972	0.1586
303.6092	0.1539
303.8211	0.1477
304.0331	0.1447
304.245	0.1587
304.457	0.1503
304.6689	0.1526
304.8808	0.1655
305.0927	0.1532
305.3046	0.1524
305.5164	0.1594
305.7283	0.1416
305.9401	0.1363
306.152	0.1439
306.3638	0.1651
306.5756	0.1378
306.7874	0.15
306.9992	0.1413
307.2109	0.1363
307.4227	0.128
307.6344	0.1425
307.8462	0.1387
308.0579	0.1375
308.2696	0.1378
308.4813	0.1351
308.693	0.1318
308.9046	0.139
309.1163	0.1203
309.328	0.1137
309.5396	0.1299
309.7512	0.1179
309.9628	0.1158
310.1744	0.1277
310.386	0.1299
310.5976	0.1237
310.8091	0.124
311.0207	0.1143
311.2322	0.1331
311.4437	0.1076
311.6552	0.1073
311.8667	0.129
312.0782	0.097
312.2897	0.1032
312.5012	0.1045
312.7126	0.1094
312.924	0.104
313.1355	0.1167
313.3469	0.1108
313.5583	0.1138
313.7696	0.1043
313.981	0.1113
314.1924	0.1119
314.4037	0.0969
314.6151	0.1123
314.8264	0.1026
315.0377	0.1047
315.249	0.1009
315.4603	0.12
315.6716	0.0983
315.8828	0.0906
316.0941	0.0976
316.3053	0.0949
316.5165	0.1014
316.7277	0.0957
316.9389	0.1092
317.1501	0.1078
317.3613	0.107
317.5724	0.0921
317.7836	0.1105
317.9947	0.0995
318.2058	0.0962
318.417	0.0938
318.6281	0.1028
318.8391	0.0986
319.0502	0.107
319.2613	0.097
319.4723	0.1022
319.6834	0.0997
319.8944	0.1043
320.1054	0.1194
320.3164	0.1007
320.5274	0.0949
320.7383	0.0823
320.9493	0.0922
321.1602	0.1045
321.3712	0.0883
321.5821	0.0994
321.793	0.1046
322.0039	0.1055
322.2148	0.101
322.4257	0.095
322.6365	0.1187
322.8474	0.1131
323.0582	0.1012
323.269	0.0975
323.4798	0.1228
323.6906	0.1041
323.9014	0.113
324.1122	0.1062
324.3229	0.0979
324.5337	0.0994
324.7444	0.1047
324.9551	0.1115
325.1658	0.1142
325.3765	0.1038
325.5872	0.1025
325.7979	0.0995
326.0085	0.1035
326.2192	0.1065
326.4298	0.1089
326.6404	0.0901
326.851	0.1076
327.0616	0.0992
327.2722	0.1115
327.4828	0.115
327.6933	0.0996
327.9039	0.1137
328.1144	0.1196
328.3249	0.1136
328.5354	0.106
328.7459	0.1072
328.9564	0.11
329.1669	0.11
329.3773	0.1064
329.5878	0.1025
329.7982	0.1058
330.0086	0.1084
330.219	0.1145
330.4294	0.107
330.6398	0.104
330.8502	0.1053
331.0605	0.111
331.2708	0.1105
331.4812	0.1082
331.6915	0.1184
331.9018	0.1114
332.1121	0.1009
332.3224	0.1106
332.5326	0.1113
332.7429	0.1124
332.9531	0.1209
333.1633	0.1148
333.3735	0.1108
333.5837	0.1102
333.7939	0.1111
334.0041	0.1161
334.2143	0.1131
334.4244	0.113
334.6346	0.0986
334.8447	0.1155
335.0548	0.1006
335.2649	0.0993
335.475	0.1201
335.685	0.1089
335.8951	0.1332
336.1051	0.1059
336.3152	0.1233
336.5252	0.1142
336.7352	0.1232
336.9452	0.1257
337.1552	0.1169
337.3652	0.1089
337.5751	0.1114
337.7851	0.1134
337.995	0.1095
338.2049	0.1235
338.4148	0.1112
338.6247	0.1236
338.8346	0.1176
339.0445	0.1134
339.2543	0.1144
339.4642	0.1072
339.674	0.1088
339.8838	0.1125
340.0936	0.1203
340.3034	0.1313
340.5132	0.1082
340.7229	0.1261
340.9327	0.1107
341.1424	0.1155
341.3522	0.1234
341.5619	0.127
341.7716	0.1168
341.9813	0.1281
342.1909	0.1198
342.4006	0.1362
342.6102	0.1226
342.8199	0.134
343.0295	0.1263
343.2391	0.1338
343.4487	0.1241
343.6583	0.1285
343.8679	0.1239
344.0774	0.1245
344.287	0.1305
344.4965	0.125
344.706	0.1284
344.9155	0.1225
345.125	0.117
345.3345	0.1284
345.544	0.1284
345.7534	0.1283
345.9629	0.1357
346.1723	0.1405
346.3817	0.125
346.5911	0.1351
346.8005	0.1345
347.0099	0.1323
347.2193	0.1345
347.4286	0.1308
347.638	0.1355
347.8473	0.1337
348.0566	0.1307
348.2659	0.1383
348.4752	0.1327
348.6845	0.1318
348.8937	0.1354
349.103	0.146
349.3122	0.1335
349.5214	0.1294
349.7306	0.1365
349.9398	0.137
350.149	0.1458
350.3582	0.1433
350.5674	0.1378
350.7765	0.1453
350.9856	0.1352
351.1948	0.1505
351.4039	0.1328
351.613	0.1426
351.822	0.1544
352.0311	0.1444
352.2402	0.1478
352.4492	0.1508
352.6582	0.1591
352.8672	0.135
353.0762	0.1665
353.2852	0.1587
353.4942	0.1401
353.7032	0.1576
353.9121	0.1492
354.1211	0.1503
354.33	0.1614
354.5389	0.148
354.7478	0.1663
354.9567	0.1468
355.1655	0.1487
355.3744	0.1601
355.5833	0.1642
355.7921	0.1636
356.0009	0.1527
356.2097	0.1544
356.4185	0.1573
356.6273	0.1633
356.8361	0.1577
357.0448	0.1453
357.2536	0.155
357.4623	0.1432
357.671	0.1694
357.8797	0.1601
358.0884	0.165
358.2971	0.1486
358.5057	0.167
358.7144	0.175
358.923	0.1775
359.1316	0.1647
359.3402	0.1654
359.5488	0.1603
359.7574	0.151
359.966	0.1718
360.1746	0.1663
360.3831	0.1835
360.5916	0.1595
360.8002	0.1632
361.0087	0.1779
361.2172	0.1788
361.4256	0.175
361.6341	0.1781
361.8426	0.1901
362.051	0.1675
362.2594	0.1748
362.4678	0.1744
362.6762	0.1931
362.8846	0.198
363.093	0.1678
363.3014	0.189
363.5097	0.1633
363.718	0.1918
363.9264	0.1834
364.1347	0.1711
364.343	0.19
364.5513	0.2045
364.7595	0.1955
364.9678	0.1993
365.176	0.1896
365.3842	0.1904
365.5925	0.1883
365.8007	0.1931
366.0089	0.2015
366.217	0.1882
366.4252	0.2032
366.6333	0.2067
366.8415	0.2098
367.0496	0.1803
367.2577	0.2215
367.4658	0.2058
367.6739	0.21
367.882	0.212
368.09	0.2024
368.2981	0.2057
368.5061	0.1994
368.7141	0.2094
368.9221	0.2187
369.1301	0.2141
369.3381	0.1935
369.5461	0.2159
369.754	0.1976
369.962	0.2116
370.1699	0.2025
370.3778	0.21
370.5857	0.2058
370.7936	0.2079
371.0015	0.2126
371.2093	0.2203
371.4172	0.2368
371.625	0.2142
371.8328	0.2195
372.0406	0.2168
372.2484	0.2264
372.4562	0.2216
372.664	0.2122
372.8717	0.2255
373.0795	0.1859
373.2872	0.224
373.4949	0.2145
373.7026	0.221
373.9103	0.2355
374.118	0.2336
374.3256	0.2121
374.5333	0.2219
374.7409	0.2232
374.9485	0.2299
375.1561	0.2329
375.3637	0.2434
375.5713	0.2365
375.7789	0.2427
375.9864	0.2404
376.194	0.228
376.4015	0.2454
376.609	0.2509
376.8165	0.2346
377.024	0.2113
377.2315	0.2261
377.4389	0.2364
377.6464	0.2403
377.8538	0.235
378.0612	0.2346
378.2686	0.2491
378.476	0.2489
378.6834	0.2478
378.8908	0.2379
379.0981	0.2449
379.3055	0.2553
379.5128	0.2479
379.7201	0.2453
379.9274	0.2333
380.1347	0.2413
380.342	0.2548
380.5492	0.2409
380.7565	0.2501
380.9637	0.2505
381.1709	0.2469
381.3781	0.2447
381.5853	0.2542
381.7925	0.2315
381.9997	0.2553
382.2068	0.2797
382.4139	0.239
382.6211	0.2484
382.8282	0.238
383.0353	0.2333
383.2424	0.2375
383.4494	0.2576
383.6565	0.2555
383.8635	0.2404
384.0706	0.2546
384.2776	0.252
384.4846	0.2347
384.6916	0.261
384.8986	0.2473
385.1055	0.2652
385.3125	0.2492
385.5194	0.2341
385.7263	0.252
385.9333	0.2487
386.1402	0.2341
386.347	0.2529
386.5539	0.2364
386.7608	0.2646
386.9676	0.2377
387.1744	0.2453
387.3813	0.2381
387.5881	0.2278
387.7948	0.2409
388.0016	0.2371
388.2084	0.2414
388.4151	0.2313
388.6219	0.2629
388.8286	0.2421
389.0353	0.2433
389.242	0.2448
389.4487	0.2399
389.6553	0.224
389.862	0.2097
390.0686	0.2361
390.2753	0.2485
390.4819	0.2325
390.6885	0.2335
390.8951	0.2314
391.1016	0.2311
391.3082	0.225
391.5147	0.2291
391.7213	0.2271
391.9278	0.2149
392.1343	0.2361
392.3408	0.2344
392.5473	0.225
392.7537	0.2146
392.9602	0.232
393.1666	0.2319
393.373	0.2362
393.5794	0.2351
393.7858	0.2352
393.9922	0.1999
394.1986	0.2249
394.4049	0.2131
394.6113	0.2074
394.8176	0.2217
395.0239	0.2241
395.2302	0.2324
395.4365	0.2066
395.6428	0.2232
395.8491	0.198
396.0553	0.2024
396.2615	0.204
396.4678	0.2061
396.674	0.2058
396.8802	0.2197
397.0863	0.2199
397.2925	0.1977
397.4987	0.2093
397.7048	0.2079
397.9109	0.2153
398.117	0.2083
398.3231	0.2111
398.5292	0.2072
398.7353	0.2182
398.9413	0.2113
399.1474	0.2006
399.3534	0.2151
399.5594	0.1963
399.7654	0.2138
399.9714	0.2015
400.1774	0.2296
400.3833	0.1988
400.5893	0.2107
400.7952	0.2026
401.0011	0.2181
401.207	0.2266
401.4129	0.2035
401.6188	0.2013
401.8247	0.2067
402.0305	0.194
402.2364	0.1958
402.4422	0.2213
402.648	0.1976
402.8538	0.2188
403.0596	0.2076
403.2654	0.2202
403.4711	0.2008
403.6768	0.2167
403.8826	0.212
404.0883	0.2186
404.294	0.2047
404.4997	0.2095
404.7054	0.211
404.911	0.1928
405.1167	0.1934
405.3223	0.2178
405.5279	0.2144
405.7335	0.2165
405.9391	0.2166
406.1447	0.2108
406.3502	0.2301
406.5558	0.2015
406.7613	0.2177
406.9668	0.2072
407.1724	0.1926
407.3778	0.2007
407.5833	0.2207
407.7888	0.2138
407.9942	0.2036
408.1997	0.2067
408.4051	0.2038
408.6105	0.2049
408.8159	0.1915
409.0213	0.1875
409.2267	0.2213
409.432	0.1954
409.6374	0.2158
409.8427	0.1903
410.048	0.2203
410.2533	0.2134
410.4586	0.2031
410.6639	0.1903
410.8691	0.2011
411.0744	0.2029
411.2796	0.1998
411.4848	0.1955
411.69	0.2018
411.8952	0.2166
412.1004	0.1926
412.3056	0.2032
412.5107	0.1991
412.7158	0.1994
412.921	0.2018
413.1261	0.1918
413.3312	0.1979
413.5362	0.1954
413.7413	0.1988
413.9464	0.1927
414.1514	0.1943
414.3564	0.1988
414.5614	0.1933
414.7664	0.2035
414.9714	0.2027
415.1764	0.2068
415.3813	0.1966
415.5863	0.1935
415.7912	0.2043
415.9961	0.199
416.201	0.202
416.4059	0.1995
416.6108	0.1907
416.8156	0.2075
417.0205	0.1897
417.2253	0.1796
417.4301	0.2125
417.6349	0.1842
417.8397	0.1931
418.0445	0.194
418.2492	0.1946
418.454	0.1911
418.6587	0.1922
418.8634	0.1931
419.0681	0.1854
419.2728	0.192
419.4775	0.1941
419.6822	0.1911
419.8868	0.1749
420.0915	0.1898
420.2961	0.1835
420.5007	0.1723
420.7053	0.1918
420.9099	0.1807
421.1144	0.1908
421.319	0.1665
421.5235	0.1798
421.728	0.1823
421.9325	0.1901
422.137	0.193
422.3415	0.1858
422.546	0.1756
422.7504	0.1765
422.9549	0.181
423.1593	0.2033
423.3637	0.1844
423.5681	0.1786
423.7725	0.1757
423.9769	0.1677
424.1812	0.1925
424.3856	0.1769
424.5899	0.177
424.7942	0.1643
424.9985	0.1827
425.2028	0.1596
425.4071	0.1912
425.6113	0.1579
425.8156	0.1705
426.0198	0.1708
426.224	0.1702
426.4282	0.1555
426.6324	0.1442
