Data from MonoPyChalIsomerACN10uM360nmA_Absorbance_13-57-24-104.txt Node
Date: Fri Jul 05 13:57:24 BST 2024
User: LASERRRRR
Spectrometer: FLMT03099
Trigger mode: 0
Integration Time (sec): 1.000000E-1
Scans to average: 1
Electric dark correction enabled: true
Nonlinearity correction enabled: false
Boxcar width: 0
XAxis mode: Wavelengths
Number of Pixels in Spectrum: 3648
>>>>>Begin Spectral Data<<<<<
179.3399	-0.2171
179.5586	-0.2171
179.7771	-0.2171
179.9957	0.7278
180.2143	0.1268
180.4329	0.1356
180.6514	0.4762
180.8699	1
181.0885	-0.1003
181.307	-0
181.5255	-0.5171
181.744	-0.358
181.9625	-0
182.181	-1.1473
182.3994	1.1657
182.6179	-0
182.8363	-0
183.0547	-0.1196
183.2732	0.0975
183.4916	0.1088
183.71	0.0442
183.9284	0.1291
184.1467	-0.0978
184.3651	-0.1062
184.5835	0.2394
184.8018	0.2058
185.0201	-0.1158
185.2385	0.009
185.4568	0.1624
185.6751	0.0044
185.8934	0.3331
186.1117	0.0181
186.3299	0.0331
186.5482	0.2064
186.7664	-0.1062
186.9847	0.0034
187.2029	0.2031
187.4211	0.0354
187.6393	0.2388
187.8575	0.1053
188.0757	0.3049
188.2939	0.1116
188.512	-0.0474
188.7302	-0.0242
188.9483	-0.1227
189.1665	0.1965
189.3846	0.0956
189.6027	0.054
189.8208	0.2936
190.0389	0.1633
190.257	0.2932
190.475	0.2379
190.6931	0.2169
190.9111	0.3676
191.1292	0.2241
191.3472	0.5913
191.5652	0.313
191.7832	0.2993
192.0012	0.4169
192.2192	0.4963
192.4371	0.4862
192.6551	0.3568
192.873	0.3416
193.091	0.4718
193.3089	0.419
193.5268	0.4255
193.7447	0.4795
193.9626	0.4608
194.1805	0.3819
194.3984	0.5509
194.6162	0.4655
194.8341	0.493
195.0519	0.789
195.2697	0.6263
195.4875	0.7742
195.7054	0.7778
195.9231	0.6257
196.1409	0.6663
196.3587	0.4406
196.5765	0.5041
196.7942	0.4498
197.012	0.5582
197.2297	0.5675
197.4474	0.6839
197.6651	0.3944
197.8828	0.4733
198.1005	0.6494
198.3182	0.6101
198.5358	0.6823
198.7535	0.6476
198.9711	0.5184
199.1888	0.6555
199.4064	0.7581
199.624	0.7015
199.8416	0.5424
200.0592	0.6563
200.2767	0.6162
200.4943	0.6486
200.7119	0.8751
200.9294	0.6685
201.1469	0.5968
201.3645	0.548
201.582	0.5414
201.7995	0.6199
202.017	0.6387
202.2344	0.6176
202.4519	0.7158
202.6694	0.6617
202.8868	0.5717
203.1042	0.674
203.3217	0.6286
203.5391	0.5893
203.7565	0.6277
203.9739	0.5259
204.1913	0.5652
204.4086	0.591
204.626	0.5849
204.8433	0.7046
205.0607	0.5779
205.278	0.6879
205.4953	0.6562
205.7126	0.5201
205.9299	0.821
206.1472	0.7395
206.3644	0.6477
206.5817	0.639
206.7989	0.6773
207.0162	0.7006
207.2334	0.6371
207.4506	0.6205
207.6678	0.6452
207.885	0.6867
208.1022	0.6625
208.3194	0.6005
208.5365	0.6395
208.7537	0.6948
208.9708	0.5022
209.1879	0.6624
209.405	0.6889
209.6222	0.6414
209.8392	0.5844
210.0563	0.5801
210.2734	0.6452
210.4905	0.6315
210.7075	0.6349
210.9245	0.5494
211.1416	0.6543
211.3586	0.5593
211.5756	0.5269
211.7926	0.5674
212.0096	0.536
212.2265	0.547
212.4435	0.5289
212.6604	0.5797
212.8774	0.6086
213.0943	0.5337
213.3112	0.5335
213.5281	0.5251
213.745	0.4947
213.9619	0.4843
214.1788	0.5203
214.3956	0.4491
214.6125	0.456
214.8293	0.4535
215.0461	0.4716
215.2629	0.4683
215.4798	0.4925
215.6965	0.4312
215.9133	0.4264
216.1301	0.4278
216.3469	0.4242
216.5636	0.4093
216.7803	0.3808
216.9971	0.4433
217.2138	0.3937
217.4305	0.3755
217.6472	0.3792
217.8639	0.3606
218.0805	0.3611
218.2972	0.3556
218.5138	0.3335
218.7305	0.3269
218.9471	0.3209
219.1637	0.2987
219.3803	0.2857
219.5969	0.2795
219.8135	0.2545
220.0301	0.2621
220.2466	0.2848
220.4632	0.2785
220.6797	0.2549
220.8962	0.256
221.1127	0.2655
221.3292	0.2627
221.5457	0.2478
221.7622	0.2425
221.9787	0.2644
222.1951	0.2419
222.4116	0.2605
222.628	0.2483
222.8444	0.268
223.0608	0.2309
223.2772	0.2774
223.4936	0.291
223.71	0.2587
223.9264	0.2888
224.1427	0.2617
224.3591	0.2544
224.5754	0.2847
224.7917	0.273
225.008	0.2699
225.2243	0.2775
225.4406	0.2945
225.6569	0.2629
225.8732	0.2554
226.0894	0.2912
226.3057	0.2636
226.5219	0.2805
226.7381	0.2791
226.9543	0.2828
227.1705	0.299
227.3867	0.2776
227.6029	0.3018
227.8191	0.3044
228.0352	0.2852
228.2513	0.3078
228.4675	0.3116
228.6836	0.3207
228.8997	0.3021
229.1158	0.331
229.3319	0.3016
229.548	0.3296
229.764	0.3399
229.9801	0.3235
230.1961	0.3417
230.4121	0.3354
230.6282	0.3212
230.8442	0.3218
231.0602	0.3464
231.2761	0.3773
231.4921	0.3392
231.7081	0.3575
231.924	0.3594
232.14	0.3755
232.3559	0.3453
232.5718	0.3689
232.7877	0.3511
233.0036	0.3522
233.2195	0.369
233.4353	0.3727
233.6512	0.3584
233.867	0.372
234.0829	0.3675
234.2987	0.3835
234.5145	0.3831
234.7303	0.3796
234.9461	0.4011
235.1619	0.4117
235.3776	0.3974
235.5934	0.3959
235.8091	0.3767
236.0249	0.3802
236.2406	0.3744
236.4563	0.3962
236.672	0.4107
236.8877	0.4138
237.1034	0.4129
237.319	0.4056
237.5347	0.4154
237.7503	0.4146
237.966	0.425
238.1816	0.4073
238.3972	0.4058
238.6128	0.3962
238.8284	0.4249
239.0439	0.3993
239.2595	0.3889
239.475	0.4173
239.6906	0.407
239.9061	0.4167
240.1216	0.399
240.3371	0.4324
240.5526	0.3991
240.7681	0.4001
240.9836	0.3796
241.199	0.403
241.4145	0.3905
241.6299	0.3857
241.8453	0.3756
242.0607	0.3905
242.2761	0.3534
242.4915	0.3556
242.7069	0.38
242.9223	0.3426
243.1376	0.3525
243.353	0.3452
243.5683	0.3526
243.7836	0.3128
243.9989	0.3294
244.2142	0.2991
244.4295	0.3111
244.6448	0.3137
244.86	0.2854
245.0753	0.2741
245.2905	0.2827
245.5057	0.2699
245.721	0.2717
245.9362	0.2665
246.1514	0.2543
246.3665	0.2555
246.5817	0.257
246.7969	0.2413
247.012	0.2419
247.2271	0.2344
247.4423	0.2345
247.6574	0.2432
247.8725	0.2242
248.0876	0.2204
248.3026	0.2171
248.5177	0.2172
248.7328	0.2202
248.9478	0.2163
249.1628	0.2094
249.3779	0.2169
249.5929	0.192
249.8079	0.2066
250.0228	0.1947
250.2378	0.1997
250.4528	0.1949
250.6677	0.1885
250.8827	0.1915
251.0976	0.1964
251.3125	0.1886
251.5274	0.163
251.7423	0.1863
251.9572	0.1892
252.172	0.1887
252.3869	0.1901
252.6017	0.1722
252.8166	0.1665
253.0314	0.174
253.2462	0.1797
253.461	0.1829
253.6758	0.1743
253.8906	0.1733
254.1053	0.1665
254.3201	0.1614
254.5348	0.1705
254.7496	0.1778
254.9643	0.1705
255.179	0.1677
255.3937	0.1721
255.6083	0.179
255.823	0.1707
256.0377	0.1576
256.2523	0.1729
256.467	0.1547
256.6816	0.1673
256.8962	0.1704
257.1108	0.1498
257.3254	0.1711
257.54	0.1732
257.7545	0.1662
257.9691	0.1785
258.1836	0.1678
258.3981	0.1777
258.6127	0.1673
258.8272	0.1623
259.0417	0.1659
259.2561	0.1686
259.4706	0.1706
259.6851	0.157
259.8995	0.1626
260.114	0.1564
260.3284	0.1651
260.5428	0.1596
260.7572	0.1663
260.9716	0.1618
261.186	0.1543
261.4003	0.177
261.6147	0.16
261.829	0.1708
262.0433	0.1713
262.2577	0.1596
262.472	0.1657
262.6863	0.1634
262.9005	0.1531
263.1148	0.1651
263.3291	0.1434
263.5433	0.1589
263.7576	0.1762
263.9718	0.1635
264.186	0.1651
264.4002	0.1668
264.6144	0.1601
264.8286	0.1641
265.0427	0.1673
265.2569	0.1606
265.471	0.1768
265.6851	0.1618
265.8993	0.162
266.1134	0.1492
266.3275	0.1553
266.5415	0.1536
266.7556	0.1604
266.9697	0.1543
267.1837	0.1592
267.3978	0.1632
267.6118	0.1726
267.8258	0.1816
268.0398	0.155
268.2538	0.1646
268.4677	0.1618
268.6817	0.147
268.8957	0.1551
269.1096	0.1542
269.3235	0.1632
269.5374	0.1525
269.7514	0.1524
269.9652	0.1483
270.1791	0.1461
270.393	0.1432
270.6068	0.1537
270.8207	0.1488
271.0345	0.1421
271.2483	0.1568
271.4622	0.1465
271.676	0.1519
271.8897	0.1407
272.1035	0.1384
272.3173	0.1314
272.531	0.1316
272.7448	0.1342
272.9585	0.1319
273.1722	0.1442
273.3859	0.148
273.5996	0.1311
273.8133	0.1404
274.0269	0.1417
274.2406	0.1345
274.4542	0.1433
274.6679	0.1301
274.8815	0.1426
275.0951	0.1388
275.3087	0.1395
275.5223	0.1396
275.7358	0.1435
275.9494	0.1349
276.1629	0.1294
276.3765	0.1404
276.59	0.1394
276.8035	0.1396
277.017	0.1425
277.2305	0.1389
277.444	0.1335
277.6574	0.1264
277.8709	0.1377
278.0843	0.1421
278.2978	0.125
278.5112	0.1431
278.7246	0.1357
278.938	0.1463
279.1513	0.1487
279.3647	0.1507
279.5781	0.132
279.7914	0.1393
280.0047	0.1528
280.2181	0.1502
280.4314	0.1459
280.6447	0.1468
280.8579	0.1319
281.0712	0.1489
281.2845	0.1435
281.4977	0.1458
281.711	0.1429
281.9242	0.1419
282.1374	0.154
282.3506	0.1471
282.5638	0.1459
282.7769	0.1548
282.9901	0.1397
283.2033	0.1527
283.4164	0.1544
283.6295	0.1429
283.8426	0.1577
284.0557	0.1517
284.2688	0.1687
284.4819	0.1556
284.695	0.1561
284.908	0.173
285.1211	0.1535
285.3341	0.1499
285.5471	0.1678
285.7601	0.1565
285.9731	0.1457
286.1861	0.1624
286.3991	0.1699
286.612	0.1702
286.825	0.1645
287.0379	0.1686
287.2508	0.1705
287.4637	0.1599
287.6766	0.1606
287.8895	0.1756
288.1024	0.1838
288.3152	0.1718
288.5281	0.1539
288.7409	0.1593
288.9538	0.1638
289.1666	0.1685
289.3794	0.17
289.5922	0.1601
289.8049	0.1476
290.0177	0.1611
290.2304	0.176
290.4432	0.1698
290.6559	0.1704
290.8686	0.1797
291.0813	0.17
291.294	0.1759
291.5067	0.1686
291.7194	0.1762
291.932	0.1772
292.1447	0.179
292.3573	0.1586
292.5699	0.171
292.7825	0.1729
292.9951	0.1695
293.2077	0.1711
293.4203	0.1751
293.6328	0.1552
293.8454	0.1818
294.0579	0.1799
294.2704	0.1688
294.4829	0.1609
294.6954	0.1577
294.9079	0.1775
295.1204	0.1738
295.3328	0.1696
295.5453	0.1751
295.7577	0.1767
295.9701	0.1649
296.1825	0.1794
296.3949	0.1767
296.6073	0.1728
296.8197	0.1657
297.0321	0.1783
297.2444	0.1585
297.4567	0.1699
297.6691	0.1725
297.8814	0.1618
298.0937	0.1662
298.306	0.1751
298.5182	0.1754
298.7305	0.1791
298.9428	0.1685
299.155	0.1758
299.3672	0.1758
299.5794	0.1613
299.7916	0.1688
300.0038	0.1795
300.216	0.1676
300.4282	0.1722
300.6403	0.1713
300.8525	0.179
301.0646	0.178
301.2767	0.1732
301.4888	0.1702
301.7009	0.1682
301.913	0.1723
302.125	0.1694
302.3371	0.1736
302.5491	0.1693
302.7612	0.1712
302.9732	0.1779
303.1852	0.1743
303.3972	0.1778
303.6092	0.1615
303.8211	0.1608
304.0331	0.1697
304.245	0.1567
304.457	0.1593
304.6689	0.1588
304.8808	0.1824
305.0927	0.1551
305.3046	0.1664
305.5164	0.1645
305.7283	0.1427
305.9401	0.1437
306.152	0.1614
306.3638	0.154
306.5756	0.1597
306.7874	0.165
306.9992	0.1643
307.2109	0.1524
307.4227	0.1389
307.6344	0.1506
307.8462	0.1405
308.0579	0.1451
308.2696	0.1341
308.4813	0.1379
308.693	0.1273
308.9046	0.1377
309.1163	0.1357
309.328	0.1266
309.5396	0.1218
309.7512	0.117
309.9628	0.1166
310.1744	0.1115
310.386	0.1215
310.5976	0.1244
310.8091	0.119
311.0207	0.1225
311.2322	0.1193
311.4437	0.1121
311.6552	0.1098
311.8667	0.1155
312.0782	0.0987
312.2897	0.1018
312.5012	0.1167
312.7126	0.1192
312.924	0.0999
313.1355	0.111
313.3469	0.1033
313.5583	0.1067
313.7696	0.1132
313.981	0.099
314.1924	0.1038
314.4037	0.0973
314.6151	0.1122
314.8264	0.0927
315.0377	0.1035
315.249	0.0908
315.4603	0.0996
315.6716	0.0996
315.8828	0.0951
316.0941	0.0945
316.3053	0.0884
316.5165	0.0933
316.7277	0.087
316.9389	0.1059
317.1501	0.0859
317.3613	0.0992
317.5724	0.0882
317.7836	0.0993
317.9947	0.0987
318.2058	0.0902
318.417	0.0889
318.6281	0.0859
318.8391	0.0899
319.0502	0.0811
319.2613	0.101
319.4723	0.0955
319.6834	0.1043
319.8944	0.0799
320.1054	0.0987
320.3164	0.0876
320.5274	0.0748
320.7383	0.0906
320.9493	0.0987
321.1602	0.1081
321.3712	0.0783
321.5821	0.0953
321.793	0.0868
322.0039	0.1039
322.2148	0.0902
322.4257	0.0983
322.6365	0.1069
322.8474	0.109
323.0582	0.097
323.269	0.1033
323.4798	0.1071
323.6906	0.1034
323.9014	0.0986
324.1122	0.0916
324.3229	0.0911
324.5337	0.0994
324.7444	0.0922
324.9551	0.1127
325.1658	0.1049
325.3765	0.0964
325.5872	0.0972
325.7979	0.095
326.0085	0.0952
326.2192	0.1009
326.4298	0.0975
326.6404	0.1019
326.851	0.0823
327.0616	0.0854
327.2722	0.0994
327.4828	0.1065
327.6933	0.0939
327.9039	0.0933
328.1144	0.1054
328.3249	0.1045
328.5354	0.0884
328.7459	0.0983
328.9564	0.0975
329.1669	0.0929
329.3773	0.0833
329.5878	0.0941
329.7982	0.1093
330.0086	0.0974
330.219	0.1078
330.4294	0.0935
330.6398	0.1125
330.8502	0.093
331.0605	0.108
331.2708	0.0937
331.4812	0.1054
331.6915	0.1075
331.9018	0.0965
332.1121	0.0987
332.3224	0.1054
332.5326	0.11
332.7429	0.0954
332.9531	0.114
333.1633	0.1044
333.3735	0.1028
333.5837	0.1068
333.7939	0.0978
334.0041	0.1039
334.2143	0.1063
334.4244	0.0982
334.6346	0.0893
334.8447	0.117
335.0548	0.0938
335.2649	0.1015
335.475	0.1033
335.685	0.0959
335.8951	0.1105
336.1051	0.101
336.3152	0.1148
336.5252	0.0961
336.7352	0.102
336.9452	0.1052
337.1552	0.1107
337.3652	0.1024
337.5751	0.1071
337.7851	0.1074
337.995	0.0971
338.2049	0.1097
338.4148	0.1036
338.6247	0.1221
338.8346	0.109
339.0445	0.0998
339.2543	0.0978
339.4642	0.1148
339.674	0.1043
339.8838	0.1063
340.0936	0.1118
340.3034	0.1202
340.5132	0.1139
340.7229	0.1075
340.9327	0.1104
341.1424	0.116
341.3522	0.1215
341.5619	0.1106
341.7716	0.1155
341.9813	0.1215
342.1909	0.1161
342.4006	0.1143
342.6102	0.1351
342.8199	0.119
343.0295	0.119
343.2391	0.1155
343.4487	0.1278
343.6583	0.1059
343.8679	0.1206
344.0774	0.1153
344.287	0.124
344.4965	0.1109
344.706	0.1245
344.9155	0.128
345.125	0.1221
345.3345	0.1245
345.544	0.1136
345.7534	0.1225
345.9629	0.1217
346.1723	0.1245
346.3817	0.1316
346.5911	0.1292
346.8005	0.1336
347.0099	0.1201
347.2193	0.1249
347.4286	0.1272
347.638	0.1411
347.8473	0.1302
348.0566	0.1291
348.2659	0.1337
348.4752	0.1317
348.6845	0.1215
348.8937	0.1273
349.103	0.1331
349.3122	0.1347
349.5214	0.1268
349.7306	0.1275
349.9398	0.143
350.149	0.1308
350.3582	0.1313
350.5674	0.1425
350.7765	0.1423
350.9856	0.1394
351.1948	0.137
351.4039	0.1221
351.613	0.1331
351.822	0.1444
352.0311	0.1429
352.2402	0.1372
352.4492	0.1463
352.6582	0.1518
352.8672	0.1429
353.0762	0.1501
353.2852	0.1368
353.4942	0.1285
353.7032	0.1536
353.9121	0.1454
354.1211	0.1568
354.33	0.1673
354.5389	0.1479
354.7478	0.1414
354.9567	0.1426
355.1655	0.1387
355.3744	0.1442
355.5833	0.1585
355.7921	0.1672
356.0009	0.1413
356.2097	0.1617
356.4185	0.1675
356.6273	0.1598
356.8361	0.1594
357.0448	0.156
357.2536	0.1437
357.4623	0.1489
357.671	0.1601
357.8797	0.1662
358.0884	0.1608
358.2971	0.1647
358.5057	0.159
358.7144	0.1581
358.923	0.165
359.1316	0.1632
359.3402	0.1581
359.5488	0.1678
359.7574	0.1729
359.966	0.1675
360.1746	0.1721
360.3831	0.1738
360.5916	0.1658
360.8002	0.167
361.0087	0.1862
361.2172	0.1828
361.4256	0.1744
361.6341	0.1883
361.8426	0.1831
362.051	0.1873
362.2594	0.1872
362.4678	0.1838
362.6762	0.2067
362.8846	0.1886
363.093	0.1873
363.3014	0.1731
363.5097	0.1733
363.718	0.1903
363.9264	0.1978
364.1347	0.174
364.343	0.2043
364.5513	0.2039
364.7595	0.2157
364.9678	0.1956
365.176	0.2028
365.3842	0.1941
365.5925	0.2046
365.8007	0.1976
366.0089	0.201
366.217	0.2097
366.4252	0.224
366.6333	0.2032
366.8415	0.2067
367.0496	0.1941
367.2577	0.2182
367.4658	0.2341
367.6739	0.2105
367.882	0.2246
368.09	0.2177
368.2981	0.215
368.5061	0.1943
368.7141	0.2143
368.9221	0.228
369.1301	0.2188
369.3381	0.2146
369.5461	0.2048
369.754	0.2172
369.962	0.2325
370.1699	0.2185
370.3778	0.2407
370.5857	0.2027
370.7936	0.2274
371.0015	0.2156
371.2093	0.2352
371.4172	0.2356
371.625	0.2174
371.8328	0.2346
372.0406	0.2291
372.2484	0.229
372.4562	0.2271
372.664	0.2329
372.8717	0.2394
373.0795	0.2146
373.2872	0.2426
373.4949	0.2365
373.7026	0.2479
373.9103	0.2458
374.118	0.2428
374.3256	0.248
374.5333	0.235
374.7409	0.2378
374.9485	0.252
375.1561	0.2525
375.3637	0.2477
375.5713	0.2537
375.7789	0.2463
375.9864	0.2405
376.194	0.2392
376.4015	0.2515
376.609	0.2543
376.8165	0.2531
377.024	0.2398
377.2315	0.2512
377.4389	0.252
377.6464	0.2627
377.8538	0.2472
378.0612	0.2455
378.2686	0.2539
378.476	0.2714
378.6834	0.257
378.8908	0.2572
379.0981	0.2746
379.3055	0.2527
379.5128	0.2569
379.7201	0.2618
379.9274	0.2657
380.1347	0.2641
380.342	0.2802
380.5492	0.2624
380.7565	0.2717
380.9637	0.2821
381.1709	0.2664
381.3781	0.2613
381.5853	0.2567
381.7925	0.2841
381.9997	0.2813
382.2068	0.2726
382.4139	0.2651
382.6211	0.2669
382.8282	0.2467
383.0353	0.2625
383.2424	0.275
383.4494	0.2777
383.6565	0.2674
383.8635	0.266
384.0706	0.2746
384.2776	0.2811
384.4846	0.2567
384.6916	0.2726
384.8986	0.2709
385.1055	0.2812
385.3125	0.2857
385.5194	0.262
385.7263	0.283
385.9333	0.2598
386.1402	0.2626
386.347	0.2767
386.5539	0.2706
386.7608	0.2893
386.9676	0.2628
387.1744	0.2611
387.3813	0.2554
387.5881	0.2771
387.7948	0.2704
388.0016	0.2825
388.2084	0.2813
388.4151	0.2504
388.6219	0.2769
388.8286	0.2469
389.0353	0.2861
389.242	0.2737
389.4487	0.2524
389.6553	0.2599
389.862	0.2469
390.0686	0.2504
390.2753	0.2801
390.4819	0.2637
390.6885	0.2523
390.8951	0.2807
391.1016	0.2594
391.3082	0.2448
391.5147	0.2684
391.7213	0.239
391.9278	0.2581
392.1343	0.2391
392.3408	0.2526
392.5473	0.2582
392.7537	0.2574
392.9602	0.2543
393.1666	0.251
393.373	0.2557
393.5794	0.259
393.7858	0.2425
393.9922	0.238
394.1986	0.2707
394.4049	0.2533
394.6113	0.2357
394.8176	0.2445
395.0239	0.242
395.2302	0.244
395.4365	0.2351
395.6428	0.238
395.8491	0.2158
396.0553	0.2422
396.2615	0.2391
396.4678	0.2324
396.674	0.2377
396.8802	0.242
397.0863	0.2396
397.2925	0.2164
397.4987	0.2372
397.7048	0.2183
397.9109	0.236
398.117	0.2413
398.3231	0.2415
398.5292	0.2417
398.7353	0.2441
398.9413	0.2379
399.1474	0.2303
399.3534	0.2237
399.5594	0.2117
399.7654	0.2509
399.9714	0.2318
400.1774	0.2311
400.3833	0.2248
400.5893	0.2143
400.7952	0.222
401.0011	0.2323
401.207	0.2369
401.4129	0.2398
401.6188	0.2551
401.8247	0.219
402.0305	0.2272
402.2364	0.2273
402.4422	0.2472
402.648	0.2313
402.8538	0.2564
403.0596	0.2292
403.2654	0.2307
403.4711	0.2125
403.6768	0.2168
403.8826	0.2329
404.0883	0.2351
404.294	0.2246
404.4997	0.2265
404.7054	0.2276
404.911	0.2039
405.1167	0.2225
405.3223	0.2453
405.5279	0.2428
405.7335	0.238
405.9391	0.2529
406.1447	0.2307
406.3502	0.2322
406.5558	0.2217
406.7613	0.2356
406.9668	0.2573
407.1724	0.2291
407.3778	0.2223
407.5833	0.2252
407.7888	0.2265
407.9942	0.2457
408.1997	0.2205
408.4051	0.2308
408.6105	0.2329
408.8159	0.2236
409.0213	0.2273
409.2267	0.2332
409.432	0.2239
409.6374	0.2406
409.8427	0.2382
410.048	0.2487
410.2533	0.236
410.4586	0.2284
410.6639	0.222
410.8691	0.2216
411.0744	0.2367
411.2796	0.2088
411.4848	0.2324
411.69	0.2158
411.8952	0.2358
412.1004	0.222
412.3056	0.2315
412.5107	0.2205
412.7158	0.2464
412.921	0.2218
413.1261	0.2176
413.3312	0.2298
413.5362	0.2153
413.7413	0.2275
413.9464	0.2099
414.1514	0.2221
414.3564	0.224
414.5614	0.217
414.7664	0.2215
414.9714	0.2079
415.1764	0.2124
415.3813	0.2281
415.5863	0.2238
415.7912	0.2414
415.9961	0.2191
416.201	0.2414
416.4059	0.2311
416.6108	0.2206
416.8156	0.2185
417.0205	0.2204
417.2253	0.205
417.4301	0.2145
417.6349	0.2144
417.8397	0.2314
418.0445	0.2263
418.2492	0.2346
418.454	0.2108
418.6587	0.2201
418.8634	0.227
419.0681	0.2164
419.2728	0.2314
419.4775	0.2057
419.6822	0.2072
419.8868	0.1973
420.0915	0.217
420.2961	0.2096
420.5007	0.1808
420.7053	0.2067
420.9099	0.2195
421.1144	0.2311
421.319	0.2044
421.5235	0.216
421.728	0.2146
421.9325	0.2239
422.137	0.2229
422.3415	0.2032
422.546	0.2066
422.7504	0.1967
422.9549	0.2198
423.1593	0.204
423.3637	0.2046
423.5681	0.2042
423.7725	0.2088
423.9769	0.1994
424.1812	0.194
424.3856	0.1734
424.5899	0.197
424.7942	0.2068
424.9985	0.1934
425.2028	0.189
425.4071	0.214
425.6113	0.1788
425.8156	0.2018
426.0198	0.1962
426.224	0.1742
426.4282	0.178
426.6324	0.1838
