Data from MonoPyChalIsomerACN10uM360nmA_Absorbance_13-57-25-604.txt Node
Date: Fri Jul 05 13:57:25 BST 2024
User: LASERRRRR
Spectrometer: FLMT03099
Trigger mode: 0
Integration Time (sec): 1.000000E-1
Scans to average: 1
Electric dark correction enabled: true
Nonlinearity correction enabled: false
Boxcar width: 0
XAxis mode: Wavelengths
Number of Pixels in Spectrum: 3648
>>>>>Begin Spectral Data<<<<<
179.3399	0.2483
179.5586	0.2483
179.7771	0.2483
179.9957	0.4109
180.2143	-0
180.4329	-0.1605
180.6514	-0
180.8699	-0
181.0885	-0.1117
181.307	-0.148
181.5255	-0.9374
181.744	-0.59
181.9625	-0
182.181	-0
182.3994	0.7594
182.6179	-0
182.8363	0.2842
183.0547	-0.4564
183.2732	-0.1102
183.4916	0.0976
183.71	-0.0694
183.9284	0.0445
184.1467	-0.1351
184.3651	0.0232
184.5835	-0.0755
184.8018	-0.0447
185.0201	0.067
185.2385	-0.2202
185.4568	0.0486
185.6751	0.1566
185.8934	0.6637
186.1117	0.0947
186.3299	0.1057
186.5482	-0.0056
186.7664	-0.0948
186.9847	-0.0912
187.2029	0.1878
187.4211	0.0286
187.6393	0.1335
187.8575	-0.1865
188.0757	0.3228
188.2939	0.1669
188.512	0.2098
188.7302	-0.051
188.9483	-0.098
189.1665	-0.0008
189.3846	-0.169
189.6027	0.4437
189.8208	0.2038
190.0389	0.0171
190.257	0.1461
190.475	0.3258
190.6931	0.1006
190.9111	0.2991
191.1292	0.1077
191.3472	0.4112
191.5652	0.2659
191.7832	0.1965
192.0012	0.5104
192.2192	0.3871
192.4371	0.336
192.6551	0.4394
192.873	0.5385
193.091	0.3322
193.3089	0.5967
193.5268	0.482
193.7447	0.6419
193.9626	0.4098
194.1805	0.5695
194.3984	0.8364
194.6162	0.4579
194.8341	0.4856
195.0519	0.4999
195.2697	0.9251
195.4875	0.6412
195.7054	0.5583
195.9231	0.3737
196.1409	0.6275
196.3587	0.5642
196.5765	0.6344
196.7942	0.473
197.012	0.5855
197.2297	0.4476
197.4474	0.8165
197.6651	0.49
197.8828	0.5314
198.1005	0.5821
198.3182	0.7415
198.5358	0.7779
198.7535	0.5745
198.9711	0.5463
199.1888	0.5626
199.4064	0.6785
199.624	0.5021
199.8416	0.5602
200.0592	0.6629
200.2767	0.6637
200.4943	0.6515
200.7119	0.7261
200.9294	0.6625
201.1469	0.6515
201.3645	0.5399
201.582	0.6178
201.7995	0.5634
202.017	0.57
202.2344	0.6446
202.4519	0.6069
202.6694	0.6458
202.8868	0.6072
203.1042	0.6662
203.3217	0.7763
203.5391	0.7389
203.7565	0.585
203.9739	0.5275
204.1913	0.6254
204.4086	0.497
204.626	0.7697
204.8433	0.6458
205.0607	0.5888
205.278	0.6424
205.4953	0.6013
205.7126	0.6653
205.9299	0.738
206.1472	0.7908
206.3644	0.6142
206.5817	0.6262
206.7989	0.7963
207.0162	0.5953
207.2334	0.7229
207.4506	0.5796
207.6678	0.5903
207.885	0.6332
208.1022	0.6388
208.3194	0.664
208.5365	0.5814
208.7537	0.6083
208.9708	0.5904
209.1879	0.7059
209.405	0.6762
209.6222	0.7754
209.8392	0.6179
210.0563	0.6196
210.2734	0.6133
210.4905	0.559
210.7075	0.5978
210.9245	0.6016
211.1416	0.6789
211.3586	0.5605
211.5756	0.6318
211.7926	0.5619
212.0096	0.5188
212.2265	0.5407
212.4435	0.5421
212.6604	0.6061
212.8774	0.5568
213.0943	0.5984
213.3112	0.5234
213.5281	0.5187
213.745	0.5289
213.9619	0.5347
214.1788	0.5239
214.3956	0.4614
214.6125	0.4798
214.8293	0.4297
215.0461	0.4647
215.2629	0.4626
215.4798	0.4909
215.6965	0.4312
215.9133	0.4709
216.1301	0.4297
216.3469	0.4396
216.5636	0.4321
216.7803	0.3844
216.9971	0.4009
217.2138	0.4081
217.4305	0.3593
217.6472	0.352
217.8639	0.3932
218.0805	0.3455
218.2972	0.3269
218.5138	0.3424
218.7305	0.3426
218.9471	0.3037
219.1637	0.2888
219.3803	0.3015
219.5969	0.2853
219.8135	0.249
220.0301	0.2726
220.2466	0.2987
220.4632	0.2858
220.6797	0.2353
220.8962	0.2713
221.1127	0.2726
221.3292	0.2567
221.5457	0.2734
221.7622	0.2465
221.9787	0.2614
222.1951	0.2444
222.4116	0.2718
222.628	0.2566
222.8444	0.2402
223.0608	0.2621
223.2772	0.2364
223.4936	0.2665
223.71	0.2627
223.9264	0.2601
224.1427	0.2592
224.3591	0.2575
224.5754	0.2686
224.7917	0.28
225.008	0.2753
225.2243	0.2704
225.4406	0.2799
225.6569	0.284
225.8732	0.2703
226.0894	0.2878
226.3057	0.2647
226.5219	0.3034
226.7381	0.2633
226.9543	0.2831
227.1705	0.2753
227.3867	0.2731
227.6029	0.2836
227.8191	0.2966
228.0352	0.2987
228.2513	0.3166
228.4675	0.3234
228.6836	0.3116
228.8997	0.3043
229.1158	0.3019
229.3319	0.3335
229.548	0.3137
229.764	0.3494
229.9801	0.3202
230.1961	0.3195
230.4121	0.3404
230.6282	0.3471
230.8442	0.3063
231.0602	0.3389
231.2761	0.3319
231.4921	0.3383
231.7081	0.3352
231.924	0.3407
232.14	0.3789
232.3559	0.3406
232.5718	0.3534
232.7877	0.343
233.0036	0.3587
233.2195	0.3607
233.4353	0.3718
233.6512	0.3785
233.867	0.3679
234.0829	0.361
234.2987	0.3771
234.5145	0.3789
234.7303	0.3687
234.9461	0.3963
235.1619	0.3861
235.3776	0.4045
235.5934	0.379
235.8091	0.3961
236.0249	0.3945
236.2406	0.4036
236.4563	0.3688
236.672	0.4079
236.8877	0.3964
237.1034	0.4038
237.319	0.3895
237.5347	0.4134
237.7503	0.4037
237.966	0.4225
238.1816	0.4009
238.3972	0.4122
238.6128	0.397
238.8284	0.4126
239.0439	0.4233
239.2595	0.3854
239.475	0.4352
239.6906	0.4146
239.9061	0.3941
240.1216	0.4201
240.3371	0.3996
240.5526	0.3909
240.7681	0.4257
240.9836	0.3818
241.199	0.4184
241.4145	0.3772
241.6299	0.3973
241.8453	0.3967
242.0607	0.3832
242.2761	0.3623
242.4915	0.38
242.7069	0.3715
242.9223	0.3627
243.1376	0.3545
243.353	0.3335
243.5683	0.3568
243.7836	0.3159
243.9989	0.3427
244.2142	0.3123
244.4295	0.3059
244.6448	0.3159
244.86	0.3024
245.0753	0.2928
245.2905	0.2861
245.5057	0.2728
245.721	0.264
245.9362	0.2648
246.1514	0.2743
246.3665	0.2553
246.5817	0.2574
246.7969	0.2487
247.012	0.2456
247.2271	0.2438
247.4423	0.2448
247.6574	0.2427
247.8725	0.2323
248.0876	0.2135
248.3026	0.216
248.5177	0.216
248.7328	0.2113
248.9478	0.1951
249.1628	0.2139
249.3779	0.2197
249.5929	0.1968
249.8079	0.218
250.0228	0.2052
250.2378	0.1918
250.4528	0.1908
250.6677	0.1765
250.8827	0.1862
251.0976	0.1879
251.3125	0.1888
251.5274	0.1785
251.7423	0.1864
251.9572	0.1866
252.172	0.1807
252.3869	0.1841
252.6017	0.1869
252.8166	0.1709
253.0314	0.1578
253.2462	0.1634
253.461	0.1717
253.6758	0.1754
253.8906	0.1847
254.1053	0.1735
254.3201	0.163
254.5348	0.1766
254.7496	0.1805
254.9643	0.1765
255.179	0.1673
255.3937	0.1617
255.6083	0.1683
255.823	0.1613
256.0377	0.1663
256.2523	0.1729
256.467	0.1615
256.6816	0.1726
256.8962	0.1715
257.1108	0.1605
257.3254	0.1708
257.54	0.1618
257.7545	0.1549
257.9691	0.1685
258.1836	0.1683
258.3981	0.1701
258.6127	0.1675
258.8272	0.1537
259.0417	0.1594
259.2561	0.1694
259.4706	0.1616
259.6851	0.169
259.8995	0.1606
260.114	0.168
260.3284	0.169
260.5428	0.1538
260.7572	0.1559
260.9716	0.1669
261.186	0.1617
261.4003	0.1589
261.6147	0.1674
261.829	0.1666
262.0433	0.1682
262.2577	0.1643
262.472	0.1691
262.6863	0.1583
262.9005	0.1586
263.1148	0.1533
263.3291	0.1496
263.5433	0.1614
263.7576	0.1587
263.9718	0.1678
264.186	0.1619
264.4002	0.1612
264.6144	0.1592
264.8286	0.1754
265.0427	0.1578
265.2569	0.159
265.471	0.157
265.6851	0.1509
265.8993	0.1667
266.1134	0.1575
266.3275	0.1621
266.5415	0.1521
266.7556	0.17
266.9697	0.157
267.1837	0.1789
267.3978	0.1601
267.6118	0.1705
267.8258	0.1718
268.0398	0.1523
268.2538	0.1687
268.4677	0.1632
268.6817	0.1654
268.8957	0.1672
269.1096	0.1537
269.3235	0.1594
269.5374	0.161
269.7514	0.1557
269.9652	0.1474
270.1791	0.1453
270.393	0.1563
270.6068	0.1531
270.8207	0.1529
271.0345	0.143
271.2483	0.1403
271.4622	0.1393
271.676	0.1515
271.8897	0.1397
272.1035	0.1371
272.3173	0.1388
272.531	0.1422
272.7448	0.1424
272.9585	0.1474
273.1722	0.1342
273.3859	0.1478
273.5996	0.1312
273.8133	0.1498
274.0269	0.1358
274.2406	0.1286
274.4542	0.1435
274.6679	0.1252
274.8815	0.1417
275.0951	0.1532
275.3087	0.1473
275.5223	0.1497
275.7358	0.1495
275.9494	0.1427
276.1629	0.1345
276.3765	0.1431
276.59	0.1454
276.8035	0.1445
277.017	0.1315
277.2305	0.1417
277.444	0.1603
277.6574	0.1337
277.8709	0.1417
278.0843	0.1357
278.2978	0.1461
278.5112	0.1373
278.7246	0.1423
278.938	0.144
279.1513	0.1528
279.3647	0.153
279.5781	0.1428
279.7914	0.1514
280.0047	0.1591
280.2181	0.1508
280.4314	0.1637
280.6447	0.1543
280.8579	0.1548
281.0712	0.1578
281.2845	0.161
281.4977	0.1475
281.711	0.1429
281.9242	0.149
282.1374	0.1522
282.3506	0.1506
282.5638	0.1493
282.7769	0.1544
282.9901	0.1512
283.2033	0.1516
283.4164	0.16
283.6295	0.1441
283.8426	0.1311
284.0557	0.1553
284.2688	0.1772
284.4819	0.1498
284.695	0.1603
284.908	0.1609
285.1211	0.1568
285.3341	0.1457
285.5471	0.1437
285.7601	0.1544
285.9731	0.1568
286.1861	0.1617
286.3991	0.1559
286.612	0.1665
286.825	0.1546
287.0379	0.1635
287.2508	0.1591
287.4637	0.1605
287.6766	0.1586
287.8895	0.168
288.1024	0.1707
288.3152	0.1631
288.5281	0.1665
288.7409	0.1745
288.9538	0.1584
289.1666	0.1612
289.3794	0.168
289.5922	0.1579
289.8049	0.1664
290.0177	0.1614
290.2304	0.1711
290.4432	0.1666
290.6559	0.1656
290.8686	0.1779
291.0813	0.1728
291.294	0.1721
291.5067	0.1755
291.7194	0.1626
291.932	0.1821
292.1447	0.1741
292.3573	0.169
292.5699	0.1721
292.7825	0.1636
292.9951	0.1629
293.2077	0.1777
293.4203	0.1744
293.6328	0.1507
293.8454	0.167
294.0579	0.1616
294.2704	0.1615
294.4829	0.1559
294.6954	0.1711
294.9079	0.1615
295.1204	0.1595
295.3328	0.1586
295.5453	0.1742
295.7577	0.1649
295.9701	0.1471
296.1825	0.1715
296.3949	0.1693
296.6073	0.1593
296.8197	0.1599
297.0321	0.1746
297.2444	0.1521
297.4567	0.1691
297.6691	0.1652
297.8814	0.1591
298.0937	0.1777
298.306	0.1719
298.5182	0.1712
298.7305	0.1694
298.9428	0.165
299.155	0.1751
299.3672	0.1708
299.5794	0.1644
299.7916	0.1615
300.0038	0.1602
300.216	0.1704
300.4282	0.1667
300.6403	0.1736
300.8525	0.1774
301.0646	0.1645
301.2767	0.1716
301.4888	0.1668
301.7009	0.1586
301.913	0.1681
302.125	0.1658
302.3371	0.1687
302.5491	0.1605
302.7612	0.1716
302.9732	0.1649
303.1852	0.1622
303.3972	0.158
303.6092	0.1673
303.8211	0.1652
304.0331	0.1742
304.245	0.159
304.457	0.1487
304.6689	0.16
304.8808	0.1708
305.0927	0.1461
305.3046	0.1536
305.5164	0.1589
305.7283	0.1507
305.9401	0.1577
306.152	0.1526
306.3638	0.1429
306.5756	0.1427
306.7874	0.1483
306.9992	0.1431
307.2109	0.1475
307.4227	0.1249
307.6344	0.1442
307.8462	0.1423
308.0579	0.1398
308.2696	0.1342
308.4813	0.1276
308.693	0.1341
308.9046	0.1351
309.1163	0.1331
309.328	0.1244
309.5396	0.1317
309.7512	0.1208
309.9628	0.1226
310.1744	0.1102
310.386	0.1139
310.5976	0.1261
310.8091	0.1105
311.0207	0.1194
311.2322	0.1234
311.4437	0.1091
311.6552	0.103
311.8667	0.1217
312.0782	0.0928
312.2897	0.1018
312.5012	0.1105
312.7126	0.1151
312.924	0.1004
313.1355	0.1131
313.3469	0.1094
313.5583	0.1076
313.7696	0.1115
313.981	0.1141
314.1924	0.0948
314.4037	0.0991
314.6151	0.1118
314.8264	0.1002
315.0377	0.0981
315.249	0.1085
315.4603	0.1056
315.6716	0.1011
315.8828	0.0946
316.0941	0.0939
316.3053	0.0966
316.5165	0.0914
316.7277	0.0964
316.9389	0.0964
317.1501	0.0886
317.3613	0.0931
317.5724	0.085
317.7836	0.0993
317.9947	0.0973
318.2058	0.0985
318.417	0.085
318.6281	0.0873
318.8391	0.0992
319.0502	0.0996
319.2613	0.0985
319.4723	0.0967
319.6834	0.1097
319.8944	0.0901
320.1054	0.0943
320.3164	0.1008
320.5274	0.0889
320.7383	0.0907
320.9493	0.1005
321.1602	0.1033
321.3712	0.081
321.5821	0.0992
321.793	0.0934
322.0039	0.0884
322.2148	0.0963
322.4257	0.0817
322.6365	0.0963
322.8474	0.0999
323.0582	0.0889
323.269	0.0963
323.4798	0.1125
323.6906	0.0987
323.9014	0.1033
324.1122	0.0945
324.3229	0.0882
324.5337	0.0982
324.7444	0.0981
324.9551	0.1186
325.1658	0.1013
325.3765	0.1043
325.5872	0.101
325.7979	0.0926
326.0085	0.107
326.2192	0.102
326.4298	0.102
326.6404	0.0953
326.851	0.0909
327.0616	0.0981
327.2722	0.1011
327.4828	0.1028
327.6933	0.0959
327.9039	0.1005
328.1144	0.1123
328.3249	0.1051
328.5354	0.0882
328.7459	0.1046
328.9564	0.098
329.1669	0.1015
329.3773	0.106
329.5878	0.108
329.7982	0.1
330.0086	0.0976
330.219	0.1034
330.4294	0.1008
330.6398	0.1014
330.8502	0.0918
331.0605	0.106
331.2708	0.1089
331.4812	0.1065
331.6915	0.1055
331.9018	0.1062
332.1121	0.0969
332.3224	0.1014
332.5326	0.1061
332.7429	0.1039
332.9531	0.114
333.1633	0.1056
333.3735	0.1093
333.5837	0.1146
333.7939	0.1016
334.0041	0.1127
334.2143	0.1069
334.4244	0.102
334.6346	0.0867
334.8447	0.1183
335.0548	0.103
335.2649	0.0958
335.475	0.1064
335.685	0.0921
335.8951	0.116
336.1051	0.1066
336.3152	0.1116
336.5252	0.0969
336.7352	0.1154
336.9452	0.1119
337.1552	0.113
337.3652	0.0978
337.5751	0.1067
337.7851	0.1198
337.995	0.1
338.2049	0.1104
338.4148	0.1123
338.6247	0.1094
338.8346	0.1118
339.0445	0.1024
339.2543	0.0994
339.4642	0.1074
339.674	0.103
339.8838	0.1342
340.0936	0.1107
340.3034	0.1153
340.5132	0.1104
340.7229	0.1058
340.9327	0.1132
341.1424	0.1127
341.3522	0.1264
341.5619	0.1198
341.7716	0.1097
341.9813	0.1263
342.1909	0.118
342.4006	0.1267
342.6102	0.1191
342.8199	0.1248
343.0295	0.1248
343.2391	0.1151
343.4487	0.1345
343.6583	0.1116
343.8679	0.1275
344.0774	0.1334
344.287	0.1253
344.4965	0.119
344.706	0.1293
344.9155	0.1248
345.125	0.1207
345.3345	0.1299
345.544	0.119
345.7534	0.1223
345.9629	0.1195
346.1723	0.1216
346.3817	0.1138
346.5911	0.1367
346.8005	0.1379
347.0099	0.1198
347.2193	0.1248
347.4286	0.1363
347.638	0.1388
347.8473	0.1336
348.0566	0.1338
348.2659	0.1377
348.4752	0.1354
348.6845	0.1226
348.8937	0.128
349.103	0.1349
349.3122	0.1245
349.5214	0.1278
349.7306	0.1364
349.9398	0.1457
350.149	0.1278
350.3582	0.1315
350.5674	0.1492
350.7765	0.1472
350.9856	0.1389
351.1948	0.1346
351.4039	0.1301
351.613	0.1437
351.822	0.1344
352.0311	0.142
352.2402	0.1352
352.4492	0.1549
352.6582	0.144
352.8672	0.1291
353.0762	0.1464
353.2852	0.1458
353.4942	0.1334
353.7032	0.154
353.9121	0.1402
354.1211	0.1496
354.33	0.1484
354.5389	0.1593
354.7478	0.1525
354.9567	0.1485
355.1655	0.1395
355.3744	0.1445
355.5833	0.1495
355.7921	0.1595
356.0009	0.1459
356.2097	0.1715
356.4185	0.1664
356.6273	0.1629
356.8361	0.1659
357.0448	0.1487
357.2536	0.1531
357.4623	0.1586
357.671	0.1636
357.8797	0.1662
358.0884	0.1656
358.2971	0.1567
358.5057	0.1685
358.7144	0.168
358.923	0.1573
359.1316	0.1751
359.3402	0.1547
359.5488	0.1616
359.7574	0.1634
359.966	0.1575
360.1746	0.1881
360.3831	0.1707
360.5916	0.1651
360.8002	0.169
361.0087	0.1763
361.2172	0.1798
361.4256	0.1685
361.6341	0.1876
361.8426	0.1814
362.051	0.1961
362.2594	0.171
362.4678	0.1762
362.6762	0.2006
362.8846	0.1924
363.093	0.1791
363.3014	0.1795
363.5097	0.177
363.718	0.1976
363.9264	0.1862
364.1347	0.1819
364.343	0.2012
364.5513	0.1989
364.7595	0.2035
364.9678	0.1913
365.176	0.194
365.3842	0.1983
365.5925	0.189
365.8007	0.1955
366.0089	0.2083
366.217	0.1888
366.4252	0.2021
366.6333	0.2153
366.8415	0.2041
367.0496	0.1973
367.2577	0.218
367.4658	0.2133
367.6739	0.2127
367.882	0.1984
368.09	0.2096
368.2981	0.2085
368.5061	0.2023
368.7141	0.2143
368.9221	0.2134
369.1301	0.2042
369.3381	0.2137
369.5461	0.2017
369.754	0.2252
369.962	0.2314
370.1699	0.2092
370.3778	0.2198
370.5857	0.2076
370.7936	0.2068
371.0015	0.2234
371.2093	0.2246
371.4172	0.2322
371.625	0.2004
371.8328	0.2126
372.0406	0.2246
372.2484	0.2255
372.4562	0.2271
372.664	0.2342
372.8717	0.2381
373.0795	0.2043
373.2872	0.2304
373.4949	0.2224
373.7026	0.2395
373.9103	0.2293
374.118	0.2442
374.3256	0.231
374.5333	0.2136
374.7409	0.2219
374.9485	0.2313
375.1561	0.2345
375.3637	0.251
375.5713	0.2301
375.7789	0.2312
375.9864	0.2584
376.194	0.2586
376.4015	0.2473
376.609	0.2545
376.8165	0.2386
377.024	0.2404
377.2315	0.2374
377.4389	0.2236
377.6464	0.2528
377.8538	0.2391
378.0612	0.2451
378.2686	0.2497
378.476	0.2511
378.6834	0.2382
378.8908	0.252
379.0981	0.2516
379.3055	0.2537
379.5128	0.244
379.7201	0.2493
379.9274	0.2537
380.1347	0.2552
380.342	0.2701
380.5492	0.2513
380.7565	0.2647
380.9637	0.2636
381.1709	0.2509
381.3781	0.2406
381.5853	0.2544
381.7925	0.2654
381.9997	0.2396
382.2068	0.2669
382.4139	0.2605
382.6211	0.2442
382.8282	0.2661
383.0353	0.268
383.2424	0.243
383.4494	0.2697
383.6565	0.2587
383.8635	0.2648
384.0706	0.2741
384.2776	0.256
384.4846	0.255
384.6916	0.269
384.8986	0.2606
385.1055	0.2584
385.3125	0.2657
385.5194	0.243
385.7263	0.2825
385.9333	0.2491
386.1402	0.2471
386.347	0.2609
386.5539	0.2413
386.7608	0.2692
386.9676	0.2429
387.1744	0.2639
387.3813	0.252
387.5881	0.2523
387.7948	0.2598
388.0016	0.2477
388.2084	0.2553
388.4151	0.2464
388.6219	0.2701
388.8286	0.2717
389.0353	0.2664
389.242	0.2558
389.4487	0.2519
389.6553	0.2483
389.862	0.2407
390.0686	0.2489
390.2753	0.2743
390.4819	0.2557
390.6885	0.2579
390.8951	0.2483
391.1016	0.2477
391.3082	0.2448
391.5147	0.2569
391.7213	0.2294
391.9278	0.2266
392.1343	0.2358
392.3408	0.2573
392.5473	0.2314
392.7537	0.2362
392.9602	0.2243
393.1666	0.2417
393.373	0.2261
393.5794	0.2473
393.7858	0.2236
393.9922	0.2268
394.1986	0.2521
394.4049	0.2444
394.6113	0.2312
394.8176	0.2228
395.0239	0.2137
395.2302	0.2183
395.4365	0.2385
395.6428	0.2407
395.8491	0.211
396.0553	0.2318
396.2615	0.2139
396.4678	0.2275
396.674	0.216
396.8802	0.2253
397.0863	0.2409
397.2925	0.2237
397.4987	0.2257
397.7048	0.2018
397.9109	0.2232
398.117	0.2186
398.3231	0.2302
398.5292	0.2275
398.7353	0.2234
398.9413	0.2228
399.1474	0.2095
399.3534	0.2038
399.5594	0.2082
399.7654	0.227
399.9714	0.2414
400.1774	0.2055
400.3833	0.2188
400.5893	0.2244
400.7952	0.2241
401.0011	0.2086
401.207	0.2205
401.4129	0.2305
401.6188	0.2221
401.8247	0.2199
402.0305	0.2188
402.2364	0.2152
402.4422	0.2376
402.648	0.2276
402.8538	0.2386
403.0596	0.2135
403.2654	0.2307
403.4711	0.239
403.6768	0.2228
403.8826	0.2222
404.0883	0.2085
404.294	0.2311
404.4997	0.2097
404.7054	0.2215
404.911	0.1995
405.1167	0.2241
405.3223	0.2133
405.5279	0.2192
405.7335	0.2338
405.9391	0.2327
406.1447	0.2289
406.3502	0.2392
406.5558	0.2171
406.7613	0.2145
406.9668	0.2208
407.1724	0.2168
407.3778	0.2141
407.5833	0.2062
407.7888	0.2124
407.9942	0.2327
408.1997	0.2024
408.4051	0.2102
408.6105	0.2243
408.8159	0.2157
409.0213	0.2103
409.2267	0.2305
409.432	0.2236
409.6374	0.2223
409.8427	0.2037
410.048	0.22
410.2533	0.2156
410.4586	0.2222
410.6639	0.1924
410.8691	0.2071
411.0744	0.228
411.2796	0.214
411.4848	0.2097
411.69	0.2142
411.8952	0.2397
412.1004	0.2064
412.3056	0.2295
412.5107	0.2029
412.7158	0.2333
412.921	0.2119
413.1261	0.221
413.3312	0.2079
413.5362	0.2193
413.7413	0.2075
413.9464	0.2104
414.1514	0.1999
414.3564	0.2225
414.5614	0.1845
414.7664	0.2097
414.9714	0.2284
415.1764	0.2272
415.3813	0.2459
415.5863	0.2113
415.7912	0.2134
415.9961	0.2037
416.201	0.2151
416.4059	0.2207
416.6108	0.1921
416.8156	0.216
417.0205	0.2175
417.2253	0.1959
417.4301	0.2298
417.6349	0.1957
417.8397	0.2067
418.0445	0.2025
418.2492	0.2077
418.454	0.2082
418.6587	0.2117
418.8634	0.2121
419.0681	0.1925
419.2728	0.1943
419.4775	0.191
419.6822	0.2072
419.8868	0.1847
420.0915	0.215
420.2961	0.1919
420.5007	0.1909
420.7053	0.2071
420.9099	0.2056
421.1144	0.2024
421.319	0.1902
421.5235	0.1936
421.728	0.2053
421.9325	0.198
422.137	0.199
422.3415	0.1946
422.546	0.187
422.7504	0.2001
422.9549	0.1967
423.1593	0.1975
423.3637	0.1983
423.5681	0.1838
423.7725	0.1846
423.9769	0.1865
424.1812	0.1702
424.3856	0.172
424.5899	0.1919
424.7942	0.173
424.9985	0.1791
425.2028	0.1904
425.4071	0.2026
425.6113	0.173
425.8156	0.1821
426.0198	0.1798
426.224	0.1797
426.4282	0.1648
