Data from MonoPyChalIsomerACN10uM360nmA_Absorbance_13-57-28-304.txt Node
Date: Fri Jul 05 13:57:28 BST 2024
User: LASERRRRR
Spectrometer: FLMT03099
Trigger mode: 0
Integration Time (sec): 1.000000E-1
Scans to average: 1
Electric dark correction enabled: true
Nonlinearity correction enabled: false
Boxcar width: 0
XAxis mode: Wavelengths
Number of Pixels in Spectrum: 3648
>>>>>Begin Spectral Data<<<<<
179.3399	-0.1214
179.5586	-0.1214
179.7771	-0.1214
179.9957	0.0739
180.2143	-0
180.4329	-0.1994
180.6514	-0
180.8699	-0
181.0885	-0.2343
181.307	-0.0115
181.5255	-0.083
181.744	-0.5302
181.9625	-0
182.181	-0
182.3994	1.2421
182.6179	1.9777
182.8363	1.4624
183.0547	-0.3402
183.2732	0.4921
183.4916	0.0337
183.71	0.0467
183.9284	0.0521
184.1467	0.0989
184.3651	-0.0438
184.5835	-0.0882
184.8018	-0.0519
185.0201	0.3392
185.2385	0.1118
185.4568	0.0847
185.6751	0.051
185.8934	-0.0205
186.1117	0.0126
186.3299	0.2021
186.5482	-0.1191
186.7664	-0.1468
186.9847	0.0818
187.2029	0.2277
187.4211	0.2138
187.6393	0.1678
187.8575	-0.192
188.0757	0.1996
188.2939	0.1242
188.512	-0.0132
188.7302	-0.1291
188.9483	-0.1341
189.1665	0.1407
189.3846	0.0737
189.6027	0.1673
189.8208	0.2156
190.0389	0.0407
190.257	0.0936
190.475	0.0499
190.6931	0.4571
190.9111	0.6346
191.1292	0.1353
191.3472	0.314
191.5652	0.3309
191.7832	0.0635
192.0012	0.5075
192.2192	0.4387
192.4371	0.6205
192.6551	0.2701
192.873	0.3276
193.091	0.5071
193.3089	0.5768
193.5268	0.5562
193.7447	0.4893
193.9626	0.3893
194.1805	0.4681
194.3984	1.4866
194.6162	0.4346
194.8341	0.5348
195.0519	0.4846
195.2697	0.5324
195.4875	0.6238
195.7054	0.6453
195.9231	0.4758
196.1409	0.6255
196.3587	0.6829
196.5765	0.6407
196.7942	0.6452
197.012	0.5041
197.2297	0.5346
197.4474	0.6918
197.6651	0.562
197.8828	0.5884
198.1005	0.5842
198.3182	0.5919
198.5358	0.7716
198.7535	0.4984
198.9711	0.6293
199.1888	0.5616
199.4064	0.7056
199.624	0.7655
199.8416	0.5831
200.0592	0.8497
200.2767	0.6352
200.4943	0.5715
200.7119	0.7906
200.9294	0.6383
201.1469	0.5562
201.3645	0.5659
201.582	0.5297
201.7995	0.6899
202.017	0.5506
202.2344	0.5867
202.4519	0.6106
202.6694	0.6421
202.8868	0.6744
203.1042	0.7173
203.3217	0.8063
203.5391	0.7085
203.7565	0.5823
203.9739	0.5236
204.1913	0.539
204.4086	0.6617
204.626	0.6667
204.8433	0.6766
205.0607	0.6204
205.278	0.7064
205.4953	0.6384
205.7126	0.7228
205.9299	0.7497
206.1472	0.61
206.3644	0.5791
206.5817	0.4978
206.7989	0.6671
207.0162	0.6678
207.2334	0.6242
207.4506	0.658
207.6678	0.6377
207.885	0.7422
208.1022	0.6333
208.3194	0.626
208.5365	0.6088
208.7537	0.5964
208.9708	0.5871
209.1879	0.6104
209.405	0.6233
209.6222	0.6217
209.8392	0.6442
210.0563	0.6295
210.2734	0.6583
210.4905	0.6366
210.7075	0.5864
210.9245	0.5939
211.1416	0.6582
211.3586	0.6178
211.5756	0.607
211.7926	0.6135
212.0096	0.6343
212.2265	0.5331
212.4435	0.568
212.6604	0.5853
212.8774	0.5798
213.0943	0.5534
213.3112	0.5492
213.5281	0.5147
213.745	0.4451
213.9619	0.5061
214.1788	0.4822
214.3956	0.4706
214.6125	0.4773
214.8293	0.433
215.0461	0.4839
215.2629	0.5018
215.4798	0.4744
215.6965	0.4156
215.9133	0.4382
216.1301	0.4192
216.3469	0.3971
216.5636	0.4127
216.7803	0.3907
216.9971	0.417
217.2138	0.3676
217.4305	0.3785
217.6472	0.3498
217.8639	0.3772
218.0805	0.3711
218.2972	0.3254
218.5138	0.3134
218.7305	0.3208
218.9471	0.2895
219.1637	0.3086
219.3803	0.2822
219.5969	0.2953
219.8135	0.2562
220.0301	0.2677
220.2466	0.2766
220.4632	0.2375
220.6797	0.259
220.8962	0.2469
221.1127	0.2531
221.3292	0.2651
221.5457	0.248
221.7622	0.2558
221.9787	0.2616
222.1951	0.2557
222.4116	0.2769
222.628	0.2464
222.8444	0.2852
223.0608	0.2601
223.2772	0.2597
223.4936	0.2599
223.71	0.2421
223.9264	0.2766
224.1427	0.2591
224.3591	0.2654
224.5754	0.2688
224.7917	0.2678
225.008	0.2594
225.2243	0.2648
225.4406	0.2983
225.6569	0.2821
225.8732	0.269
226.0894	0.249
226.3057	0.2746
226.5219	0.2793
226.7381	0.2767
226.9543	0.2907
227.1705	0.2788
227.3867	0.2766
227.6029	0.2997
227.8191	0.3057
228.0352	0.2944
228.2513	0.3115
228.4675	0.312
228.6836	0.3054
228.8997	0.2958
229.1158	0.32
229.3319	0.2961
229.548	0.3238
229.764	0.3433
229.9801	0.3254
230.1961	0.3304
230.4121	0.3237
230.6282	0.3297
230.8442	0.3217
231.0602	0.3619
231.2761	0.3481
231.4921	0.3449
231.7081	0.3411
231.924	0.3395
232.14	0.3681
232.3559	0.3554
232.5718	0.3665
232.7877	0.3574
233.0036	0.3603
233.2195	0.3711
233.4353	0.3529
233.6512	0.3652
233.867	0.3567
234.0829	0.3716
234.2987	0.3655
234.5145	0.367
234.7303	0.3812
234.9461	0.3779
235.1619	0.3759
235.3776	0.374
235.5934	0.3878
235.8091	0.3601
236.0249	0.3642
236.2406	0.3919
236.4563	0.3661
236.672	0.3999
236.8877	0.4097
237.1034	0.4237
237.319	0.4006
237.5347	0.4073
237.7503	0.3837
237.966	0.4062
238.1816	0.4094
238.3972	0.4041
238.6128	0.4177
238.8284	0.4003
239.0439	0.4194
239.2595	0.4219
239.475	0.4183
239.6906	0.4085
239.9061	0.4023
240.1216	0.4081
240.3371	0.4287
240.5526	0.3918
240.7681	0.4383
240.9836	0.4075
241.199	0.4207
241.4145	0.3877
241.6299	0.3838
241.8453	0.3848
242.0607	0.3848
242.2761	0.3695
242.4915	0.3646
242.7069	0.357
242.9223	0.3675
243.1376	0.3695
243.353	0.3552
243.5683	0.3468
243.7836	0.3377
243.9989	0.3362
244.2142	0.3166
244.4295	0.3164
244.6448	0.3222
244.86	0.3023
245.0753	0.2803
245.2905	0.2987
245.5057	0.2668
245.721	0.2778
245.9362	0.2783
246.1514	0.2699
246.3665	0.2709
246.5817	0.2596
246.7969	0.258
247.012	0.2496
247.2271	0.2296
247.4423	0.2532
247.6574	0.2371
247.8725	0.2327
248.0876	0.2096
248.3026	0.2331
248.5177	0.2173
248.7328	0.2131
248.9478	0.2096
249.1628	0.2257
249.3779	0.2168
249.5929	0.2043
249.8079	0.222
250.0228	0.2094
250.2378	0.2118
250.4528	0.1962
250.6677	0.1774
250.8827	0.1917
251.0976	0.1926
251.3125	0.1952
251.5274	0.1789
251.7423	0.1811
251.9572	0.1845
252.172	0.1765
252.3869	0.1848
252.6017	0.1799
252.8166	0.1747
253.0314	0.178
253.2462	0.1618
253.461	0.1744
253.6758	0.1681
253.8906	0.1818
254.1053	0.1722
254.3201	0.1833
254.5348	0.1878
254.7496	0.1916
254.9643	0.176
255.179	0.183
255.3937	0.1673
255.6083	0.1584
255.823	0.1767
256.0377	0.1633
256.2523	0.182
256.467	0.1554
256.6816	0.1739
256.8962	0.161
257.1108	0.1562
257.3254	0.178
257.54	0.1687
257.7545	0.1691
257.9691	0.1769
258.1836	0.1715
258.3981	0.1708
258.6127	0.1735
258.8272	0.1602
259.0417	0.1673
259.2561	0.1673
259.4706	0.17
259.6851	0.1592
259.8995	0.166
260.114	0.1532
260.3284	0.1671
260.5428	0.1715
260.7572	0.1607
260.9716	0.1726
261.186	0.1538
261.4003	0.1696
261.6147	0.1614
261.829	0.1688
262.0433	0.1531
262.2577	0.1614
262.472	0.1701
262.6863	0.1565
262.9005	0.1572
263.1148	0.1656
263.3291	0.1266
263.5433	0.1618
263.7576	0.1668
263.9718	0.1665
264.186	0.1627
264.4002	0.1521
264.6144	0.1617
264.8286	0.1639
265.0427	0.1565
265.2569	0.1549
265.471	0.1497
265.6851	0.1623
265.8993	0.1459
266.1134	0.1494
266.3275	0.1604
266.5415	0.1665
266.7556	0.1677
266.9697	0.146
267.1837	0.1609
267.3978	0.1608
267.6118	0.1739
267.8258	0.1676
268.0398	0.1607
268.2538	0.1616
268.4677	0.1663
268.6817	0.145
268.8957	0.1612
269.1096	0.1662
269.3235	0.155
269.5374	0.1486
269.7514	0.1589
269.9652	0.1471
270.1791	0.1544
270.393	0.1409
270.6068	0.1506
270.8207	0.1467
271.0345	0.1508
271.2483	0.1606
271.4622	0.1487
271.676	0.1624
271.8897	0.1551
272.1035	0.1537
272.3173	0.1434
272.531	0.1424
272.7448	0.1503
272.9585	0.136
273.1722	0.1489
273.3859	0.1547
273.5996	0.1353
273.8133	0.1465
274.0269	0.1467
274.2406	0.1453
274.4542	0.142
274.6679	0.1421
274.8815	0.1386
275.0951	0.156
275.3087	0.1534
275.5223	0.1491
275.7358	0.1419
275.9494	0.1332
276.1629	0.1382
276.3765	0.1573
276.59	0.1552
276.8035	0.1423
277.017	0.1448
277.2305	0.143
277.444	0.1454
277.6574	0.1429
277.8709	0.1471
278.0843	0.1388
278.2978	0.1516
278.5112	0.1459
278.7246	0.1445
278.938	0.154
279.1513	0.1519
279.3647	0.1682
279.5781	0.1501
279.7914	0.1514
280.0047	0.1558
280.2181	0.1569
280.4314	0.1546
280.6447	0.1517
280.8579	0.1508
281.0712	0.1634
281.2845	0.16
281.4977	0.1529
281.711	0.1384
281.9242	0.1616
282.1374	0.1621
282.3506	0.1409
282.5638	0.16
282.7769	0.1637
282.9901	0.1605
283.2033	0.1612
283.4164	0.1552
283.6295	0.1573
283.8426	0.1533
284.0557	0.1587
284.2688	0.1697
284.4819	0.1571
284.695	0.1612
284.908	0.1622
285.1211	0.1416
285.3341	0.1739
285.5471	0.1622
285.7601	0.1563
285.9731	0.1564
286.1861	0.1481
286.3991	0.1703
286.612	0.1607
286.825	0.1565
287.0379	0.1691
287.2508	0.1668
287.4637	0.1622
287.6766	0.157
287.8895	0.1674
288.1024	0.1741
288.3152	0.1662
288.5281	0.1545
288.7409	0.1539
288.9538	0.1638
289.1666	0.1619
289.3794	0.1671
289.5922	0.1566
289.8049	0.1744
290.0177	0.1619
290.2304	0.1709
290.4432	0.163
290.6559	0.1658
290.8686	0.1683
291.0813	0.169
291.294	0.1685
291.5067	0.1738
291.7194	0.1594
291.932	0.1724
292.1447	0.1634
292.3573	0.1609
292.5699	0.1694
292.7825	0.1796
292.9951	0.1614
293.2077	0.167
293.4203	0.1533
293.6328	0.166
293.8454	0.1663
294.0579	0.1722
294.2704	0.163
294.4829	0.1509
294.6954	0.1654
294.9079	0.1677
295.1204	0.1744
295.3328	0.1684
295.5453	0.1719
295.7577	0.1643
295.9701	0.1468
296.1825	0.1615
296.3949	0.1658
296.6073	0.1605
296.8197	0.1544
297.0321	0.1651
297.2444	0.1638
297.4567	0.1664
297.6691	0.175
297.8814	0.1644
298.0937	0.1673
298.306	0.1695
298.5182	0.1599
298.7305	0.1739
298.9428	0.1603
299.155	0.1671
299.3672	0.1684
299.5794	0.1491
299.7916	0.1526
300.0038	0.1673
300.216	0.161
300.4282	0.1711
300.6403	0.1598
300.8525	0.1704
301.0646	0.1592
301.2767	0.1662
301.4888	0.158
301.7009	0.1641
301.913	0.1625
302.125	0.1628
302.3371	0.1607
302.5491	0.1684
302.7612	0.1642
302.9732	0.1703
303.1852	0.1646
303.3972	0.1582
303.6092	0.1613
303.8211	0.1539
304.0331	0.1478
304.245	0.1417
304.457	0.143
304.6689	0.164
304.8808	0.1653
305.0927	0.149
305.3046	0.1548
305.5164	0.1538
305.7283	0.1478
305.9401	0.147
306.152	0.1442
306.3638	0.1518
306.5756	0.1438
306.7874	0.1504
306.9992	0.1521
307.2109	0.1532
307.4227	0.1358
307.6344	0.139
307.8462	0.1382
308.0579	0.1269
308.2696	0.1329
308.4813	0.1341
308.693	0.1243
308.9046	0.1435
309.1163	0.1317
309.328	0.129
309.5396	0.1206
309.7512	0.1199
309.9628	0.1295
310.1744	0.1279
310.386	0.1175
310.5976	0.1119
310.8091	0.1223
311.0207	0.1138
311.2322	0.1191
311.4437	0.1092
311.6552	0.1144
311.8667	0.1253
312.0782	0.1039
312.2897	0.0994
312.5012	0.1103
312.7126	0.1047
312.924	0.1023
313.1355	0.1238
313.3469	0.1047
313.5583	0.1047
313.7696	0.0966
313.981	0.1119
314.1924	0.1021
314.4037	0.1118
314.6151	0.1086
314.8264	0.0879
315.0377	0.0976
315.249	0.0974
315.4603	0.1131
315.6716	0.0946
315.8828	0.0972
316.0941	0.1089
316.3053	0.1019
316.5165	0.1054
316.7277	0.0908
316.9389	0.1033
317.1501	0.0942
317.3613	0.1064
317.5724	0.0864
317.7836	0.0935
317.9947	0.1014
318.2058	0.1029
318.417	0.099
318.6281	0.0898
318.8391	0.0932
319.0502	0.0917
319.2613	0.0998
319.4723	0.094
319.6834	0.0987
319.8944	0.0805
320.1054	0.1002
320.3164	0.1074
320.5274	0.0785
320.7383	0.0947
320.9493	0.0973
321.1602	0.1026
321.3712	0.0892
321.5821	0.1016
321.793	0.1002
322.0039	0.1004
322.2148	0.0938
322.4257	0.1073
322.6365	0.1171
322.8474	0.1031
323.0582	0.0974
323.269	0.1034
323.4798	0.1066
323.6906	0.0952
323.9014	0.1151
324.1122	0.0977
324.3229	0.0975
324.5337	0.097
324.7444	0.0901
324.9551	0.1133
325.1658	0.1037
325.3765	0.1023
325.5872	0.1005
325.7979	0.1128
326.0085	0.1024
326.2192	0.1051
326.4298	0.0966
326.6404	0.0961
326.851	0.0928
327.0616	0.0956
327.2722	0.1076
327.4828	0.1197
327.6933	0.0966
327.9039	0.1082
328.1144	0.1102
328.3249	0.1069
328.5354	0.0977
328.7459	0.1026
328.9564	0.1047
329.1669	0.1066
329.3773	0.111
329.5878	0.0979
329.7982	0.1067
330.0086	0.11
330.219	0.109
330.4294	0.1042
330.6398	0.1048
330.8502	0.0947
331.0605	0.1152
331.2708	0.1115
331.4812	0.1126
331.6915	0.1105
331.9018	0.111
332.1121	0.0993
332.3224	0.1003
332.5326	0.1098
332.7429	0.1072
332.9531	0.1213
333.1633	0.1135
333.3735	0.1116
333.5837	0.0976
333.7939	0.0949
334.0041	0.1145
334.2143	0.1087
334.4244	0.1072
334.6346	0.0879
334.8447	0.1203
335.0548	0.1153
335.2649	0.0891
335.475	0.1158
335.685	0.107
335.8951	0.1244
336.1051	0.1171
336.3152	0.1299
336.5252	0.1092
336.7352	0.1075
336.9452	0.1054
337.1552	0.1201
337.3652	0.1039
337.5751	0.1105
337.7851	0.1088
337.995	0.1085
338.2049	0.1099
338.4148	0.105
338.6247	0.1041
338.8346	0.1112
339.0445	0.0968
339.2543	0.1089
339.4642	0.1076
339.674	0.1083
339.8838	0.1173
340.0936	0.1259
340.3034	0.1282
340.5132	0.1162
340.7229	0.1207
340.9327	0.1191
341.1424	0.1121
341.3522	0.1291
341.5619	0.1177
341.7716	0.1134
341.9813	0.1216
342.1909	0.1207
342.4006	0.1309
342.6102	0.1276
342.8199	0.1203
343.0295	0.1266
343.2391	0.1212
343.4487	0.1314
343.6583	0.1265
343.8679	0.1204
344.0774	0.1351
344.287	0.1246
344.4965	0.1235
344.706	0.1245
344.9155	0.1331
345.125	0.1332
345.3345	0.1211
345.544	0.1211
345.7534	0.1311
345.9629	0.1228
346.1723	0.1364
346.3817	0.129
346.5911	0.1444
346.8005	0.1354
347.0099	0.1239
347.2193	0.1362
347.4286	0.1367
347.638	0.1411
347.8473	0.1393
348.0566	0.1276
348.2659	0.1369
348.4752	0.1457
348.6845	0.1295
348.8937	0.1293
349.103	0.1443
349.3122	0.1301
349.5214	0.1266
349.7306	0.1431
349.9398	0.1349
350.149	0.1473
350.3582	0.1478
350.5674	0.1524
350.7765	0.139
350.9856	0.1417
351.1948	0.1432
351.4039	0.1384
351.613	0.138
351.822	0.1427
352.0311	0.1497
352.2402	0.1503
352.4492	0.1495
352.6582	0.152
352.8672	0.1465
353.0762	0.1509
353.2852	0.1412
353.4942	0.1342
353.7032	0.1592
353.9121	0.1503
354.1211	0.1629
354.33	0.1378
354.5389	0.1584
354.7478	0.1467
354.9567	0.1569
355.1655	0.143
355.3744	0.1604
355.5833	0.1576
355.7921	0.1705
356.0009	0.1597
356.2097	0.1686
356.4185	0.1767
356.6273	0.1475
356.8361	0.1626
357.0448	0.1493
357.2536	0.1604
357.4623	0.1464
357.671	0.1637
357.8797	0.1655
358.0884	0.1519
358.2971	0.163
358.5057	0.1619
358.7144	0.1756
358.923	0.1553
359.1316	0.1698
359.3402	0.1721
359.5488	0.164
359.7574	0.1487
359.966	0.1807
360.1746	0.1675
360.3831	0.1695
360.5916	0.1701
360.8002	0.1552
361.0087	0.1781
361.2172	0.1652
361.4256	0.1634
361.6341	0.1982
361.8426	0.1799
362.051	0.1897
362.2594	0.189
362.4678	0.1662
362.6762	0.1872
362.8846	0.1863
363.093	0.1804
363.3014	0.1807
363.5097	0.1752
363.718	0.1852
363.9264	0.1812
364.1347	0.1838
364.343	0.1954
364.5513	0.2066
364.7595	0.2059
364.9678	0.1935
365.176	0.2033
365.3842	0.1895
365.5925	0.1987
365.8007	0.1894
366.0089	0.2028
366.217	0.1801
366.4252	0.1861
366.6333	0.1929
366.8415	0.1926
367.0496	0.1821
367.2577	0.2193
367.4658	0.2108
367.6739	0.2079
367.882	0.2062
368.09	0.1849
368.2981	0.2268
368.5061	0.1979
368.7141	0.2108
368.9221	0.2204
369.1301	0.2098
369.3381	0.2091
369.5461	0.1929
369.754	0.2068
369.962	0.2264
370.1699	0.2119
370.3778	0.2213
370.5857	0.2036
370.7936	0.2186
371.0015	0.2081
371.2093	0.2046
371.4172	0.2216
371.625	0.1831
371.8328	0.2125
372.0406	0.2056
372.2484	0.2101
372.4562	0.2239
372.664	0.2148
372.8717	0.2232
373.0795	0.2057
373.2872	0.2098
373.4949	0.2167
373.7026	0.2128
373.9103	0.2336
374.118	0.2284
374.3256	0.226
374.5333	0.2187
374.7409	0.2159
374.9485	0.2245
375.1561	0.2254
375.3637	0.2317
375.5713	0.2329
375.7789	0.2313
375.9864	0.2224
376.194	0.2168
376.4015	0.2164
376.609	0.2625
376.8165	0.236
377.024	0.2373
377.2315	0.224
377.4389	0.2296
377.6464	0.2397
377.8538	0.2234
378.0612	0.2446
378.2686	0.2365
378.476	0.26
378.6834	0.2332
378.8908	0.2479
379.0981	0.2481
379.3055	0.2388
379.5128	0.2329
379.7201	0.2345
379.9274	0.2365
380.1347	0.2479
380.342	0.2537
380.5492	0.2386
380.7565	0.2412
380.9637	0.2438
381.1709	0.244
381.3781	0.2474
381.5853	0.2665
381.7925	0.2379
381.9997	0.249
382.2068	0.2695
382.4139	0.2442
382.6211	0.2293
382.8282	0.2462
383.0353	0.2281
383.2424	0.2284
383.4494	0.2652
383.6565	0.2315
383.8635	0.2528
384.0706	0.2584
384.2776	0.2509
384.4846	0.2346
384.6916	0.2594
384.8986	0.249
385.1055	0.2641
385.3125	0.2445
385.5194	0.2181
385.7263	0.2547
385.9333	0.2478
386.1402	0.2328
386.347	0.2444
386.5539	0.2379
386.7608	0.2716
386.9676	0.2378
387.1744	0.2485
387.3813	0.2189
387.5881	0.2526
387.7948	0.2343
388.0016	0.2356
388.2084	0.2584
388.4151	0.2336
388.6219	0.2555
388.8286	0.2599
389.0353	0.2656
389.242	0.2316
389.4487	0.2336
389.6553	0.2425
389.862	0.2224
390.0686	0.2173
390.2753	0.246
390.4819	0.2578
390.6885	0.2241
390.8951	0.222
391.1016	0.2401
391.3082	0.202
391.5147	0.2374
391.7213	0.2421
391.9278	0.2152
392.1343	0.2361
392.3408	0.2212
392.5473	0.2251
392.7537	0.223
392.9602	0.2124
393.1666	0.2188
393.373	0.2323
393.5794	0.2304
393.7858	0.2301
393.9922	0.2179
394.1986	0.2292
394.4049	0.2262
394.6113	0.2383
394.8176	0.208
395.0239	0.2242
395.2302	0.2132
395.4365	0.225
395.6428	0.2165
395.8491	0.2073
396.0553	0.2139
396.2615	0.2005
396.4678	0.2175
396.674	0.2005
396.8802	0.2177
397.0863	0.22
397.2925	0.2123
397.4987	0.1933
397.7048	0.2146
397.9109	0.2162
398.117	0.2202
398.3231	0.2033
398.5292	0.2181
398.7353	0.2212
398.9413	0.2066
399.1474	0.2092
399.3534	0.2149
399.5594	0.1998
399.7654	0.2264
399.9714	0.2093
400.1774	0.2047
400.3833	0.2002
400.5893	0.2164
400.7952	0.1917
401.0011	0.2054
401.207	0.2052
401.4129	0.2082
401.6188	0.2063
401.8247	0.2009
402.0305	0.2006
402.2364	0.2011
402.4422	0.2257
402.648	0.2159
402.8538	0.2116
403.0596	0.1987
403.2654	0.2186
403.4711	0.2074
403.6768	0.2122
403.8826	0.213
404.0883	0.2234
404.294	0.2291
404.4997	0.194
404.7054	0.2086
404.911	0.1843
405.1167	0.2085
405.3223	0.2252
405.5279	0.2239
405.7335	0.225
405.9391	0.22
406.1447	0.1952
406.3502	0.2363
406.5558	0.1967
406.7613	0.2093
406.9668	0.2043
407.1724	0.2054
407.3778	0.1966
407.5833	0.2118
407.7888	0.2022
407.9942	0.2203
408.1997	0.1833
408.4051	0.2058
408.6105	0.2125
408.8159	0.1972
409.0213	0.2008
409.2267	0.2037
409.432	0.193
409.6374	0.2091
409.8427	0.2122
410.048	0.2087
410.2533	0.2074
410.4586	0.2069
410.6639	0.1881
410.8691	0.2082
411.0744	0.1944
411.2796	0.19
411.4848	0.198
411.69	0.2108
411.8952	0.2194
412.1004	0.187
412.3056	0.2181
412.5107	0.1956
412.7158	0.2214
412.921	0.2104
413.1261	0.2052
413.3312	0.1918
413.5362	0.2115
413.7413	0.1927
413.9464	0.2152
414.1514	0.1897
414.3564	0.2077
414.5614	0.1752
414.7664	0.2033
414.9714	0.1906
415.1764	0.1968
415.3813	0.2058
415.5863	0.204
415.7912	0.2014
415.9961	0.1947
416.201	0.2011
416.4059	0.1922
416.6108	0.1743
416.8156	0.2093
417.0205	0.2024
417.2253	0.1803
417.4301	0.1993
417.6349	0.1854
417.8397	0.1848
418.0445	0.2074
418.2492	0.1911
418.454	0.1878
418.6587	0.192
418.8634	0.2028
419.0681	0.1691
419.2728	0.1808
419.4775	0.1844
419.6822	0.1763
419.8868	0.1731
420.0915	0.1818
420.2961	0.1798
420.5007	0.1827
420.7053	0.1977
420.9099	0.2042
421.1144	0.2009
421.319	0.1749
421.5235	0.1864
421.728	0.1778
421.9325	0.176
422.137	0.1869
422.3415	0.1755
422.546	0.1877
422.7504	0.1667
422.9549	0.1877
423.1593	0.1884
423.3637	0.1897
423.5681	0.1736
423.7725	0.169
423.9769	0.1638
424.1812	0.1688
424.3856	0.1683
424.5899	0.1905
424.7942	0.1896
424.9985	0.1574
425.2028	0.1747
425.4071	0.2107
425.6113	0.1471
425.8156	0.1816
426.0198	0.1686
426.224	0.1476
