Data from MonoPyChalIsomerACN10uM360nmA_Absorbance_13-57-28-104.txt Node
Date: Fri Jul 05 13:57:28 BST 2024
User: LASERRRRR
Spectrometer: FLMT03099
Trigger mode: 0
Integration Time (sec): 1.000000E-1
Scans to average: 1
Electric dark correction enabled: true
Nonlinearity correction enabled: false
Boxcar width: 0
XAxis mode: Wavelengths
Number of Pixels in Spectrum: 3648
>>>>>Begin Spectral Data<<<<<
179.3399	-0.3399
179.5586	-0.3399
179.7771	-0.3399
179.9957	0.0682
180.2143	-0
180.4329	0.4714
180.6514	-0
180.8699	0.5464
181.0885	-0.0755
181.307	-0.1122
181.5255	-0
181.744	-0.4554
181.9625	-0
182.181	-0.5393
182.3994	-0
182.6179	-0
182.8363	0.3119
183.0547	-0.4188
183.2732	-0.0053
183.4916	0.4065
183.71	0.0227
183.9284	-0.0426
184.1467	-0.0478
184.3651	0.1571
184.5835	0.0562
184.8018	0.079
185.0201	0.1543
185.2385	0.2185
185.4568	0.0079
185.6751	0.0872
185.8934	0.3016
186.1117	-0.0012
186.3299	0.025
186.5482	0.0926
186.7664	-0.2234
186.9847	-0.0952
187.2029	0.2027
187.4211	0.0317
187.6393	0.1051
187.8575	-0.1983
188.0757	0.2011
188.2939	0.1326
188.512	0.3627
188.7302	-0.1363
188.9483	0.3638
189.1665	0.1337
189.3846	-0.1521
189.6027	0.1741
189.8208	0.1902
190.0389	0.1758
190.257	0.1584
190.475	0.3322
190.6931	0.4696
190.9111	0.367
191.1292	0.3212
191.3472	0.4479
191.5652	0.2521
191.7832	0.4335
192.0012	0.5614
192.2192	0.2894
192.4371	0.5655
192.6551	0.3118
192.873	0.3855
193.091	0.4004
193.3089	0.5877
193.5268	0.4766
193.7447	0.4906
193.9626	0.4449
194.1805	0.7206
194.3984	0.7186
194.6162	0.4845
194.8341	0.4779
195.0519	0.4723
195.2697	0.7953
195.4875	0.5963
195.7054	0.6065
195.9231	0.5764
196.1409	0.5205
196.3587	0.5043
196.5765	0.6665
196.7942	0.4973
197.012	0.5022
197.2297	0.5709
197.4474	0.7251
197.6651	0.4732
197.8828	0.5261
198.1005	0.5853
198.3182	0.6382
198.5358	0.682
198.7535	0.6205
198.9711	0.6573
199.1888	0.6106
199.4064	0.8398
199.624	0.7178
199.8416	0.5679
200.0592	0.5755
200.2767	0.6303
200.4943	0.755
200.7119	0.7224
200.9294	0.62
201.1469	0.5591
201.3645	0.5458
201.582	0.573
201.7995	0.6009
202.017	0.5965
202.2344	0.5722
202.4519	0.5888
202.6694	0.6227
202.8868	0.5899
203.1042	0.7301
203.3217	0.6431
203.5391	0.5912
203.7565	0.6254
203.9739	0.6444
204.1913	0.5686
204.4086	0.7135
204.626	0.7106
204.8433	0.5885
205.0607	0.5287
205.278	0.5443
205.4953	0.6496
205.7126	0.6099
205.9299	0.7829
206.1472	0.6934
206.3644	0.6052
206.5817	0.6596
206.7989	0.7814
207.0162	0.6595
207.2334	0.6643
207.4506	0.6188
207.6678	0.5797
207.885	0.5918
208.1022	0.779
208.3194	0.6355
208.5365	0.6124
208.7537	0.6564
208.9708	0.6066
209.1879	0.6557
209.405	0.6238
209.6222	0.6664
209.8392	0.5897
210.0563	0.6107
210.2734	0.5834
210.4905	0.656
210.7075	0.6032
210.9245	0.6137
211.1416	0.7308
211.3586	0.6371
211.5756	0.5915
211.7926	0.5912
212.0096	0.586
212.2265	0.5448
212.4435	0.5482
212.6604	0.5907
212.8774	0.5662
213.0943	0.6195
213.3112	0.5693
213.5281	0.514
213.745	0.4888
213.9619	0.4938
214.1788	0.441
214.3956	0.4282
214.6125	0.4673
214.8293	0.4085
215.0461	0.4631
215.2629	0.4778
215.4798	0.4548
215.6965	0.4134
215.9133	0.4398
216.1301	0.4175
216.3469	0.4488
216.5636	0.4339
216.7803	0.3951
216.9971	0.3892
217.2138	0.3797
217.4305	0.3916
217.6472	0.3311
217.8639	0.3514
218.0805	0.3373
218.2972	0.3353
218.5138	0.3289
218.7305	0.3259
218.9471	0.3177
219.1637	0.2948
219.3803	0.2885
219.5969	0.2783
219.8135	0.2631
220.0301	0.2567
220.2466	0.2801
220.4632	0.2654
220.6797	0.2488
220.8962	0.2463
221.1127	0.2747
221.3292	0.2378
221.5457	0.2437
221.7622	0.2444
221.9787	0.2462
222.1951	0.26
222.4116	0.2455
222.628	0.2526
222.8444	0.2644
223.0608	0.2568
223.2772	0.2582
223.4936	0.2703
223.71	0.2633
223.9264	0.2556
224.1427	0.2415
224.3591	0.2507
224.5754	0.2747
224.7917	0.2724
225.008	0.2595
225.2243	0.2623
225.4406	0.2957
225.6569	0.2652
225.8732	0.2612
226.0894	0.2556
226.3057	0.2682
226.5219	0.2772
226.7381	0.2566
226.9543	0.277
227.1705	0.2891
227.3867	0.2603
227.6029	0.3035
227.8191	0.2873
228.0352	0.3138
228.2513	0.313
228.4675	0.3101
228.6836	0.3013
228.8997	0.3029
229.1158	0.3052
229.3319	0.2975
229.548	0.3248
229.764	0.3355
229.9801	0.3213
230.1961	0.3195
230.4121	0.339
230.6282	0.3482
230.8442	0.3177
231.0602	0.3529
231.2761	0.3657
231.4921	0.3513
231.7081	0.3433
231.924	0.3453
232.14	0.3561
232.3559	0.3529
232.5718	0.3864
232.7877	0.3729
233.0036	0.3584
233.2195	0.3659
233.4353	0.3679
233.6512	0.3711
233.867	0.3715
234.0829	0.3566
234.2987	0.3718
234.5145	0.3703
234.7303	0.3837
234.9461	0.4076
235.1619	0.3661
235.3776	0.3789
235.5934	0.3939
235.8091	0.3775
236.0249	0.3716
236.2406	0.3973
236.4563	0.3883
236.672	0.3883
236.8877	0.4095
237.1034	0.4044
237.319	0.3954
237.5347	0.4237
237.7503	0.4018
237.966	0.4079
238.1816	0.4033
238.3972	0.3899
238.6128	0.407
238.8284	0.4046
239.0439	0.415
239.2595	0.4011
239.475	0.4035
239.6906	0.4058
239.9061	0.3988
240.1216	0.4113
240.3371	0.4092
240.5526	0.3906
240.7681	0.4131
240.9836	0.3784
241.199	0.3923
241.4145	0.3908
241.6299	0.3904
241.8453	0.3861
242.0607	0.3829
242.2761	0.3744
242.4915	0.3731
242.7069	0.3679
242.9223	0.3646
243.1376	0.3585
243.353	0.3609
243.5683	0.35
243.7836	0.3274
243.9989	0.335
244.2142	0.3142
244.4295	0.3163
244.6448	0.3069
244.86	0.307
245.0753	0.2817
245.2905	0.2785
245.5057	0.2794
245.721	0.2711
245.9362	0.2847
246.1514	0.2737
246.3665	0.2527
246.5817	0.2727
246.7969	0.2504
247.012	0.2463
247.2271	0.2471
247.4423	0.2536
247.6574	0.2461
247.8725	0.2466
248.0876	0.2284
248.3026	0.235
248.5177	0.2205
248.7328	0.2156
248.9478	0.2001
249.1628	0.224
249.3779	0.2107
249.5929	0.1984
249.8079	0.2092
250.0228	0.2032
250.2378	0.1911
250.4528	0.2173
250.6677	0.2011
250.8827	0.1983
251.0976	0.1949
251.3125	0.1782
251.5274	0.1832
251.7423	0.1912
251.9572	0.19
252.172	0.1706
252.3869	0.1854
252.6017	0.1775
252.8166	0.1711
253.0314	0.1696
253.2462	0.1707
253.461	0.1823
253.6758	0.164
253.8906	0.1809
254.1053	0.1546
254.3201	0.1687
254.5348	0.1768
254.7496	0.1732
254.9643	0.164
255.179	0.1696
255.3937	0.1708
255.6083	0.1764
255.823	0.1741
256.0377	0.1645
256.2523	0.1709
256.467	0.1529
256.6816	0.1713
256.8962	0.1647
257.1108	0.1468
257.3254	0.1705
257.54	0.1524
257.7545	0.1692
257.9691	0.1602
258.1836	0.1625
258.3981	0.1841
258.6127	0.1804
258.8272	0.158
259.0417	0.1565
259.2561	0.153
259.4706	0.1661
259.6851	0.1651
259.8995	0.1542
260.114	0.1612
260.3284	0.1673
260.5428	0.1572
260.7572	0.164
260.9716	0.1661
261.186	0.1551
261.4003	0.1581
261.6147	0.1638
261.829	0.179
262.0433	0.1651
262.2577	0.1643
262.472	0.1623
262.6863	0.166
262.9005	0.1728
263.1148	0.1554
263.3291	0.1559
263.5433	0.1643
263.7576	0.1661
263.9718	0.1623
264.186	0.1605
264.4002	0.1629
264.6144	0.1585
264.8286	0.1699
265.0427	0.1477
265.2569	0.1594
265.471	0.1582
265.6851	0.1564
265.8993	0.1568
266.1134	0.1517
266.3275	0.1539
266.5415	0.1569
266.7556	0.1717
266.9697	0.1645
267.1837	0.1568
267.3978	0.1603
267.6118	0.1633
267.8258	0.1659
268.0398	0.1482
268.2538	0.1715
268.4677	0.1652
268.6817	0.163
268.8957	0.1629
269.1096	0.1618
269.3235	0.1725
269.5374	0.1521
269.7514	0.1511
269.9652	0.1479
270.1791	0.1503
270.393	0.1359
270.6068	0.1682
270.8207	0.1443
271.0345	0.1427
271.2483	0.1539
271.4622	0.1473
271.676	0.1488
271.8897	0.1449
272.1035	0.1393
272.3173	0.1414
272.531	0.1494
272.7448	0.1471
272.9585	0.1425
273.1722	0.1458
273.3859	0.145
273.5996	0.1316
273.8133	0.1504
274.0269	0.1458
274.2406	0.1408
274.4542	0.1479
274.6679	0.1388
274.8815	0.1435
275.0951	0.1471
275.3087	0.1516
275.5223	0.1487
275.7358	0.1514
275.9494	0.1442
276.1629	0.1409
276.3765	0.1501
276.59	0.1509
276.8035	0.1448
277.017	0.139
277.2305	0.1434
277.444	0.1636
277.6574	0.1434
277.8709	0.1532
278.0843	0.137
278.2978	0.1416
278.5112	0.1461
278.7246	0.1492
278.938	0.1534
279.1513	0.1555
279.3647	0.1634
279.5781	0.1473
279.7914	0.1532
280.0047	0.1614
280.2181	0.149
280.4314	0.1501
280.6447	0.1614
280.8579	0.1572
281.0712	0.1538
281.2845	0.1615
281.4977	0.1473
281.711	0.1484
281.9242	0.1555
282.1374	0.1751
282.3506	0.1531
282.5638	0.1579
282.7769	0.1537
282.9901	0.1609
283.2033	0.1569
283.4164	0.1621
283.6295	0.146
283.8426	0.1462
284.0557	0.1752
284.2688	0.1588
284.4819	0.1564
284.695	0.1632
284.908	0.1656
285.1211	0.1616
285.3341	0.1568
285.5471	0.1642
285.7601	0.161
285.9731	0.1478
286.1861	0.1555
286.3991	0.1612
286.612	0.1648
286.825	0.1558
287.0379	0.1568
287.2508	0.1677
287.4637	0.1627
287.6766	0.1503
287.8895	0.1678
288.1024	0.1849
288.3152	0.1716
288.5281	0.1488
288.7409	0.156
288.9538	0.1636
289.1666	0.1573
289.3794	0.1624
289.5922	0.1516
289.8049	0.166
290.0177	0.1607
290.2304	0.1644
290.4432	0.1661
290.6559	0.1624
290.8686	0.1611
291.0813	0.1535
291.294	0.1667
291.5067	0.1657
291.7194	0.1631
291.932	0.1721
292.1447	0.1583
292.3573	0.1541
292.5699	0.1609
292.7825	0.1683
292.9951	0.1615
293.2077	0.167
293.4203	0.168
293.6328	0.1569
293.8454	0.1689
294.0579	0.1609
294.2704	0.163
294.4829	0.1596
294.6954	0.1653
294.9079	0.1688
295.1204	0.1552
295.3328	0.158
295.5453	0.1691
295.7577	0.1628
295.9701	0.1514
296.1825	0.1661
296.3949	0.1548
296.6073	0.1578
296.8197	0.1737
297.0321	0.1691
297.2444	0.143
297.4567	0.1763
297.6691	0.1676
297.8814	0.1533
298.0937	0.1727
298.306	0.1675
298.5182	0.1601
298.7305	0.168
298.9428	0.1603
299.155	0.1654
299.3672	0.1641
299.5794	0.1564
299.7916	0.1661
300.0038	0.1601
300.216	0.1652
300.4282	0.1608
300.6403	0.1611
300.8525	0.1708
301.0646	0.1624
301.2767	0.1635
301.4888	0.1639
301.7009	0.1599
301.913	0.161
302.125	0.1696
302.3371	0.1507
302.5491	0.1664
302.7612	0.1587
302.9732	0.1625
303.1852	0.1658
303.3972	0.1584
303.6092	0.1609
303.8211	0.1492
304.0331	0.1618
304.245	0.1508
304.457	0.1412
304.6689	0.157
304.8808	0.1658
305.0927	0.1408
305.3046	0.1538
305.5164	0.1561
305.7283	0.1486
305.9401	0.1594
306.152	0.1455
306.3638	0.1602
306.5756	0.1411
306.7874	0.1449
306.9992	0.144
307.2109	0.1406
307.4227	0.1289
307.6344	0.1333
307.8462	0.1317
308.0579	0.1283
308.2696	0.1313
308.4813	0.1372
308.693	0.1383
308.9046	0.1349
309.1163	0.1305
309.328	0.1246
309.5396	0.1122
309.7512	0.1255
309.9628	0.1239
310.1744	0.119
310.386	0.1217
310.5976	0.1155
310.8091	0.1173
311.0207	0.1153
311.2322	0.1176
311.4437	0.1023
311.6552	0.1018
311.8667	0.1172
312.0782	0.1054
312.2897	0.1115
312.5012	0.1138
312.7126	0.1035
312.924	0.0983
313.1355	0.1067
313.3469	0.1093
313.5583	0.1128
313.7696	0.1116
313.981	0.1064
314.1924	0.109
314.4037	0.0982
314.6151	0.1062
314.8264	0.0995
315.0377	0.1023
315.249	0.1003
315.4603	0.1134
315.6716	0.0983
315.8828	0.0918
316.0941	0.1044
316.3053	0.0974
316.5165	0.089
316.7277	0.094
316.9389	0.1116
317.1501	0.0986
317.3613	0.1066
317.5724	0.0905
317.7836	0.098
317.9947	0.1037
318.2058	0.0953
318.417	0.0958
318.6281	0.0873
318.8391	0.0955
319.0502	0.0973
319.2613	0.1039
319.4723	0.1027
319.6834	0.0962
319.8944	0.0941
320.1054	0.101
320.3164	0.1083
320.5274	0.0993
320.7383	0.0955
320.9493	0.1019
321.1602	0.1039
321.3712	0.1
321.5821	0.1003
321.793	0.1024
322.0039	0.1049
322.2148	0.0958
322.4257	0.1012
322.6365	0.1194
322.8474	0.0981
323.0582	0.0968
323.269	0.1017
323.4798	0.1063
323.6906	0.1059
323.9014	0.1014
324.1122	0.1151
324.3229	0.0972
324.5337	0.1053
324.7444	0.0977
324.9551	0.1055
325.1658	0.1153
325.3765	0.1138
325.5872	0.0914
325.7979	0.1004
326.0085	0.0963
326.2192	0.1
326.4298	0.1096
326.6404	0.0926
326.851	0.0915
327.0616	0.0992
327.2722	0.1029
327.4828	0.1153
327.6933	0.0966
327.9039	0.1002
328.1144	0.104
328.3249	0.1053
328.5354	0.09
328.7459	0.1022
328.9564	0.1045
329.1669	0.1025
329.3773	0.0994
329.5878	0.1025
329.7982	0.1046
330.0086	0.1168
330.219	0.1113
330.4294	0.0998
330.6398	0.1016
330.8502	0.0981
331.0605	0.1034
331.2708	0.1012
331.4812	0.1107
331.6915	0.1001
331.9018	0.1048
332.1121	0.0966
332.3224	0.104
332.5326	0.1171
332.7429	0.108
332.9531	0.1213
333.1633	0.0986
333.3735	0.1171
333.5837	0.1109
333.7939	0.1033
334.0041	0.1264
334.2143	0.1167
334.4244	0.1041
334.6346	0.0857
334.8447	0.1154
335.0548	0.092
335.2649	0.0908
335.475	0.1193
335.685	0.107
335.8951	0.1175
336.1051	0.1112
336.3152	0.1208
336.5252	0.1043
336.7352	0.1203
336.9452	0.1124
337.1552	0.1227
337.3652	0.1031
337.5751	0.1081
337.7851	0.1089
337.995	0.1076
338.2049	0.1147
338.4148	0.1185
338.6247	0.1068
338.8346	0.1054
339.0445	0.1034
339.2543	0.1103
339.4642	0.1081
339.674	0.1038
339.8838	0.1159
340.0936	0.1133
340.3034	0.1248
340.5132	0.1276
340.7229	0.1147
340.9327	0.1116
341.1424	0.1157
341.3522	0.1245
341.5619	0.1256
341.7716	0.1213
341.9813	0.123
342.1909	0.1141
342.4006	0.1247
342.6102	0.1378
342.8199	0.1237
343.0295	0.1226
343.2391	0.1297
343.4487	0.1346
343.6583	0.1201
343.8679	0.1308
344.0774	0.1328
344.287	0.1251
344.4965	0.1249
344.706	0.1172
344.9155	0.124
345.125	0.1235
345.3345	0.1228
345.544	0.1272
345.7534	0.1266
345.9629	0.1224
346.1723	0.1243
346.3817	0.1246
346.5911	0.1261
346.8005	0.1226
347.0099	0.1338
347.2193	0.1272
347.4286	0.1256
347.638	0.1346
347.8473	0.1407
348.0566	0.1354
348.2659	0.1469
348.4752	0.1404
348.6845	0.121
348.8937	0.127
349.103	0.1356
349.3122	0.1237
349.5214	0.1295
349.7306	0.1351
349.9398	0.137
350.149	0.1472
350.3582	0.1245
350.5674	0.1389
350.7765	0.1448
350.9856	0.1418
351.1948	0.1371
351.4039	0.1168
351.613	0.1402
351.822	0.1506
352.0311	0.1517
352.2402	0.1369
352.4492	0.1561
352.6582	0.1492
352.8672	0.1443
353.0762	0.149
353.2852	0.1385
353.4942	0.1537
353.7032	0.1428
353.9121	0.1404
354.1211	0.1476
354.33	0.1441
354.5389	0.1531
354.7478	0.1395
354.9567	0.1425
355.1655	0.15
355.3744	0.1485
355.5833	0.1585
355.7921	0.1681
356.0009	0.1482
356.2097	0.1722
356.4185	0.1824
356.6273	0.1522
356.8361	0.1703
357.0448	0.1584
357.2536	0.1509
357.4623	0.1363
357.671	0.1592
357.8797	0.1712
358.0884	0.1695
358.2971	0.1436
358.5057	0.1623
358.7144	0.1678
358.923	0.168
359.1316	0.1771
359.3402	0.1737
359.5488	0.1565
359.7574	0.1527
359.966	0.1853
360.1746	0.1716
360.3831	0.1677
360.5916	0.1666
360.8002	0.1561
361.0087	0.1814
361.2172	0.1826
361.4256	0.1796
361.6341	0.1859
361.8426	0.1758
362.051	0.1802
362.2594	0.1727
362.4678	0.1686
362.6762	0.2074
362.8846	0.183
363.093	0.1906
363.3014	0.1783
363.5097	0.1671
363.718	0.181
363.9264	0.1833
364.1347	0.182
364.343	0.1872
364.5513	0.1955
364.7595	0.1993
364.9678	0.1984
365.176	0.2049
365.3842	0.1865
365.5925	0.1926
365.8007	0.1934
366.0089	0.199
366.217	0.1823
366.4252	0.2153
366.6333	0.2043
366.8415	0.211
367.0496	0.1963
367.2577	0.2084
367.4658	0.2061
367.6739	0.2137
367.882	0.2051
368.09	0.1985
368.2981	0.1991
368.5061	0.2063
368.7141	0.1966
368.9221	0.2101
369.1301	0.2067
369.3381	0.2103
369.5461	0.2037
369.754	0.2176
369.962	0.2289
370.1699	0.2026
370.3778	0.2197
370.5857	0.1965
370.7936	0.2083
371.0015	0.2234
371.2093	0.2198
371.4172	0.2305
371.625	0.2182
371.8328	0.2019
372.0406	0.2105
372.2484	0.2172
372.4562	0.2152
372.664	0.2195
372.8717	0.2196
373.0795	0.1921
373.2872	0.2291
373.4949	0.2085
373.7026	0.2211
373.9103	0.243
374.118	0.2186
374.3256	0.2299
374.5333	0.2168
374.7409	0.2051
374.9485	0.2412
375.1561	0.2236
375.3637	0.2324
375.5713	0.2317
375.7789	0.2244
375.9864	0.2193
376.194	0.2335
376.4015	0.2415
376.609	0.2296
376.8165	0.2285
377.024	0.2253
377.2315	0.2321
377.4389	0.2387
377.6464	0.2527
377.8538	0.2465
378.0612	0.2394
378.2686	0.2406
378.476	0.2466
378.6834	0.2481
378.8908	0.241
379.0981	0.24
379.3055	0.2271
379.5128	0.2402
379.7201	0.2528
379.9274	0.2414
380.1347	0.2304
380.342	0.2513
380.5492	0.241
380.7565	0.2571
380.9637	0.2447
381.1709	0.2399
381.3781	0.2495
381.5853	0.2541
381.7925	0.2561
381.9997	0.2631
382.2068	0.2635
382.4139	0.2701
382.6211	0.248
382.8282	0.2342
383.0353	0.2401
383.2424	0.25
383.4494	0.2727
383.6565	0.2324
383.8635	0.2493
384.0706	0.2495
384.2776	0.2494
384.4846	0.2573
384.6916	0.2333
384.8986	0.2341
385.1055	0.2482
385.3125	0.2661
385.5194	0.224
385.7263	0.2564
385.9333	0.2569
386.1402	0.2425
386.347	0.2568
386.5539	0.2406
386.7608	0.2512
386.9676	0.2386
387.1744	0.2575
387.3813	0.2301
387.5881	0.2604
387.7948	0.2485
388.0016	0.2456
388.2084	0.2528
388.4151	0.233
388.6219	0.2563
388.8286	0.255
389.0353	0.2808
389.242	0.2483
389.4487	0.2424
389.6553	0.2244
389.862	0.232
390.0686	0.2338
390.2753	0.2524
390.4819	0.2581
390.6885	0.24
390.8951	0.245
391.1016	0.2235
391.3082	0.2378
391.5147	0.2466
391.7213	0.242
391.9278	0.2372
392.1343	0.2314
392.3408	0.2291
392.5473	0.2425
392.7537	0.2153
392.9602	0.2227
393.1666	0.2242
393.373	0.2354
393.5794	0.2348
393.7858	0.2328
393.9922	0.218
394.1986	0.2268
394.4049	0.2399
394.6113	0.2157
394.8176	0.2173
395.0239	0.2171
395.2302	0.2164
395.4365	0.1984
395.6428	0.2216
395.8491	0.2021
396.0553	0.208
396.2615	0.2052
396.4678	0.2
396.674	0.2114
396.8802	0.2136
397.0863	0.2147
397.2925	0.209
397.4987	0.2001
397.7048	0.1919
397.9109	0.219
398.117	0.2088
398.3231	0.204
398.5292	0.2164
398.7353	0.2133
398.9413	0.2064
399.1474	0.2095
399.3534	0.1986
399.5594	0.2024
399.7654	0.2112
399.9714	0.2235
400.1774	0.2144
400.3833	0.2121
400.5893	0.2046
400.7952	0.2165
401.0011	0.197
401.207	0.2154
401.4129	0.2067
401.6188	0.2153
401.8247	0.1942
402.0305	0.193
402.2364	0.1961
402.4422	0.2151
402.648	0.2273
402.8538	0.2267
403.0596	0.2118
403.2654	0.2138
403.4711	0.2153
403.6768	0.2083
403.8826	0.2341
404.0883	0.2211
404.294	0.2072
404.4997	0.1979
404.7054	0.1935
404.911	0.2071
405.1167	0.1969
405.3223	0.2157
405.5279	0.209
405.7335	0.2052
405.9391	0.218
406.1447	0.195
406.3502	0.221
406.5558	0.2168
406.7613	0.2179
406.9668	0.2088
407.1724	0.1918
407.3778	0.1902
407.5833	0.1961
407.7888	0.1916
407.9942	0.2322
408.1997	0.2061
408.4051	0.1825
408.6105	0.2141
408.8159	0.2014
409.0213	0.187
409.2267	0.205
409.432	0.1934
409.6374	0.2116
409.8427	0.1976
410.048	0.2054
410.2533	0.1997
410.4586	0.2126
410.6639	0.2
410.8691	0.1981
411.0744	0.2161
411.2796	0.2022
411.4848	0.205
411.69	0.2114
411.8952	0.2242
412.1004	0.192
412.3056	0.2017
412.5107	0.1747
412.7158	0.2213
412.921	0.2167
413.1261	0.1968
413.3312	0.1854
413.5362	0.196
413.7413	0.2058
413.9464	0.2064
414.1514	0.1942
414.3564	0.2103
414.5614	0.1808
414.7664	0.2114
414.9714	0.2106
415.1764	0.2062
415.3813	0.2079
415.5863	0.1965
415.7912	0.1884
415.9961	0.2176
416.201	0.1879
416.4059	0.192
416.6108	0.1901
416.8156	0.2054
417.0205	0.2002
417.2253	0.1986
417.4301	0.1923
417.6349	0.1972
417.8397	0.181
418.0445	0.1821
418.2492	0.2005
418.454	0.1791
418.6587	0.188
418.8634	0.2113
419.0681	0.1875
419.2728	0.1999
419.4775	0.19
419.6822	0.1935
419.8868	0.1734
420.0915	0.1792
420.2961	0.196
420.5007	0.1886
420.7053	0.1862
420.9099	0.1889
421.1144	0.1958
421.319	0.1933
421.5235	0.1976
421.728	0.1936
421.9325	0.1807
422.137	0.1985
422.3415	0.1799
422.546	0.1811
422.7504	0.1906
422.9549	0.1911
423.1593	0.1842
423.3637	0.1744
423.5681	0.1622
423.7725	0.1695
423.9769	0.1858
424.1812	0.164
424.3856	0.1618
424.5899	0.1857
424.7942	0.1712
424.9985	0.1793
425.2028	0.1818
425.4071	0.2036
425.6113	0.1498
425.8156	0.17
426.0198	0.1771
426.224	0.1637
426.4282	0.1757
426.6324	0.158
