Data from MonoPyChalIsomerACN10uM360nmA_Absorbance_13-57-26-504.txt Node
Date: Fri Jul 05 13:57:26 BST 2024
User: LASERRRRR
Spectrometer: FLMT03099
Trigger mode: 0
Integration Time (sec): 1.000000E-1
Scans to average: 1
Electric dark correction enabled: true
Nonlinearity correction enabled: false
Boxcar width: 0
XAxis mode: Wavelengths
Number of Pixels in Spectrum: 3648
>>>>>Begin Spectral Data<<<<<
179.3399	-0.0097
179.5586	-0.0097
179.7771	-0.0097
179.9957	0.9411
180.2143	-0
180.4329	-0.1504
180.6514	0.3588
180.8699	-0
181.0885	-0.0621
181.307	0.0258
181.5255	-0
181.744	-0.761
181.9625	-0
182.181	-0
182.3994	-0
182.6179	-0
182.8363	-0.0982
183.0547	-0.4725
183.2732	0.0447
183.4916	-0.0634
183.71	0.1187
183.9284	0.1459
184.1467	-0.1551
184.3651	-0.0295
184.5835	-0.1587
184.8018	0.0033
185.0201	0.0494
185.2385	-0.1582
185.4568	0.2043
185.6751	0.3372
185.8934	0.1962
186.1117	-0.0198
186.3299	-0.0193
186.5482	0.0071
186.7664	-0.1942
186.9847	-0.0153
187.2029	-0.0297
187.4211	0.1661
187.6393	0.0139
187.8575	-0.2449
188.0757	0.0953
188.2939	0.1742
188.512	0.6339
188.7302	-0.1889
188.9483	-0.0673
189.1665	0.1131
189.3846	-0.2559
189.6027	0.2584
189.8208	0.2506
190.0389	0.1146
190.257	0.1134
190.475	0.0582
190.6931	0.1166
190.9111	0.4557
191.1292	0.1178
191.3472	0.476
191.5652	0.2291
191.7832	0.288
192.0012	0.6664
192.2192	0.3464
192.4371	0.3047
192.6551	0.4384
192.873	0.4989
193.091	0.3353
193.3089	1.8957
193.5268	0.6362
193.7447	0.58
193.9626	0.4699
194.1805	0.5794
194.3984	0.9825
194.6162	0.4922
194.8341	0.5485
195.0519	0.5437
195.2697	1.0606
195.4875	0.7138
195.7054	0.6961
195.9231	0.4765
196.1409	0.6655
196.3587	0.4402
196.5765	0.6377
196.7942	0.592
197.012	0.5351
197.2297	0.5743
197.4474	1.0066
197.6651	0.4952
197.8828	0.5717
198.1005	0.7331
198.3182	0.4675
198.5358	0.7228
198.7535	0.7307
198.9711	0.5181
199.1888	0.7118
199.4064	0.8495
199.624	0.5744
199.8416	0.4972
200.0592	0.5313
200.2767	0.6664
200.4943	0.6778
200.7119	0.8119
200.9294	0.5596
201.1469	0.5635
201.3645	0.518
201.582	0.5945
201.7995	0.5703
202.017	0.5913
202.2344	0.6054
202.4519	0.6374
202.6694	0.6863
202.8868	0.6384
203.1042	0.6762
203.3217	0.7129
203.5391	0.5868
203.7565	0.5658
203.9739	0.5932
204.1913	0.6996
204.4086	0.6065
204.626	0.6716
204.8433	0.5624
205.0607	0.5482
205.278	0.6851
205.4953	0.5879
205.7126	0.6249
205.9299	0.6766
206.1472	0.6891
206.3644	0.6753
206.5817	0.7042
206.7989	0.6639
207.0162	0.6252
207.2334	0.6737
207.4506	0.6218
207.6678	0.6183
207.885	0.6903
208.1022	0.6502
208.3194	0.6478
208.5365	0.6392
208.7537	0.621
208.9708	0.5928
209.1879	0.6912
209.405	0.6849
209.6222	0.6645
209.8392	0.5829
210.0563	0.5894
210.2734	0.648
210.4905	0.6
210.7075	0.6185
210.9245	0.605
211.1416	0.6915
211.3586	0.5913
211.5756	0.6238
211.7926	0.5899
212.0096	0.587
212.2265	0.5683
212.4435	0.6047
212.6604	0.5581
212.8774	0.579
213.0943	0.616
213.3112	0.5582
213.5281	0.543
213.745	0.4772
213.9619	0.4955
214.1788	0.4958
214.3956	0.4451
214.6125	0.5017
214.8293	0.4227
215.0461	0.4623
215.2629	0.423
215.4798	0.4575
215.6965	0.4504
215.9133	0.4557
216.1301	0.4099
216.3469	0.4481
216.5636	0.4416
216.7803	0.3738
216.9971	0.3914
217.2138	0.3901
217.4305	0.3748
217.6472	0.3554
217.8639	0.3699
218.0805	0.3382
218.2972	0.3264
218.5138	0.3166
218.7305	0.3245
218.9471	0.308
219.1637	0.2892
219.3803	0.2567
219.5969	0.2737
219.8135	0.2467
220.0301	0.2885
220.2466	0.2922
220.4632	0.2654
220.6797	0.2383
220.8962	0.276
221.1127	0.255
221.3292	0.2702
221.5457	0.2478
221.7622	0.2427
221.9787	0.2417
222.1951	0.2466
222.4116	0.2536
222.628	0.2708
222.8444	0.2644
223.0608	0.2484
223.2772	0.2718
223.4936	0.2556
223.71	0.2482
223.9264	0.2923
224.1427	0.2543
224.3591	0.2562
224.5754	0.2732
224.7917	0.2538
225.008	0.2662
225.2243	0.268
225.4406	0.2887
225.6569	0.2836
225.8732	0.2668
226.0894	0.2667
226.3057	0.2705
226.5219	0.2864
226.7381	0.2845
226.9543	0.2876
227.1705	0.2877
227.3867	0.277
227.6029	0.2983
227.8191	0.2843
228.0352	0.3048
228.2513	0.3132
228.4675	0.3146
228.6836	0.2886
228.8997	0.2858
229.1158	0.3157
229.3319	0.3201
229.548	0.3248
229.764	0.3266
229.9801	0.3422
230.1961	0.3234
230.4121	0.3516
230.6282	0.34
230.8442	0.3297
231.0602	0.3488
231.2761	0.3625
231.4921	0.3433
231.7081	0.3395
231.924	0.3404
232.14	0.3815
232.3559	0.3473
232.5718	0.3787
232.7877	0.3578
233.0036	0.3511
233.2195	0.3645
233.4353	0.3459
233.6512	0.3554
233.867	0.3679
234.0829	0.3593
234.2987	0.3724
234.5145	0.3825
234.7303	0.3657
234.9461	0.3793
235.1619	0.3825
235.3776	0.368
235.5934	0.3798
235.8091	0.3638
236.0249	0.3629
236.2406	0.3867
236.4563	0.3885
236.672	0.3869
236.8877	0.3961
237.1034	0.4016
237.319	0.4029
237.5347	0.3975
237.7503	0.4015
237.966	0.4113
238.1816	0.4014
238.3972	0.4086
238.6128	0.4017
238.8284	0.4136
239.0439	0.3848
239.2595	0.4049
239.475	0.4286
239.6906	0.4088
239.9061	0.4196
240.1216	0.3966
240.3371	0.4123
240.5526	0.4088
240.7681	0.4178
240.9836	0.3957
241.199	0.3968
241.4145	0.4004
241.6299	0.3719
241.8453	0.3868
242.0607	0.3895
242.2761	0.3682
242.4915	0.3594
242.7069	0.3637
242.9223	0.3506
243.1376	0.3524
243.353	0.345
243.5683	0.345
243.7836	0.3193
243.9989	0.3248
244.2142	0.3137
244.4295	0.3165
244.6448	0.3149
244.86	0.3007
245.0753	0.2924
245.2905	0.2956
245.5057	0.2829
245.721	0.2736
245.9362	0.2779
246.1514	0.2723
246.3665	0.2597
246.5817	0.2598
246.7969	0.2653
247.012	0.2469
247.2271	0.2382
247.4423	0.2313
247.6574	0.2415
247.8725	0.2271
248.0876	0.2252
248.3026	0.2236
248.5177	0.2177
248.7328	0.2165
248.9478	0.2075
249.1628	0.2118
249.3779	0.2193
249.5929	0.2056
249.8079	0.2108
250.0228	0.1953
250.2378	0.204
250.4528	0.2129
250.6677	0.1915
250.8827	0.1894
251.0976	0.195
251.3125	0.1752
251.5274	0.1791
251.7423	0.1839
251.9572	0.2005
252.172	0.1702
252.3869	0.1912
252.6017	0.1789
252.8166	0.1661
253.0314	0.1738
253.2462	0.1674
253.461	0.173
253.6758	0.1661
253.8906	0.1812
254.1053	0.1707
254.3201	0.1703
254.5348	0.18
254.7496	0.187
254.9643	0.1628
255.179	0.1665
255.3937	0.167
255.6083	0.1857
255.823	0.1751
256.0377	0.1637
256.2523	0.17
256.467	0.1462
256.6816	0.1724
256.8962	0.1657
257.1108	0.1541
257.3254	0.1742
257.54	0.1641
257.7545	0.1826
257.9691	0.1692
258.1836	0.1649
258.3981	0.1738
258.6127	0.1698
258.8272	0.1586
259.0417	0.1571
259.2561	0.1534
259.4706	0.1657
259.6851	0.1765
259.8995	0.172
260.114	0.1604
260.3284	0.1673
260.5428	0.1551
260.7572	0.1739
260.9716	0.1692
261.186	0.1654
261.4003	0.1605
261.6147	0.1636
261.829	0.159
262.0433	0.1652
262.2577	0.1612
262.472	0.1694
262.6863	0.1522
262.9005	0.165
263.1148	0.1656
263.3291	0.1402
263.5433	0.1565
263.7576	0.1567
263.9718	0.1606
264.186	0.1579
264.4002	0.1657
264.6144	0.157
264.8286	0.1788
265.0427	0.1644
265.2569	0.1522
265.471	0.1529
265.6851	0.1546
265.8993	0.1654
266.1134	0.1538
266.3275	0.161
266.5415	0.1516
266.7556	0.1632
266.9697	0.1555
267.1837	0.1708
267.3978	0.1606
267.6118	0.1719
267.8258	0.1694
268.0398	0.1576
268.2538	0.1699
268.4677	0.1689
268.6817	0.1582
268.8957	0.1614
269.1096	0.1659
269.3235	0.1703
269.5374	0.1593
269.7514	0.1522
269.9652	0.1475
270.1791	0.1463
270.393	0.1478
270.6068	0.1593
270.8207	0.1469
271.0345	0.1425
271.2483	0.147
271.4622	0.1449
271.676	0.1633
271.8897	0.1352
272.1035	0.1466
272.3173	0.1482
272.531	0.1406
272.7448	0.1378
272.9585	0.1357
273.1722	0.1351
273.3859	0.1467
273.5996	0.1325
273.8133	0.1521
274.0269	0.1331
274.2406	0.1438
274.4542	0.1554
274.6679	0.1337
274.8815	0.1372
275.0951	0.145
275.3087	0.1511
275.5223	0.1573
275.7358	0.1524
275.9494	0.1514
276.1629	0.141
276.3765	0.1496
276.59	0.1458
276.8035	0.1505
277.017	0.1384
277.2305	0.1462
277.444	0.1535
277.6574	0.1445
277.8709	0.146
278.0843	0.1309
278.2978	0.1449
278.5112	0.1406
278.7246	0.1425
278.938	0.1572
279.1513	0.14
279.3647	0.1522
279.5781	0.1473
279.7914	0.1576
280.0047	0.1612
280.2181	0.1535
280.4314	0.1544
280.6447	0.1506
280.8579	0.1565
281.0712	0.1572
281.2845	0.1633
281.4977	0.1658
281.711	0.1483
281.9242	0.1544
282.1374	0.1673
282.3506	0.159
282.5638	0.1561
282.7769	0.1555
282.9901	0.1446
283.2033	0.1739
283.4164	0.1636
283.6295	0.1487
283.8426	0.1541
284.0557	0.1535
284.2688	0.1572
284.4819	0.1648
284.695	0.1563
284.908	0.1652
285.1211	0.16
285.3341	0.1601
285.5471	0.1681
285.7601	0.1609
285.9731	0.1594
286.1861	0.166
286.3991	0.172
286.612	0.1729
286.825	0.1652
287.0379	0.1681
287.2508	0.1442
287.4637	0.159
287.6766	0.1547
287.8895	0.1719
288.1024	0.1684
288.3152	0.1688
288.5281	0.1552
288.7409	0.1714
288.9538	0.1658
289.1666	0.1661
289.3794	0.1652
289.5922	0.16
289.8049	0.1517
290.0177	0.1697
290.2304	0.1577
290.4432	0.167
290.6559	0.1643
290.8686	0.1679
291.0813	0.1589
291.294	0.1777
291.5067	0.1803
291.7194	0.1655
291.932	0.1676
292.1447	0.1723
292.3573	0.1678
292.5699	0.1629
292.7825	0.1654
292.9951	0.1631
293.2077	0.1657
293.4203	0.1626
293.6328	0.1575
293.8454	0.1618
294.0579	0.1693
294.2704	0.1654
294.4829	0.1554
294.6954	0.1746
294.9079	0.1624
295.1204	0.1736
295.3328	0.1607
295.5453	0.1698
295.7577	0.161
295.9701	0.15
296.1825	0.1786
296.3949	0.161
296.6073	0.157
296.8197	0.1585
297.0321	0.1633
297.2444	0.1596
297.4567	0.1671
297.6691	0.1648
297.8814	0.1634
298.0937	0.161
298.306	0.1708
298.5182	0.1651
298.7305	0.1689
298.9428	0.1717
299.155	0.1789
299.3672	0.1612
299.5794	0.168
299.7916	0.1656
300.0038	0.1718
300.216	0.17
300.4282	0.1668
300.6403	0.1689
300.8525	0.1697
301.0646	0.1677
301.2767	0.1545
301.4888	0.1541
301.7009	0.1586
301.913	0.1627
302.125	0.1649
302.3371	0.1712
302.5491	0.162
302.7612	0.1705
302.9732	0.1642
303.1852	0.159
303.3972	0.1577
303.6092	0.1582
303.8211	0.1523
304.0331	0.1594
304.245	0.1671
304.457	0.1563
304.6689	0.1552
304.8808	0.1685
305.0927	0.1428
305.3046	0.1501
305.5164	0.1589
305.7283	0.152
305.9401	0.148
306.152	0.1473
306.3638	0.1531
306.5756	0.1416
306.7874	0.1569
306.9992	0.157
307.2109	0.1387
307.4227	0.1267
307.6344	0.1448
307.8462	0.1389
308.0579	0.1346
308.2696	0.1407
308.4813	0.1337
308.693	0.1376
308.9046	0.1353
309.1163	0.1233
309.328	0.1303
309.5396	0.1294
309.7512	0.1192
309.9628	0.1218
310.1744	0.1171
310.386	0.1209
310.5976	0.1215
310.8091	0.1183
311.0207	0.1106
311.2322	0.1244
311.4437	0.1141
311.6552	0.104
311.8667	0.1157
312.0782	0.0974
312.2897	0.105
312.5012	0.1103
312.7126	0.0934
312.924	0.1089
313.1355	0.1198
313.3469	0.1115
313.5583	0.1131
313.7696	0.106
313.981	0.103
314.1924	0.1102
314.4037	0.094
314.6151	0.1133
314.8264	0.1007
315.0377	0.0904
315.249	0.1077
315.4603	0.1139
315.6716	0.1012
315.8828	0.0978
316.0941	0.098
316.3053	0.1021
316.5165	0.0941
316.7277	0.1
316.9389	0.0977
317.1501	0.1009
317.3613	0.1019
317.5724	0.0847
317.7836	0.0958
317.9947	0.0985
318.2058	0.0971
318.417	0.0836
318.6281	0.0894
318.8391	0.0952
319.0502	0.0917
319.2613	0.1
319.4723	0.0949
319.6834	0.1062
319.8944	0.0861
320.1054	0.105
320.3164	0.1009
320.5274	0.0886
320.7383	0.0885
320.9493	0.1021
321.1602	0.0998
321.3712	0.0882
321.5821	0.0966
321.793	0.105
322.0039	0.0941
322.2148	0.0946
322.4257	0.1091
322.6365	0.1082
322.8474	0.1102
323.0582	0.0945
323.269	0.1021
323.4798	0.1064
323.6906	0.1071
323.9014	0.0943
324.1122	0.097
324.3229	0.0941
324.5337	0.1021
324.7444	0.0915
324.9551	0.1257
325.1658	0.1062
325.3765	0.1144
325.5872	0.1059
325.7979	0.1054
326.0085	0.1032
326.2192	0.1068
326.4298	0.1003
326.6404	0.0968
326.851	0.0931
327.0616	0.0901
327.2722	0.1099
327.4828	0.1049
327.6933	0.0983
327.9039	0.0972
328.1144	0.0997
328.3249	0.1025
328.5354	0.0926
328.7459	0.1028
328.9564	0.0964
329.1669	0.1096
329.3773	0.103
329.5878	0.107
329.7982	0.0996
330.0086	0.1031
330.219	0.1065
330.4294	0.0973
330.6398	0.0954
330.8502	0.0985
331.0605	0.1092
331.2708	0.0959
331.4812	0.1078
331.6915	0.1095
331.9018	0.103
332.1121	0.1075
332.3224	0.1107
332.5326	0.1187
332.7429	0.1009
332.9531	0.1108
333.1633	0.1143
333.3735	0.1007
333.5837	0.1139
333.7939	0.1037
334.0041	0.1048
334.2143	0.1115
334.4244	0.112
334.6346	0.0838
334.8447	0.1224
335.0548	0.1019
335.2649	0.0964
335.475	0.1168
335.685	0.1104
335.8951	0.1205
336.1051	0.1129
336.3152	0.1087
336.5252	0.1056
336.7352	0.1159
336.9452	0.1094
337.1552	0.114
337.3652	0.1172
337.5751	0.1108
337.7851	0.1203
337.995	0.1042
338.2049	0.1013
338.4148	0.107
338.6247	0.1055
338.8346	0.1062
339.0445	0.1142
339.2543	0.1039
339.4642	0.1223
339.674	0.1042
339.8838	0.1147
340.0936	0.114
340.3034	0.1212
340.5132	0.1121
340.7229	0.115
340.9327	0.1099
341.1424	0.1309
341.3522	0.1391
341.5619	0.1358
341.7716	0.1228
341.9813	0.125
342.1909	0.1079
342.4006	0.1146
342.6102	0.1121
342.8199	0.129
343.0295	0.1095
343.2391	0.1177
343.4487	0.1276
343.6583	0.1189
343.8679	0.1317
344.0774	0.1275
344.287	0.1261
344.4965	0.1102
344.706	0.1272
344.9155	0.1239
345.125	0.1143
345.3345	0.1245
345.544	0.1283
345.7534	0.1288
345.9629	0.1122
346.1723	0.1277
346.3817	0.1073
346.5911	0.1244
346.8005	0.1274
347.0099	0.127
347.2193	0.1245
347.4286	0.1308
347.638	0.1429
347.8473	0.1439
348.0566	0.1197
348.2659	0.1351
348.4752	0.1277
348.6845	0.1319
348.8937	0.1325
349.103	0.1399
349.3122	0.1295
349.5214	0.1295
349.7306	0.1488
349.9398	0.1466
350.149	0.1496
350.3582	0.1404
350.5674	0.1468
350.7765	0.1284
350.9856	0.1402
351.1948	0.1362
351.4039	0.1389
351.613	0.137
351.822	0.1415
352.0311	0.1556
352.2402	0.1368
352.4492	0.1352
352.6582	0.151
352.8672	0.1529
353.0762	0.1517
353.2852	0.1391
353.4942	0.1347
353.7032	0.1523
353.9121	0.1428
354.1211	0.1484
354.33	0.1478
354.5389	0.1422
354.7478	0.137
354.9567	0.1527
355.1655	0.1367
355.3744	0.151
355.5833	0.1643
355.7921	0.1701
356.0009	0.1536
356.2097	0.171
356.4185	0.1606
356.6273	0.172
356.8361	0.1624
357.0448	0.1592
357.2536	0.1497
357.4623	0.1393
357.671	0.1644
357.8797	0.1547
358.0884	0.1595
358.2971	0.1595
358.5057	0.1736
358.7144	0.1716
358.923	0.1616
359.1316	0.1692
359.3402	0.1652
359.5488	0.1647
359.7574	0.1649
359.966	0.1608
360.1746	0.1634
360.3831	0.1705
360.5916	0.171
360.8002	0.1644
361.0087	0.1728
361.2172	0.1736
361.4256	0.1749
361.6341	0.1833
361.8426	0.1741
362.051	0.1786
362.2594	0.1788
362.4678	0.1823
362.6762	0.1952
362.8846	0.1765
363.093	0.1869
363.3014	0.1688
363.5097	0.171
363.718	0.177
363.9264	0.1901
364.1347	0.1835
364.343	0.1958
364.5513	0.2021
364.7595	0.188
364.9678	0.195
365.176	0.1978
365.3842	0.2015
365.5925	0.201
365.8007	0.188
366.0089	0.2037
366.217	0.1888
366.4252	0.2059
366.6333	0.2214
366.8415	0.2078
367.0496	0.195
367.2577	0.1921
367.4658	0.2055
367.6739	0.2161
367.882	0.2092
368.09	0.1906
368.2981	0.2092
368.5061	0.2044
368.7141	0.218
368.9221	0.1959
369.1301	0.2246
369.3381	0.2023
369.5461	0.2176
369.754	0.2107
369.962	0.2256
370.1699	0.22
370.3778	0.2146
370.5857	0.2118
370.7936	0.2111
371.0015	0.2039
371.2093	0.2288
371.4172	0.233
371.625	0.2035
371.8328	0.2159
372.0406	0.2142
372.2484	0.2072
372.4562	0.2205
372.664	0.2246
372.8717	0.2333
373.0795	0.2187
373.2872	0.2231
373.4949	0.225
373.7026	0.2293
373.9103	0.2324
374.118	0.216
374.3256	0.2276
374.5333	0.2288
374.7409	0.2263
374.9485	0.2343
375.1561	0.2321
375.3637	0.2352
375.5713	0.2427
375.7789	0.2356
375.9864	0.2283
376.194	0.2414
376.4015	0.2342
376.609	0.2495
376.8165	0.2485
377.024	0.2209
377.2315	0.2299
377.4389	0.2303
377.6464	0.2507
377.8538	0.2371
378.0612	0.2446
378.2686	0.2434
378.476	0.2454
378.6834	0.2429
378.8908	0.2478
379.0981	0.2462
379.3055	0.243
379.5128	0.2382
379.7201	0.2582
379.9274	0.255
380.1347	0.2566
380.342	0.2476
380.5492	0.2497
380.7565	0.2546
380.9637	0.2499
381.1709	0.2425
381.3781	0.2491
381.5853	0.2525
381.7925	0.2682
381.9997	0.2619
382.2068	0.2594
382.4139	0.2603
382.6211	0.2519
382.8282	0.2523
383.0353	0.2503
383.2424	0.2536
383.4494	0.277
383.6565	0.2514
383.8635	0.2547
384.0706	0.259
384.2776	0.2532
384.4846	0.2599
384.6916	0.2583
384.8986	0.2645
385.1055	0.2567
385.3125	0.2505
385.5194	0.2451
385.7263	0.2691
385.9333	0.2474
386.1402	0.2502
386.347	0.2502
386.5539	0.2568
386.7608	0.2719
386.9676	0.26
387.1744	0.2521
387.3813	0.2576
387.5881	0.2451
387.7948	0.2453
388.0016	0.2605
388.2084	0.236
388.4151	0.2334
388.6219	0.254
388.8286	0.2483
389.0353	0.2661
389.242	0.2516
389.4487	0.245
389.6553	0.2404
389.862	0.2438
390.0686	0.2376
390.2753	0.2574
390.4819	0.243
390.6885	0.2471
390.8951	0.2312
391.1016	0.2267
391.3082	0.2404
391.5147	0.2398
391.7213	0.2563
391.9278	0.2239
392.1343	0.236
392.3408	0.2405
392.5473	0.2339
392.7537	0.2228
392.9602	0.2211
393.1666	0.2312
393.373	0.231
393.5794	0.2505
393.7858	0.2364
393.9922	0.224
394.1986	0.2436
394.4049	0.2215
394.6113	0.2354
394.8176	0.2225
395.0239	0.2393
395.2302	0.2075
395.4365	0.2234
395.6428	0.2058
395.8491	0.2123
396.0553	0.2274
396.2615	0.205
396.4678	0.2169
396.674	0.2019
396.8802	0.2282
397.0863	0.2409
397.2925	0.1976
397.4987	0.2117
397.7048	0.2149
397.9109	0.2284
398.117	0.2084
398.3231	0.2107
398.5292	0.2265
398.7353	0.2073
398.9413	0.2335
399.1474	0.2133
399.3534	0.2063
399.5594	0.1975
399.7654	0.232
399.9714	0.2204
400.1774	0.1967
400.3833	0.2078
400.5893	0.2322
400.7952	0.221
401.0011	0.205
401.207	0.2368
401.4129	0.2225
401.6188	0.2105
401.8247	0.2189
402.0305	0.2096
402.2364	0.2092
402.4422	0.2117
402.648	0.2208
402.8538	0.2276
403.0596	0.2125
403.2654	0.2168
403.4711	0.2284
403.6768	0.2296
403.8826	0.2322
404.0883	0.213
404.294	0.238
404.4997	0.2154
404.7054	0.1997
404.911	0.2099
405.1167	0.2133
405.3223	0.2328
405.5279	0.2174
405.7335	0.226
405.9391	0.2448
406.1447	0.2155
406.3502	0.2342
406.5558	0.2009
406.7613	0.2213
406.9668	0.2187
407.1724	0.2145
407.3778	0.2121
407.5833	0.2131
407.7888	0.2114
407.9942	0.223
408.1997	0.2154
408.4051	0.2156
408.6105	0.2168
408.8159	0.2248
409.0213	0.2042
409.2267	0.2163
409.432	0.2059
409.6374	0.2046
409.8427	0.2139
410.048	0.2117
410.2533	0.2169
410.4586	0.2141
410.6639	0.1909
410.8691	0.2193
411.0744	0.2117
411.2796	0.1962
411.4848	0.2097
411.69	0.1917
411.8952	0.2254
412.1004	0.1972
412.3056	0.2078
412.5107	0.2086
412.7158	0.2198
412.921	0.1982
413.1261	0.2022
413.3312	0.2007
413.5362	0.2055
413.7413	0.2026
413.9464	0.2027
414.1514	0.2226
414.3564	0.1929
414.5614	0.1878
414.7664	0.2157
414.9714	0.2043
415.1764	0.1958
415.3813	0.2209
415.5863	0.2125
415.7912	0.2175
415.9961	0.2044
416.201	0.1994
416.4059	0.2047
416.6108	0.1983
416.8156	0.2241
417.0205	0.1972
417.2253	0.1969
417.4301	0.2128
417.6349	0.2002
417.8397	0.19
418.0445	0.21
418.2492	0.199
418.454	0.2164
418.6587	0.2141
418.8634	0.2006
419.0681	0.1764
419.2728	0.1848
419.4775	0.1925
419.6822	0.1847
419.8868	0.2006
420.0915	0.1981
420.2961	0.1739
420.5007	0.1808
420.7053	0.1964
420.9099	0.2007
421.1144	0.1879
421.319	0.1835
421.5235	0.2042
421.728	0.1858
421.9325	0.1918
422.137	0.2003
422.3415	0.1916
422.546	0.1982
422.7504	0.177
422.9549	0.1871
423.1593	0.1936
423.3637	0.2052
423.5681	0.1761
423.7725	0.1758
423.9769	0.1706
424.1812	0.174
424.3856	0.1778
424.5899	0.1919
424.7942	0.1832
424.9985	0.1775
425.2028	0.1692
425.4071	0.1916
425.6113	0.1729
425.8156	0.1729
426.0198	0.1752
426.224	0.1694
426.4282	0.1704
426.6324	0.1737
426.8366	0.1611
