Data from MonoPyChalIsomerACN10uM360nmA_Absorbance_13-57-28-204.txt Node
Date: Fri Jul 05 13:57:28 BST 2024
User: LASERRRRR
Spectrometer: FLMT03099
Trigger mode: 0
Integration Time (sec): 1.000000E-1
Scans to average: 1
Electric dark correction enabled: true
Nonlinearity correction enabled: false
Boxcar width: 0
XAxis mode: Wavelengths
Number of Pixels in Spectrum: 3648
>>>>>Begin Spectral Data<<<<<
179.3399	-0.2076
179.5586	-0.2076
179.7771	-0.2076
179.9957	0.2275
180.2143	-0
180.4329	-0.2834
180.6514	0.0557
180.8699	-0
181.0885	-0.0776
181.307	0.1988
181.5255	-0.5538
181.744	-0.5575
181.9625	-0
182.181	-1.0847
182.3994	1.1519
182.6179	-0.3145
182.8363	-0.0106
183.0547	-0.237
183.2732	0.0458
183.4916	-0.1164
183.71	0.0667
183.9284	0.1536
184.1467	0.0507
184.3651	0.1127
184.5835	0.0084
184.8018	-0.0177
185.0201	-0.0104
185.2385	0.077
185.4568	0.4289
185.6751	0.1918
185.8934	0.1585
186.1117	0.0185
186.3299	0.0536
186.5482	-0.0782
186.7664	0.0338
186.9847	-0.0399
187.2029	-0.0005
187.4211	-0.0221
187.6393	0.3311
187.8575	-0.0617
188.0757	0.4182
188.2939	-0.0556
188.512	-0.25
188.7302	-0.0237
188.9483	-0.082
189.1665	0.3722
189.3846	0.5636
189.6027	0.2993
189.8208	0.178
190.0389	0.0791
190.257	0.0703
190.475	0.1951
190.6931	0.3399
190.9111	0.3294
191.1292	0.1564
191.3472	0.3243
191.5652	0.3172
191.7832	0.1422
192.0012	0.484
192.2192	0.3397
192.4371	0.6819
192.6551	0.3125
192.873	0.4686
193.091	0.4671
193.3089	0.9042
193.5268	0.4627
193.7447	0.5718
193.9626	0.4579
194.1805	0.4536
194.3984	1.1009
194.6162	0.5269
194.8341	0.4896
195.0519	0.5565
195.2697	1.0357
195.4875	0.6263
195.7054	0.508
195.9231	0.4898
196.1409	0.642
196.3587	0.5216
196.5765	0.5833
196.7942	0.4557
197.012	0.5056
197.2297	0.6792
197.4474	0.6112
197.6651	0.7133
197.8828	0.4141
198.1005	0.5396
198.3182	0.4302
198.5358	0.5753
198.7535	0.6146
198.9711	0.48
199.1888	0.581
199.4064	0.6519
199.624	0.5486
199.8416	0.5604
200.0592	0.5547
200.2767	0.5711
200.4943	0.6517
200.7119	0.7196
200.9294	0.7894
201.1469	0.612
201.3645	0.6215
201.582	0.6677
201.7995	0.5987
202.017	0.6201
202.2344	0.5619
202.4519	0.5891
202.6694	0.6306
202.8868	0.686
203.1042	0.8168
203.3217	0.641
203.5391	0.616
203.7565	0.6194
203.9739	0.588
204.1913	0.5619
204.4086	0.6319
204.626	0.7183
204.8433	0.6071
205.0607	0.5692
205.278	0.6448
205.4953	0.5477
205.7126	0.6273
205.9299	0.686
206.1472	0.6178
206.3644	0.5766
206.5817	0.6336
206.7989	0.6755
207.0162	0.6492
207.2334	0.6959
207.4506	0.59
207.6678	0.531
207.885	0.6197
208.1022	0.5396
208.3194	0.6963
208.5365	0.622
208.7537	0.6027
208.9708	0.5496
209.1879	0.6415
209.405	0.6273
209.6222	0.7197
209.8392	0.6803
210.0563	0.6139
210.2734	0.6468
210.4905	0.5926
210.7075	0.5844
210.9245	0.6029
211.1416	0.609
211.3586	0.5954
211.5756	0.5649
211.7926	0.5753
212.0096	0.5626
212.2265	0.5429
212.4435	0.5422
212.6604	0.5934
212.8774	0.5386
213.0943	0.5589
213.3112	0.5345
213.5281	0.4999
213.745	0.4973
213.9619	0.5029
214.1788	0.4713
214.3956	0.4791
214.6125	0.4703
214.8293	0.4426
215.0461	0.4388
215.2629	0.4772
215.4798	0.4755
215.6965	0.4018
215.9133	0.4594
216.1301	0.3829
216.3469	0.4162
216.5636	0.4046
216.7803	0.4138
216.9971	0.401
217.2138	0.3803
217.4305	0.3505
217.6472	0.3283
217.8639	0.4119
218.0805	0.3309
218.2972	0.3187
218.5138	0.3271
218.7305	0.3069
218.9471	0.3205
219.1637	0.2644
219.3803	0.2595
219.5969	0.2943
219.8135	0.2647
220.0301	0.2867
220.2466	0.2752
220.4632	0.2839
220.6797	0.244
220.8962	0.2453
221.1127	0.2533
221.3292	0.261
221.5457	0.2589
221.7622	0.2211
221.9787	0.2671
222.1951	0.2495
222.4116	0.2428
222.628	0.2728
222.8444	0.2561
223.0608	0.254
223.2772	0.2512
223.4936	0.2706
223.71	0.2513
223.9264	0.2866
224.1427	0.2661
224.3591	0.2459
224.5754	0.276
224.7917	0.2847
225.008	0.2827
225.2243	0.2578
225.4406	0.2817
225.6569	0.276
225.8732	0.2516
226.0894	0.2723
226.3057	0.2688
226.5219	0.2833
226.7381	0.2622
226.9543	0.2843
227.1705	0.2955
227.3867	0.2757
227.6029	0.2989
227.8191	0.3036
228.0352	0.2793
228.2513	0.3202
228.4675	0.3006
228.6836	0.2992
228.8997	0.2829
229.1158	0.3337
229.3319	0.3016
229.548	0.3328
229.764	0.3269
229.9801	0.3353
230.1961	0.3263
230.4121	0.3399
230.6282	0.3418
230.8442	0.337
231.0602	0.354
231.2761	0.3497
231.4921	0.337
231.7081	0.3404
231.924	0.3396
232.14	0.3671
232.3559	0.3415
232.5718	0.3649
232.7877	0.3641
233.0036	0.3588
233.2195	0.3618
233.4353	0.3813
233.6512	0.3574
233.867	0.3688
234.0829	0.3599
234.2987	0.3829
234.5145	0.3712
234.7303	0.3752
234.9461	0.4006
235.1619	0.3873
235.3776	0.3806
235.5934	0.3741
235.8091	0.3615
236.0249	0.3854
236.2406	0.3836
236.4563	0.3745
236.672	0.3894
236.8877	0.3874
237.1034	0.3904
237.319	0.3854
237.5347	0.4011
237.7503	0.3913
237.966	0.4215
238.1816	0.4164
238.3972	0.4098
238.6128	0.3918
238.8284	0.4014
239.0439	0.4089
239.2595	0.3955
239.475	0.4287
239.6906	0.419
239.9061	0.3994
240.1216	0.3904
240.3371	0.4043
240.5526	0.4007
240.7681	0.406
240.9836	0.3958
241.199	0.411
241.4145	0.3853
241.6299	0.4004
241.8453	0.3643
242.0607	0.392
242.2761	0.3639
242.4915	0.3599
242.7069	0.3791
242.9223	0.3545
243.1376	0.3461
243.353	0.3312
243.5683	0.3394
243.7836	0.3295
243.9989	0.3395
244.2142	0.3111
244.4295	0.316
244.6448	0.3103
244.86	0.2962
245.0753	0.2867
245.2905	0.2969
245.5057	0.2833
245.721	0.2812
245.9362	0.2694
246.1514	0.2636
246.3665	0.244
246.5817	0.2603
246.7969	0.2504
247.012	0.2423
247.2271	0.2383
247.4423	0.2409
247.6574	0.2266
247.8725	0.229
248.0876	0.2251
248.3026	0.2161
248.5177	0.2108
248.7328	0.23
248.9478	0.2051
249.1628	0.2111
249.3779	0.2191
249.5929	0.2029
249.8079	0.2044
250.0228	0.1984
250.2378	0.2022
250.4528	0.207
250.6677	0.1935
250.8827	0.1923
251.0976	0.1833
251.3125	0.1933
251.5274	0.1722
251.7423	0.1774
251.9572	0.1817
252.172	0.1834
252.3869	0.1898
252.6017	0.1655
252.8166	0.1721
253.0314	0.1545
253.2462	0.163
253.461	0.1788
253.6758	0.1767
253.8906	0.1787
254.1053	0.1653
254.3201	0.1622
254.5348	0.1691
254.7496	0.1786
254.9643	0.1722
255.179	0.1687
255.3937	0.1685
255.6083	0.1678
255.823	0.1652
256.0377	0.1625
256.2523	0.1793
256.467	0.1525
256.6816	0.1678
256.8962	0.1584
257.1108	0.154
257.3254	0.1715
257.54	0.1561
257.7545	0.1591
257.9691	0.1736
258.1836	0.1481
258.3981	0.1773
258.6127	0.1725
258.8272	0.1708
259.0417	0.1627
259.2561	0.1652
259.4706	0.1703
259.6851	0.1634
259.8995	0.1735
260.114	0.1631
260.3284	0.1605
260.5428	0.1563
260.7572	0.1663
260.9716	0.1568
261.186	0.1574
261.4003	0.1553
261.6147	0.1657
261.829	0.1605
262.0433	0.1557
262.2577	0.1606
262.472	0.1631
262.6863	0.1663
262.9005	0.166
263.1148	0.1587
263.3291	0.1522
263.5433	0.1568
263.7576	0.1618
263.9718	0.1748
264.186	0.16
264.4002	0.1638
264.6144	0.1597
264.8286	0.1752
265.0427	0.1569
265.2569	0.146
265.471	0.159
265.6851	0.1516
265.8993	0.1557
266.1134	0.1512
266.3275	0.1581
266.5415	0.1602
266.7556	0.1686
266.9697	0.1631
267.1837	0.1601
267.3978	0.1643
267.6118	0.1761
267.8258	0.1725
268.0398	0.1501
268.2538	0.1581
268.4677	0.1569
268.6817	0.1641
268.8957	0.1697
269.1096	0.1685
269.3235	0.1607
269.5374	0.1478
269.7514	0.1469
269.9652	0.1602
270.1791	0.1503
270.393	0.1484
270.6068	0.158
270.8207	0.1506
271.0345	0.1469
271.2483	0.1552
271.4622	0.1491
271.676	0.1637
271.8897	0.1393
272.1035	0.1469
272.3173	0.1433
272.531	0.1409
272.7448	0.1449
272.9585	0.1469
273.1722	0.1535
273.3859	0.1497
273.5996	0.1398
273.8133	0.1358
274.0269	0.1472
274.2406	0.1239
274.4542	0.1522
274.6679	0.1401
274.8815	0.1461
275.0951	0.1533
275.3087	0.1577
275.5223	0.1484
275.7358	0.147
275.9494	0.152
276.1629	0.1296
276.3765	0.1341
276.59	0.1372
276.8035	0.1523
277.017	0.1526
277.2305	0.1416
277.444	0.1471
277.6574	0.1332
277.8709	0.1443
278.0843	0.1458
278.2978	0.1535
278.5112	0.1439
278.7246	0.143
278.938	0.1453
279.1513	0.1467
279.3647	0.1606
279.5781	0.1494
279.7914	0.1483
280.0047	0.1537
280.2181	0.1554
280.4314	0.1549
280.6447	0.1564
280.8579	0.1542
281.0712	0.1611
281.2845	0.1572
281.4977	0.1546
281.711	0.1384
281.9242	0.1506
282.1374	0.1501
282.3506	0.1571
282.5638	0.166
282.7769	0.1558
282.9901	0.1532
283.2033	0.1597
283.4164	0.1572
283.6295	0.1551
283.8426	0.1534
284.0557	0.1593
284.2688	0.17
284.4819	0.161
284.695	0.1498
284.908	0.1619
285.1211	0.1496
285.3341	0.1591
285.5471	0.1664
285.7601	0.1465
285.9731	0.1633
286.1861	0.1576
286.3991	0.1625
286.612	0.1641
286.825	0.155
287.0379	0.1634
287.2508	0.1551
287.4637	0.1581
287.6766	0.1515
287.8895	0.17
288.1024	0.1757
288.3152	0.1628
288.5281	0.16
288.7409	0.1592
288.9538	0.1696
289.1666	0.1586
289.3794	0.1604
289.5922	0.1495
289.8049	0.1612
290.0177	0.1632
290.2304	0.1549
290.4432	0.1665
290.6559	0.1609
290.8686	0.1739
291.0813	0.159
291.294	0.1652
291.5067	0.1707
291.7194	0.161
291.932	0.1747
292.1447	0.1578
292.3573	0.166
292.5699	0.1644
292.7825	0.1605
292.9951	0.1648
293.2077	0.1605
293.4203	0.1675
293.6328	0.1494
293.8454	0.1611
294.0579	0.1685
294.2704	0.1703
294.4829	0.1531
294.6954	0.1681
294.9079	0.1739
295.1204	0.1623
295.3328	0.1622
295.5453	0.1615
295.7577	0.1654
295.9701	0.1503
296.1825	0.1659
296.3949	0.1606
296.6073	0.1639
296.8197	0.1492
297.0321	0.168
297.2444	0.1598
297.4567	0.1686
297.6691	0.161
297.8814	0.1592
298.0937	0.1586
298.306	0.1614
298.5182	0.1511
298.7305	0.1714
298.9428	0.1532
299.155	0.1585
299.3672	0.1595
299.5794	0.1638
299.7916	0.1548
300.0038	0.1586
300.216	0.1744
300.4282	0.1623
300.6403	0.1568
300.8525	0.1683
301.0646	0.1608
301.2767	0.1569
301.4888	0.1548
301.7009	0.1591
301.913	0.1628
302.125	0.1552
302.3371	0.1563
302.5491	0.1603
302.7612	0.163
302.9732	0.1603
303.1852	0.1628
303.3972	0.1626
303.6092	0.1538
303.8211	0.1438
304.0331	0.1485
304.245	0.1461
304.457	0.1525
304.6689	0.1586
304.8808	0.1628
305.0927	0.1542
305.3046	0.1503
305.5164	0.1536
305.7283	0.1423
305.9401	0.1556
306.152	0.1541
306.3638	0.1488
306.5756	0.149
306.7874	0.1399
306.9992	0.1519
307.2109	0.1344
307.4227	0.1246
307.6344	0.1435
307.8462	0.1368
308.0579	0.1294
308.2696	0.1324
308.4813	0.1375
308.693	0.1357
308.9046	0.133
309.1163	0.1374
309.328	0.1223
309.5396	0.1155
309.7512	0.1285
309.9628	0.1243
310.1744	0.1215
310.386	0.1157
310.5976	0.1203
310.8091	0.1171
311.0207	0.1142
311.2322	0.1125
311.4437	0.1135
311.6552	0.1083
311.8667	0.1119
312.0782	0.1045
312.2897	0.1159
312.5012	0.1042
312.7126	0.1063
312.924	0.0957
313.1355	0.1165
313.3469	0.1093
313.5583	0.1152
313.7696	0.1061
313.981	0.1101
314.1924	0.1067
314.4037	0.1089
314.6151	0.1154
314.8264	0.1032
315.0377	0.1031
315.249	0.0924
315.4603	0.1079
315.6716	0.1014
315.8828	0.0992
316.0941	0.0977
316.3053	0.0952
316.5165	0.0937
316.7277	0.0905
316.9389	0.1061
317.1501	0.0989
317.3613	0.1055
317.5724	0.0866
317.7836	0.1041
317.9947	0.1038
318.2058	0.0917
318.417	0.0805
318.6281	0.0861
318.8391	0.0975
319.0502	0.087
319.2613	0.0929
319.4723	0.0961
319.6834	0.1051
319.8944	0.0861
320.1054	0.0999
320.3164	0.1057
320.5274	0.0947
320.7383	0.0975
320.9493	0.0975
321.1602	0.1072
321.3712	0.1034
321.5821	0.1064
321.793	0.0948
322.0039	0.1057
322.2148	0.1018
322.4257	0.0987
322.6365	0.1122
322.8474	0.0962
323.0582	0.0926
323.269	0.0994
323.4798	0.1057
323.6906	0.1032
323.9014	0.0936
324.1122	0.0987
324.3229	0.0925
324.5337	0.0981
324.7444	0.0991
324.9551	0.1143
325.1658	0.1058
325.3765	0.11
325.5872	0.1077
325.7979	0.0937
326.0085	0.1091
326.2192	0.1099
326.4298	0.1168
326.6404	0.1024
326.851	0.0972
327.0616	0.1057
327.2722	0.1057
327.4828	0.1059
327.6933	0.0988
327.9039	0.1124
328.1144	0.1194
328.3249	0.1104
328.5354	0.0992
328.7459	0.0998
328.9564	0.1048
329.1669	0.1012
329.3773	0.1005
329.5878	0.1047
329.7982	0.1033
330.0086	0.1
330.219	0.1085
330.4294	0.1116
330.6398	0.1003
330.8502	0.0992
331.0605	0.108
331.2708	0.1143
331.4812	0.1138
331.6915	0.1092
331.9018	0.1036
332.1121	0.1017
332.3224	0.1086
332.5326	0.1077
332.7429	0.1061
332.9531	0.1181
333.1633	0.1092
333.3735	0.1136
333.5837	0.104
333.7939	0.1051
334.0041	0.1153
334.2143	0.1182
334.4244	0.1104
334.6346	0.0941
334.8447	0.1233
335.0548	0.1028
335.2649	0.106
335.475	0.1074
335.685	0.097
335.8951	0.1176
336.1051	0.1128
336.3152	0.1228
336.5252	0.106
336.7352	0.118
336.9452	0.1091
337.1552	0.1085
337.3652	0.0992
337.5751	0.1117
337.7851	0.1071
337.995	0.0972
338.2049	0.1155
338.4148	0.1233
338.6247	0.1185
338.8346	0.1097
339.0445	0.1063
339.2543	0.093
339.4642	0.1222
339.674	0.1077
339.8838	0.108
340.0936	0.1176
340.3034	0.1283
340.5132	0.1272
340.7229	0.117
340.9327	0.1102
341.1424	0.1075
341.3522	0.1383
341.5619	0.1167
341.7716	0.1107
341.9813	0.1158
342.1909	0.1213
342.4006	0.1309
342.6102	0.132
342.8199	0.1072
343.0295	0.1325
343.2391	0.1207
343.4487	0.1339
343.6583	0.1263
343.8679	0.1296
344.0774	0.1104
344.287	0.1338
344.4965	0.1152
344.706	0.1255
344.9155	0.1313
345.125	0.1258
345.3345	0.1328
345.544	0.1323
345.7534	0.1213
345.9629	0.1103
346.1723	0.1285
346.3817	0.1222
346.5911	0.1278
346.8005	0.139
347.0099	0.1204
347.2193	0.1269
347.4286	0.1263
347.638	0.1352
347.8473	0.1217
348.0566	0.1445
348.2659	0.1376
348.4752	0.1348
348.6845	0.1315
348.8937	0.1283
349.103	0.1385
349.3122	0.1351
349.5214	0.1406
349.7306	0.131
349.9398	0.1243
350.149	0.1443
350.3582	0.1329
350.5674	0.1468
350.7765	0.1474
350.9856	0.1395
351.1948	0.1349
351.4039	0.1262
351.613	0.1334
351.822	0.1374
352.0311	0.1399
352.2402	0.1546
352.4492	0.1447
352.6582	0.15
352.8672	0.139
353.0762	0.139
353.2852	0.1437
353.4942	0.1392
353.7032	0.156
353.9121	0.1524
354.1211	0.1481
354.33	0.1605
354.5389	0.1541
354.7478	0.1503
354.9567	0.1474
355.1655	0.1389
355.3744	0.159
355.5833	0.1612
355.7921	0.1543
356.0009	0.1404
356.2097	0.1657
356.4185	0.1634
356.6273	0.1719
356.8361	0.1667
357.0448	0.1532
357.2536	0.1667
357.4623	0.1514
357.671	0.1633
357.8797	0.1686
358.0884	0.1594
358.2971	0.1594
358.5057	0.1543
358.7144	0.164
358.923	0.1707
359.1316	0.1567
359.3402	0.1699
359.5488	0.1663
359.7574	0.1594
359.966	0.1769
360.1746	0.18
360.3831	0.1617
360.5916	0.1659
360.8002	0.1553
361.0087	0.1903
361.2172	0.177
361.4256	0.1793
361.6341	0.1759
361.8426	0.1725
362.051	0.17
362.2594	0.1733
362.4678	0.1729
362.6762	0.2029
362.8846	0.1802
363.093	0.1703
363.3014	0.1757
363.5097	0.1656
363.718	0.1995
363.9264	0.181
364.1347	0.1905
364.343	0.1938
364.5513	0.2005
364.7595	0.1873
364.9678	0.1979
365.176	0.2008
365.3842	0.1905
365.5925	0.1864
365.8007	0.2008
366.0089	0.1971
366.217	0.1786
366.4252	0.193
366.6333	0.2092
366.8415	0.1989
367.0496	0.1918
367.2577	0.2101
367.4658	0.2135
367.6739	0.2061
367.882	0.2179
368.09	0.185
368.2981	0.194
368.5061	0.1937
368.7141	0.2088
368.9221	0.225
369.1301	0.2044
369.3381	0.1945
369.5461	0.2068
369.754	0.2178
369.962	0.2066
370.1699	0.2187
370.3778	0.2277
370.5857	0.207
370.7936	0.2018
371.0015	0.2238
371.2093	0.2275
371.4172	0.2144
371.625	0.2084
371.8328	0.2087
372.0406	0.218
372.2484	0.208
372.4562	0.2357
372.664	0.2078
372.8717	0.224
373.0795	0.2045
373.2872	0.2194
373.4949	0.2224
373.7026	0.2253
373.9103	0.2128
374.118	0.2274
374.3256	0.2211
374.5333	0.216
374.7409	0.2303
374.9485	0.2447
375.1561	0.2266
375.3637	0.2267
375.5713	0.2371
375.7789	0.2286
375.9864	0.218
376.194	0.2264
376.4015	0.2509
376.609	0.2266
376.8165	0.2237
377.024	0.2232
377.2315	0.2333
377.4389	0.2314
377.6464	0.235
377.8538	0.2296
378.0612	0.2199
378.2686	0.2398
378.476	0.2486
378.6834	0.2522
378.8908	0.2392
379.0981	0.2469
379.3055	0.235
379.5128	0.2352
379.7201	0.2526
379.9274	0.243
380.1347	0.2441
380.342	0.2656
380.5492	0.2499
380.7565	0.2364
380.9637	0.2532
381.1709	0.2366
381.3781	0.2373
381.5853	0.2535
381.7925	0.2431
381.9997	0.256
382.2068	0.247
382.4139	0.2393
382.6211	0.2349
382.8282	0.2359
383.0353	0.2435
383.2424	0.2536
383.4494	0.2676
383.6565	0.2409
383.8635	0.2344
384.0706	0.2452
384.2776	0.2625
384.4846	0.2292
384.6916	0.2602
384.8986	0.2629
385.1055	0.2473
385.3125	0.2687
385.5194	0.2335
385.7263	0.2612
385.9333	0.2422
386.1402	0.251
386.347	0.2517
386.5539	0.2396
386.7608	0.2643
386.9676	0.2254
387.1744	0.251
387.3813	0.242
387.5881	0.2513
387.7948	0.2427
388.0016	0.2473
388.2084	0.2389
388.4151	0.2355
388.6219	0.2477
388.8286	0.253
389.0353	0.2444
389.242	0.2252
389.4487	0.2152
389.6553	0.2249
389.862	0.2108
390.0686	0.2312
390.2753	0.2518
390.4819	0.2419
390.6885	0.2393
390.8951	0.2584
391.1016	0.2358
391.3082	0.2486
391.5147	0.2415
391.7213	0.2315
391.9278	0.2233
392.1343	0.2214
392.3408	0.2364
392.5473	0.2372
392.7537	0.2241
392.9602	0.2211
393.1666	0.2185
393.373	0.2193
393.5794	0.2462
393.7858	0.2349
393.9922	0.204
394.1986	0.2273
394.4049	0.2143
394.6113	0.2359
394.8176	0.2012
395.0239	0.209
395.2302	0.205
395.4365	0.2223
395.6428	0.2214
395.8491	0.2072
396.0553	0.216
396.2615	0.2201
396.4678	0.2051
396.674	0.2032
396.8802	0.209
397.0863	0.2269
397.2925	0.2077
397.4987	0.2061
397.7048	0.2001
397.9109	0.1996
398.117	0.2004
398.3231	0.2087
398.5292	0.2101
398.7353	0.2158
398.9413	0.2236
399.1474	0.2152
399.3534	0.1956
399.5594	0.2078
399.7654	0.2186
399.9714	0.234
400.1774	0.1903
400.3833	0.2058
400.5893	0.2085
400.7952	0.1979
401.0011	0.2071
401.207	0.222
401.4129	0.1976
401.6188	0.2154
401.8247	0.2148
402.0305	0.1915
402.2364	0.2102
402.4422	0.2106
402.648	0.2093
402.8538	0.204
403.0596	0.1908
403.2654	0.2077
403.4711	0.1914
403.6768	0.2297
403.8826	0.2031
404.0883	0.211
404.294	0.2037
404.4997	0.2051
404.7054	0.2013
404.911	0.1925
405.1167	0.1993
405.3223	0.2001
405.5279	0.207
405.7335	0.2045
405.9391	0.2355
406.1447	0.2153
406.3502	0.2208
406.5558	0.2118
406.7613	0.2199
406.9668	0.2096
407.1724	0.2032
407.3778	0.2031
407.5833	0.2021
407.7888	0.2092
407.9942	0.2262
408.1997	0.2217
408.4051	0.2135
408.6105	0.2156
408.8159	0.1969
409.0213	0.189
409.2267	0.2278
409.432	0.1946
409.6374	0.2102
409.8427	0.1919
410.048	0.2157
410.2533	0.21
410.4586	0.2018
410.6639	0.1982
410.8691	0.2071
411.0744	0.2068
411.2796	0.1918
411.4848	0.1901
411.69	0.1908
411.8952	0.2203
412.1004	0.1719
412.3056	0.2072
412.5107	0.1878
412.7158	0.2073
412.921	0.199
413.1261	0.2025
413.3312	0.1899
413.5362	0.2013
413.7413	0.1937
413.9464	0.2144
414.1514	0.1938
414.3564	0.1954
414.5614	0.2051
414.7664	0.201
414.9714	0.2148
415.1764	0.1979
415.3813	0.2108
415.5863	0.1975
415.7912	0.1899
415.9961	0.1905
416.201	0.1945
416.4059	0.2078
416.6108	0.1873
416.8156	0.1899
417.0205	0.1997
417.2253	0.1833
417.4301	0.2048
417.6349	0.1889
417.8397	0.2014
418.0445	0.2076
418.2492	0.1943
418.454	0.1959
418.6587	0.1817
418.8634	0.1879
419.0681	0.1716
419.2728	0.1804
419.4775	0.194
419.6822	0.1836
419.8868	0.1571
420.0915	0.1872
420.2961	0.167
420.5007	0.1782
420.7053	0.1927
420.9099	0.1949
421.1144	0.1819
421.319	0.1702
421.5235	0.1793
421.728	0.1902
421.9325	0.1755
422.137	0.1962
422.3415	0.1953
422.546	0.1807
422.7504	0.1845
422.9549	0.1801
423.1593	0.1959
423.3637	0.1788
423.5681	0.1773
423.7725	0.1685
423.9769	0.178
424.1812	0.1681
424.3856	0.1741
424.5899	0.1955
424.7942	0.1737
424.9985	0.1754
425.2028	0.1695
425.4071	0.2036
425.6113	0.159
425.8156	0.1738
426.0198	0.1741
426.224	0.1563
426.4282	0.1537
