Data from MonoPyChalIsomerACN10uM360nmA_Absorbance_13-57-25-504.txt Node
Date: Fri Jul 05 13:57:25 BST 2024
User: LASERRRRR
Spectrometer: FLMT03099
Trigger mode: 0
Integration Time (sec): 1.000000E-1
Scans to average: 1
Electric dark correction enabled: true
Nonlinearity correction enabled: false
Boxcar width: 0
XAxis mode: Wavelengths
Number of Pixels in Spectrum: 3648
>>>>>Begin Spectral Data<<<<<
179.3399	1.45
179.5586	1.45
179.7771	1.45
179.9957	0.2464
180.2143	-0
180.4329	-0.1565
180.6514	-0
180.8699	-0
181.0885	0.3636
181.307	1.3045
181.5255	1.5798
181.744	-0.2035
181.9625	-0
182.181	-0.2752
182.3994	0.5815
182.6179	-0
182.8363	-0
183.0547	-0.2992
183.2732	-0.0801
183.4916	0.052
183.71	0.0962
183.9284	0.0047
184.1467	-0.1257
184.3651	-0.0936
184.5835	-0.0086
184.8018	0.5377
185.0201	0.0255
185.2385	-0.0744
185.4568	0.0833
185.6751	-0.1455
185.8934	0.3438
186.1117	-0.0875
186.3299	0.0114
186.5482	0.0733
186.7664	-0.0858
186.9847	-0.129
187.2029	-0.0432
187.4211	0.1637
187.6393	0.0629
187.8575	-0.0806
188.0757	0.3187
188.2939	0.0957
188.512	0.1886
188.7302	-0.0892
188.9483	-0.0807
189.1665	0.2079
189.3846	-0.1007
189.6027	0.1228
189.8208	0.2008
190.0389	0.1521
190.257	0.2723
190.475	0.0239
190.6931	0.1635
190.9111	0.284
191.1292	0.2493
191.3472	0.7084
191.5652	0.3143
191.7832	0.334
192.0012	0.5198
192.2192	0.2522
192.4371	0.4062
192.6551	0.2928
192.873	0.3834
193.091	0.3224
193.3089	0.4812
193.5268	0.6621
193.7447	0.508
193.9626	0.5055
194.1805	0.7015
194.3984	0.8485
194.6162	0.7105
194.8341	0.5726
195.0519	0.5379
195.2697	0.7116
195.4875	0.7231
195.7054	0.4196
195.9231	0.4812
196.1409	0.5522
196.3587	0.5434
196.5765	0.4798
196.7942	0.5562
197.012	0.4948
197.2297	0.5544
197.4474	0.7112
197.6651	0.5956
197.8828	0.6151
198.1005	0.6388
198.3182	0.5503
198.5358	0.6907
198.7535	0.6251
198.9711	0.4683
199.1888	0.5951
199.4064	0.7046
199.624	0.5241
199.8416	0.6765
200.0592	0.5204
200.2767	0.6743
200.4943	0.6058
200.7119	0.704
200.9294	0.7073
201.1469	0.4673
201.3645	0.559
201.582	0.5716
201.7995	0.7366
202.017	0.7283
202.2344	0.5906
202.4519	0.7871
202.6694	0.6389
202.8868	0.6712
203.1042	0.6856
203.3217	0.5902
203.5391	0.5987
203.7565	0.545
203.9739	0.5772
204.1913	0.5271
204.4086	0.7385
204.626	0.7213
204.8433	0.5616
205.0607	0.4955
205.278	0.6887
205.4953	0.5549
205.7126	0.5768
205.9299	0.5979
206.1472	0.674
206.3644	0.6826
206.5817	0.6682
206.7989	0.6381
207.0162	0.6656
207.2334	0.6844
207.4506	0.7288
207.6678	0.5448
207.885	0.6151
208.1022	0.6494
208.3194	0.6517
208.5365	0.6069
208.7537	0.6188
208.9708	0.5699
209.1879	0.5615
209.405	0.7084
209.6222	0.8107
209.8392	0.6347
210.0563	0.6216
210.2734	0.6457
210.4905	0.5691
210.7075	0.5615
210.9245	0.565
211.1416	0.6459
211.3586	0.6447
211.5756	0.5956
211.7926	0.5975
212.0096	0.5773
212.2265	0.5868
212.4435	0.5592
212.6604	0.5988
212.8774	0.5541
213.0943	0.5591
213.3112	0.5738
213.5281	0.5236
213.745	0.5096
213.9619	0.4933
214.1788	0.4667
214.3956	0.5106
214.6125	0.472
214.8293	0.4428
215.0461	0.4477
215.2629	0.4636
215.4798	0.5027
215.6965	0.4161
215.9133	0.4456
216.1301	0.4121
216.3469	0.4524
216.5636	0.3828
216.7803	0.3746
216.9971	0.4175
217.2138	0.3921
217.4305	0.3896
217.6472	0.3527
217.8639	0.3934
218.0805	0.3275
218.2972	0.3134
218.5138	0.3231
218.7305	0.3311
218.9471	0.3104
219.1637	0.3157
219.3803	0.2658
219.5969	0.287
219.8135	0.255
220.0301	0.2756
220.2466	0.2644
220.4632	0.2645
220.6797	0.2399
220.8962	0.2424
221.1127	0.2575
221.3292	0.2366
221.5457	0.2724
221.7622	0.2452
221.9787	0.2485
222.1951	0.2464
222.4116	0.2693
222.628	0.2639
222.8444	0.2691
223.0608	0.2368
223.2772	0.2401
223.4936	0.2601
223.71	0.2588
223.9264	0.2746
224.1427	0.2428
224.3591	0.2591
224.5754	0.2553
224.7917	0.265
225.008	0.2757
225.2243	0.2791
225.4406	0.2815
225.6569	0.2653
225.8732	0.2636
226.0894	0.273
226.3057	0.2707
226.5219	0.3133
226.7381	0.2726
226.9543	0.2835
227.1705	0.318
227.3867	0.2924
227.6029	0.3254
227.8191	0.3122
228.0352	0.3098
228.2513	0.3106
228.4675	0.3363
228.6836	0.3059
228.8997	0.3107
229.1158	0.3296
229.3319	0.305
229.548	0.328
229.764	0.3296
229.9801	0.3403
230.1961	0.3352
230.4121	0.3313
230.6282	0.3285
230.8442	0.3184
231.0602	0.3715
231.2761	0.3394
231.4921	0.3592
231.7081	0.3588
231.924	0.3688
232.14	0.3666
232.3559	0.3379
232.5718	0.3719
232.7877	0.3552
233.0036	0.3393
233.2195	0.3524
233.4353	0.3503
233.6512	0.3679
233.867	0.3653
234.0829	0.3684
234.2987	0.3559
234.5145	0.3851
234.7303	0.3614
234.9461	0.3881
235.1619	0.3772
235.3776	0.3815
235.5934	0.4071
235.8091	0.3875
236.0249	0.3869
236.2406	0.3945
236.4563	0.3897
236.672	0.4035
236.8877	0.3995
237.1034	0.4025
237.319	0.4057
237.5347	0.4038
237.7503	0.4074
237.966	0.4064
238.1816	0.4036
238.3972	0.4104
238.6128	0.3984
238.8284	0.4357
239.0439	0.4156
239.2595	0.4053
239.475	0.4199
239.6906	0.4243
239.9061	0.3994
240.1216	0.393
240.3371	0.3961
240.5526	0.3992
240.7681	0.4063
240.9836	0.3923
241.199	0.4111
241.4145	0.409
241.6299	0.3791
241.8453	0.382
242.0607	0.3732
242.2761	0.3745
242.4915	0.3505
242.7069	0.3667
242.9223	0.3501
243.1376	0.355
243.353	0.3621
243.5683	0.3436
243.7836	0.3246
243.9989	0.3299
244.2142	0.3058
244.4295	0.3133
244.6448	0.2969
244.86	0.2849
245.0753	0.2903
245.2905	0.2897
245.5057	0.2819
245.721	0.2931
245.9362	0.2532
246.1514	0.2635
246.3665	0.2603
246.5817	0.2519
246.7969	0.2464
247.012	0.2525
247.2271	0.2419
247.4423	0.2552
247.6574	0.2341
247.8725	0.2267
248.0876	0.2189
248.3026	0.2258
248.5177	0.2236
248.7328	0.2126
248.9478	0.1994
249.1628	0.207
249.3779	0.238
249.5929	0.1891
249.8079	0.229
250.0228	0.2095
250.2378	0.2025
250.4528	0.202
250.6677	0.1839
250.8827	0.2023
251.0976	0.1965
251.3125	0.1848
251.5274	0.1853
251.7423	0.1858
251.9572	0.195
252.172	0.1833
252.3869	0.1843
252.6017	0.1827
252.8166	0.1703
253.0314	0.1725
253.2462	0.1723
253.461	0.186
253.6758	0.1708
253.8906	0.1813
254.1053	0.1722
254.3201	0.1805
254.5348	0.1773
254.7496	0.1775
254.9643	0.1643
255.179	0.1666
255.3937	0.1659
255.6083	0.1704
255.823	0.1718
256.0377	0.1681
256.2523	0.1743
256.467	0.1464
256.6816	0.1645
256.8962	0.1635
257.1108	0.1565
257.3254	0.1776
257.54	0.1663
257.7545	0.1658
257.9691	0.1718
258.1836	0.1571
258.3981	0.1651
258.6127	0.1708
258.8272	0.1562
259.0417	0.1656
259.2561	0.1601
259.4706	0.1671
259.6851	0.1644
259.8995	0.1664
260.114	0.1579
260.3284	0.1541
260.5428	0.1522
260.7572	0.1742
260.9716	0.1817
261.186	0.1484
261.4003	0.1594
261.6147	0.1676
261.829	0.1761
262.0433	0.1661
262.2577	0.1571
262.472	0.1634
262.6863	0.1605
262.9005	0.1579
263.1148	0.1535
263.3291	0.1413
263.5433	0.1658
263.7576	0.1661
263.9718	0.161
264.186	0.1653
264.4002	0.1678
264.6144	0.1595
264.8286	0.1631
265.0427	0.1568
265.2569	0.1583
265.471	0.1604
265.6851	0.1622
265.8993	0.1624
266.1134	0.1519
266.3275	0.1437
266.5415	0.1563
266.7556	0.1745
266.9697	0.1705
267.1837	0.1583
267.3978	0.1582
267.6118	0.1715
267.8258	0.1726
268.0398	0.1631
268.2538	0.1703
268.4677	0.1695
268.6817	0.1526
268.8957	0.1492
269.1096	0.1647
269.3235	0.1654
269.5374	0.1504
269.7514	0.1565
269.9652	0.1432
270.1791	0.1539
270.393	0.1582
270.6068	0.1566
270.8207	0.1478
271.0345	0.1482
271.2483	0.1485
271.4622	0.1448
271.676	0.1484
271.8897	0.1398
272.1035	0.1411
272.3173	0.1293
272.531	0.1439
272.7448	0.1359
272.9585	0.1369
273.1722	0.14
273.3859	0.142
273.5996	0.136
273.8133	0.1479
274.0269	0.1371
274.2406	0.1324
274.4542	0.1362
274.6679	0.1314
274.8815	0.1442
275.0951	0.1425
275.3087	0.1478
275.5223	0.1482
275.7358	0.1475
275.9494	0.1446
276.1629	0.1314
276.3765	0.1458
276.59	0.1446
276.8035	0.1495
277.017	0.1439
277.2305	0.1334
277.444	0.14
277.6574	0.1482
277.8709	0.1494
278.0843	0.1358
278.2978	0.1426
278.5112	0.1353
278.7246	0.1436
278.938	0.1458
279.1513	0.1393
279.3647	0.1598
279.5781	0.1443
279.7914	0.1491
280.0047	0.1596
280.2181	0.1424
280.4314	0.1503
280.6447	0.1414
280.8579	0.1446
281.0712	0.1522
281.2845	0.146
281.4977	0.1484
281.711	0.1394
281.9242	0.1383
282.1374	0.1678
282.3506	0.1569
282.5638	0.155
282.7769	0.1501
282.9901	0.1493
283.2033	0.1659
283.4164	0.1507
283.6295	0.155
283.8426	0.1537
284.0557	0.1548
284.2688	0.1778
284.4819	0.1499
284.695	0.1584
284.908	0.16
285.1211	0.1479
285.3341	0.1699
285.5471	0.1563
285.7601	0.156
285.9731	0.1541
286.1861	0.1586
286.3991	0.1683
286.612	0.1673
286.825	0.164
287.0379	0.1661
287.2508	0.1515
287.4637	0.1554
287.6766	0.1526
287.8895	0.18
288.1024	0.1798
288.3152	0.1646
288.5281	0.1463
288.7409	0.1688
288.9538	0.1683
289.1666	0.1695
289.3794	0.1705
289.5922	0.1693
289.8049	0.1623
290.0177	0.1714
290.2304	0.1709
290.4432	0.1759
290.6559	0.161
290.8686	0.1714
291.0813	0.1649
291.294	0.172
291.5067	0.1676
291.7194	0.1602
291.932	0.179
292.1447	0.1719
292.3573	0.1695
292.5699	0.1672
292.7825	0.1717
292.9951	0.165
293.2077	0.1535
293.4203	0.1666
293.6328	0.1596
293.8454	0.1786
294.0579	0.1654
294.2704	0.1584
294.4829	0.1653
294.6954	0.1723
294.9079	0.1723
295.1204	0.1689
295.3328	0.1725
295.5453	0.1632
295.7577	0.1698
295.9701	0.169
296.1825	0.1501
296.3949	0.1554
296.6073	0.1711
296.8197	0.1618
297.0321	0.179
297.2444	0.1666
297.4567	0.1775
297.6691	0.1723
297.8814	0.1717
298.0937	0.1556
298.306	0.1809
298.5182	0.1678
298.7305	0.1687
298.9428	0.1693
299.155	0.1738
299.3672	0.1618
299.5794	0.1523
299.7916	0.164
300.0038	0.1738
300.216	0.1736
300.4282	0.1757
300.6403	0.1605
300.8525	0.1739
301.0646	0.1609
301.2767	0.1673
301.4888	0.1686
301.7009	0.1729
301.913	0.1533
302.125	0.1608
302.3371	0.1658
302.5491	0.1641
302.7612	0.1701
302.9732	0.1743
303.1852	0.1712
303.3972	0.1603
303.6092	0.1612
303.8211	0.1611
304.0331	0.1512
304.245	0.1553
304.457	0.1591
304.6689	0.1473
304.8808	0.1564
305.0927	0.1417
305.3046	0.1536
305.5164	0.163
305.7283	0.1551
305.9401	0.1549
306.152	0.1463
306.3638	0.1653
306.5756	0.149
306.7874	0.1609
306.9992	0.1527
307.2109	0.143
307.4227	0.1296
307.6344	0.1392
307.8462	0.1269
308.0579	0.1386
308.2696	0.134
308.4813	0.1228
308.693	0.1293
308.9046	0.1339
309.1163	0.1219
309.328	0.1333
309.5396	0.1244
309.7512	0.1285
309.9628	0.1143
310.1744	0.1114
310.386	0.1234
310.5976	0.1172
310.8091	0.119
311.0207	0.1077
311.2322	0.115
311.4437	0.1178
311.6552	0.1093
311.8667	0.1167
312.0782	0.0956
312.2897	0.1072
312.5012	0.1109
312.7126	0.1067
312.924	0.0992
313.1355	0.1074
313.3469	0.098
313.5583	0.1064
313.7696	0.1145
313.981	0.1061
314.1924	0.1074
314.4037	0.0986
314.6151	0.1093
314.8264	0.0983
315.0377	0.1015
315.249	0.0974
315.4603	0.1047
315.6716	0.0942
315.8828	0.0905
316.0941	0.1094
316.3053	0.0941
316.5165	0.0908
316.7277	0.0962
316.9389	0.101
317.1501	0.0929
317.3613	0.1037
317.5724	0.0869
317.7836	0.1082
317.9947	0.096
318.2058	0.0983
318.417	0.0941
318.6281	0.0892
318.8391	0.1033
319.0502	0.0909
319.2613	0.0924
319.4723	0.1031
319.6834	0.0969
319.8944	0.0916
320.1054	0.0941
320.3164	0.102
320.5274	0.0936
320.7383	0.0887
320.9493	0.0921
321.1602	0.1012
321.3712	0.0794
321.5821	0.095
321.793	0.0978
322.0039	0.0913
322.2148	0.0995
322.4257	0.0964
322.6365	0.1033
322.8474	0.1014
323.0582	0.0898
323.269	0.1027
323.4798	0.1096
323.6906	0.105
323.9014	0.1093
324.1122	0.0958
324.3229	0.1019
324.5337	0.104
324.7444	0.0874
324.9551	0.1028
325.1658	0.0929
325.3765	0.1072
325.5872	0.1063
325.7979	0.1025
326.0085	0.1027
326.2192	0.1057
326.4298	0.1008
326.6404	0.0925
326.851	0.1053
327.0616	0.0886
327.2722	0.0957
327.4828	0.1039
327.6933	0.0984
327.9039	0.0958
328.1144	0.1168
328.3249	0.1016
328.5354	0.097
328.7459	0.1006
328.9564	0.1011
329.1669	0.1031
329.3773	0.1073
329.5878	0.1046
329.7982	0.1018
330.0086	0.1021
330.219	0.1086
330.4294	0.1017
330.6398	0.1051
330.8502	0.0924
331.0605	0.1176
331.2708	0.1
331.4812	0.1023
331.6915	0.109
331.9018	0.1088
332.1121	0.1052
332.3224	0.1173
332.5326	0.1093
332.7429	0.0993
332.9531	0.1039
333.1633	0.094
333.3735	0.0936
333.5837	0.1023
333.7939	0.0957
334.0041	0.1046
334.2143	0.1048
334.4244	0.0987
334.6346	0.0851
334.8447	0.1209
335.0548	0.0929
335.2649	0.0905
335.475	0.1144
335.685	0.0964
335.8951	0.1076
336.1051	0.1082
336.3152	0.105
336.5252	0.0994
336.7352	0.114
336.9452	0.1179
337.1552	0.1076
337.3652	0.1035
337.5751	0.1056
337.7851	0.1083
337.995	0.1033
338.2049	0.1169
338.4148	0.1074
338.6247	0.1132
338.8346	0.1132
339.0445	0.104
339.2543	0.1099
339.4642	0.1116
339.674	0.1031
339.8838	0.1223
340.0936	0.1065
340.3034	0.1344
340.5132	0.1165
340.7229	0.1134
340.9327	0.1163
341.1424	0.1
341.3522	0.1174
341.5619	0.1229
341.7716	0.1147
341.9813	0.1147
342.1909	0.1083
342.4006	0.1117
342.6102	0.1273
342.8199	0.1229
343.0295	0.1188
343.2391	0.1142
343.4487	0.1158
343.6583	0.1122
343.8679	0.1183
344.0774	0.1227
344.287	0.1323
344.4965	0.1215
344.706	0.1286
344.9155	0.1272
345.125	0.1361
345.3345	0.1291
345.544	0.124
345.7534	0.1288
345.9629	0.1173
346.1723	0.1266
346.3817	0.1171
346.5911	0.1291
346.8005	0.1279
347.0099	0.1244
347.2193	0.1294
347.4286	0.1234
347.638	0.1316
347.8473	0.1323
348.0566	0.1336
348.2659	0.1291
348.4752	0.1244
348.6845	0.1321
348.8937	0.1343
349.103	0.149
349.3122	0.1338
349.5214	0.1263
349.7306	0.1414
349.9398	0.1258
350.149	0.1436
350.3582	0.1252
350.5674	0.1522
350.7765	0.1287
350.9856	0.1358
351.1948	0.1297
351.4039	0.1265
351.613	0.1378
351.822	0.1476
352.0311	0.1434
352.2402	0.1387
352.4492	0.1435
352.6582	0.143
352.8672	0.1442
353.0762	0.1574
353.2852	0.1529
353.4942	0.1502
353.7032	0.1503
353.9121	0.1466
354.1211	0.1511
354.33	0.1478
354.5389	0.1478
354.7478	0.15
354.9567	0.1513
355.1655	0.1624
355.3744	0.1625
355.5833	0.1626
355.7921	0.162
356.0009	0.1503
356.2097	0.1626
356.4185	0.1729
356.6273	0.1672
356.8361	0.1558
357.0448	0.1583
357.2536	0.1574
357.4623	0.1676
357.671	0.1537
357.8797	0.1597
358.0884	0.1547
358.2971	0.1614
358.5057	0.1658
358.7144	0.1795
358.923	0.1668
359.1316	0.1717
359.3402	0.1685
359.5488	0.1571
359.7574	0.1605
359.966	0.165
360.1746	0.1787
360.3831	0.1701
360.5916	0.1694
360.8002	0.1558
361.0087	0.178
361.2172	0.1744
361.4256	0.1704
361.6341	0.1996
361.8426	0.1816
362.051	0.1815
362.2594	0.1882
362.4678	0.1969
362.6762	0.2017
362.8846	0.1957
363.093	0.1788
363.3014	0.1842
363.5097	0.1772
363.718	0.1853
363.9264	0.1816
364.1347	0.1933
364.343	0.1946
364.5513	0.2029
364.7595	0.2002
364.9678	0.1929
365.176	0.2055
365.3842	0.2106
365.5925	0.1912
365.8007	0.1955
366.0089	0.2032
366.217	0.1957
366.4252	0.203
366.6333	0.2099
366.8415	0.2187
367.0496	0.1946
367.2577	0.2177
367.4658	0.2076
367.6739	0.1942
367.882	0.2144
368.09	0.204
368.2981	0.2228
368.5061	0.2005
368.7141	0.2189
368.9221	0.2245
369.1301	0.2016
369.3381	0.2149
369.5461	0.2108
369.754	0.2122
369.962	0.2363
370.1699	0.2159
370.3778	0.2376
370.5857	0.2028
370.7936	0.2279
371.0015	0.2149
371.2093	0.2263
371.4172	0.2446
371.625	0.2185
371.8328	0.2174
372.0406	0.2328
372.2484	0.2266
372.4562	0.2411
372.664	0.2133
372.8717	0.227
373.0795	0.2203
373.2872	0.2259
373.4949	0.2208
373.7026	0.2391
373.9103	0.2245
374.118	0.257
374.3256	0.2375
374.5333	0.2421
374.7409	0.2441
374.9485	0.2434
375.1561	0.241
375.3637	0.2529
375.5713	0.2456
375.7789	0.2385
375.9864	0.225
376.194	0.2235
376.4015	0.2432
376.609	0.2458
376.8165	0.2503
377.024	0.23
377.2315	0.2265
377.4389	0.2397
377.6464	0.2542
377.8538	0.2519
378.0612	0.2344
378.2686	0.2467
378.476	0.2645
378.6834	0.2495
378.8908	0.2533
379.0981	0.2453
379.3055	0.2504
379.5128	0.245
379.7201	0.2485
379.9274	0.2443
380.1347	0.254
380.342	0.2604
380.5492	0.2484
380.7565	0.2491
380.9637	0.2565
381.1709	0.262
381.3781	0.259
381.5853	0.2599
381.7925	0.2709
381.9997	0.2779
382.2068	0.2704
382.4139	0.2565
382.6211	0.2514
382.8282	0.251
383.0353	0.2527
383.2424	0.2597
383.4494	0.2825
383.6565	0.2743
383.8635	0.2668
384.0706	0.2663
384.2776	0.2778
384.4846	0.2697
384.6916	0.2596
384.8986	0.2562
385.1055	0.2573
385.3125	0.2466
385.5194	0.2416
385.7263	0.2748
385.9333	0.2589
386.1402	0.2567
386.347	0.2546
386.5539	0.2452
386.7608	0.2796
386.9676	0.2484
387.1744	0.2634
387.3813	0.249
387.5881	0.2598
387.7948	0.2432
388.0016	0.269
388.2084	0.2531
388.4151	0.2521
388.6219	0.2693
388.8286	0.2669
389.0353	0.2684
389.242	0.2664
389.4487	0.2465
389.6553	0.2567
389.862	0.2468
390.0686	0.2483
390.2753	0.2535
390.4819	0.2474
390.6885	0.2587
390.8951	0.2316
391.1016	0.2315
391.3082	0.2439
391.5147	0.2493
391.7213	0.2377
391.9278	0.2389
392.1343	0.2319
392.3408	0.2452
392.5473	0.2415
392.7537	0.2451
392.9602	0.2396
393.1666	0.241
393.373	0.248
393.5794	0.2327
393.7858	0.2442
393.9922	0.2311
394.1986	0.236
394.4049	0.2287
394.6113	0.2102
394.8176	0.2226
395.0239	0.2318
395.2302	0.2256
395.4365	0.2185
395.6428	0.2199
395.8491	0.2197
396.0553	0.2319
396.2615	0.2149
396.4678	0.229
396.674	0.2278
396.8802	0.2265
397.0863	0.2477
397.2925	0.2176
397.4987	0.2037
397.7048	0.2042
397.9109	0.219
398.117	0.2054
398.3231	0.2143
398.5292	0.2274
398.7353	0.2371
398.9413	0.2188
399.1474	0.2202
399.3534	0.2271
399.5594	0.2172
399.7654	0.2367
399.9714	0.2257
400.1774	0.2206
400.3833	0.2177
400.5893	0.2165
400.7952	0.2102
401.0011	0.2234
401.207	0.2249
401.4129	0.2161
401.6188	0.2205
401.8247	0.2255
402.0305	0.2232
402.2364	0.1995
402.4422	0.2308
402.648	0.2349
402.8538	0.2327
403.0596	0.2197
403.2654	0.2399
403.4711	0.2081
403.6768	0.2084
403.8826	0.2197
404.0883	0.2233
404.294	0.2233
404.4997	0.2225
404.7054	0.2229
404.911	0.211
405.1167	0.2262
405.3223	0.2286
405.5279	0.227
405.7335	0.2395
405.9391	0.2332
406.1447	0.2245
406.3502	0.2441
406.5558	0.209
406.7613	0.2362
406.9668	0.2276
407.1724	0.2066
407.3778	0.2034
407.5833	0.2212
407.7888	0.2138
407.9942	0.2131
408.1997	0.2132
408.4051	0.2086
408.6105	0.2287
408.8159	0.2132
409.0213	0.222
409.2267	0.2396
409.432	0.2075
409.6374	0.2179
409.8427	0.2085
410.048	0.204
410.2533	0.2098
410.4586	0.2102
410.6639	0.2166
410.8691	0.2089
411.0744	0.2081
411.2796	0.2263
411.4848	0.2056
411.69	0.2098
411.8952	0.226
412.1004	0.2106
412.3056	0.2253
412.5107	0.2085
412.7158	0.2285
412.921	0.1992
413.1261	0.2035
413.3312	0.2246
413.5362	0.2161
413.7413	0.2123
413.9464	0.207
414.1514	0.2183
414.3564	0.2149
414.5614	0.1879
414.7664	0.2156
414.9714	0.2185
415.1764	0.2053
415.3813	0.2137
415.5863	0.2277
415.7912	0.2169
415.9961	0.2167
416.201	0.2107
416.4059	0.219
416.6108	0.1997
416.8156	0.2189
417.0205	0.2086
417.2253	0.1936
417.4301	0.2209
417.6349	0.1978
417.8397	0.2107
418.0445	0.2104
418.2492	0.2068
418.454	0.2117
418.6587	0.1999
418.8634	0.2008
419.0681	0.1972
419.2728	0.1961
419.4775	0.2046
419.6822	0.1897
419.8868	0.1939
420.0915	0.1959
420.2961	0.1844
420.5007	0.1754
420.7053	0.2119
420.9099	0.2096
421.1144	0.1936
421.319	0.1925
421.5235	0.1941
421.728	0.1941
421.9325	0.2044
422.137	0.2198
422.3415	0.1923
422.546	0.1994
422.7504	0.1881
422.9549	0.195
423.1593	0.1788
423.3637	0.1972
423.5681	0.1875
423.7725	0.1656
423.9769	0.1809
424.1812	0.1709
424.3856	0.1991
424.5899	0.1929
424.7942	0.1932
424.9985	0.1834
425.2028	0.1744
425.4071	0.2008
425.6113	0.17
425.8156	0.1842
426.0198	0.1813
426.224	0.1702
426.4282	0.1774
