Data from MonoPyChalIsomerACN10uM360nmA_Absorbance_13-57-30-606.txt Node
Date: Fri Jul 05 13:57:30 BST 2024
User: LASERRRRR
Spectrometer: FLMT03099
Trigger mode: 0
Integration Time (sec): 1.000000E-1
Scans to average: 1
Electric dark correction enabled: true
Nonlinearity correction enabled: false
Boxcar width: 0
XAxis mode: Wavelengths
Number of Pixels in Spectrum: 3648
>>>>>Begin Spectral Data<<<<<
179.3399	0.1589
179.5586	0.1589
179.7771	0.1589
179.9957	0.2728
180.2143	-0
180.4329	0.7898
180.6514	-0
180.8699	-0
181.0885	-0.1966
181.307	0.0221
181.5255	-0.4576
181.744	-0.2415
181.9625	-0.0523
182.181	1.415
182.3994	0.8862
182.6179	0.056
182.8363	-0
183.0547	0.2076
183.2732	-0.0154
183.4916	0.1526
183.71	-0.0716
183.9284	0.2442
184.1467	-0.1417
184.3651	-0.0534
184.5835	-0.2425
184.8018	-0.0272
185.0201	-0.0672
185.2385	-0.1456
185.4568	0.0776
185.6751	-0.0109
185.8934	0.3691
186.1117	0.0824
186.3299	0.2006
186.5482	-0.0041
186.7664	-0.0228
186.9847	-0.1424
187.2029	-0.1011
187.4211	0.0688
187.6393	0.2607
187.8575	0.0187
188.0757	0.1806
188.2939	0.0454
188.512	-0.1476
188.7302	-0.1554
188.9483	0.0476
189.1665	0.3529
189.3846	0.7495
189.6027	0.1711
189.8208	0.1623
190.0389	0.1164
190.257	0.1867
190.475	0.0639
190.6931	0.2464
190.9111	0.6703
191.1292	0.1306
191.3472	0.3381
191.5652	0.2775
191.7832	0.3117
192.0012	0.4922
192.2192	0.376
192.4371	0.4938
192.6551	0.3927
192.873	0.4485
193.091	0.2581
193.3089	0.4812
193.5268	0.6118
193.7447	0.6962
193.9626	0.5461
194.1805	0.5822
194.3984	0.7803
194.6162	0.6097
194.8341	0.4722
195.0519	0.6823
195.2697	0.6228
195.4875	0.5936
195.7054	0.5956
195.9231	0.5481
196.1409	0.6943
196.3587	0.6623
196.5765	0.6242
196.7942	0.5746
197.012	0.5005
197.2297	0.6399
197.4474	0.6123
197.6651	0.5261
197.8828	0.5936
198.1005	0.5833
198.3182	0.6325
198.5358	0.7705
198.7535	0.5814
198.9711	0.5692
199.1888	0.5816
199.4064	0.7553
199.624	0.4427
199.8416	0.4983
200.0592	0.5476
200.2767	0.9294
200.4943	0.6524
200.7119	0.814
200.9294	0.688
201.1469	0.5646
201.3645	0.6522
201.582	0.5249
201.7995	0.6641
202.017	0.4815
202.2344	0.5709
202.4519	0.7602
202.6694	0.6237
202.8868	0.6491
203.1042	0.8366
203.3217	0.6672
203.5391	0.6966
203.7565	0.5995
203.9739	0.6911
204.1913	0.5783
204.4086	0.6303
204.626	0.7045
204.8433	0.6246
205.0607	0.6101
205.278	0.6497
205.4953	0.5869
205.7126	0.6144
205.9299	0.7439
206.1472	0.6306
206.3644	0.6464
206.5817	0.7388
206.7989	0.7033
207.0162	0.6393
207.2334	0.7324
207.4506	0.6843
207.6678	0.6441
207.885	0.7242
208.1022	0.6718
208.3194	0.7056
208.5365	0.6367
208.7537	0.6174
208.9708	0.6086
209.1879	0.6341
209.405	0.6786
209.6222	0.6485
209.8392	0.6257
210.0563	0.6322
210.2734	0.5512
210.4905	0.602
210.7075	0.6324
210.9245	0.6167
211.1416	0.67
211.3586	0.6309
211.5756	0.5529
211.7926	0.6347
212.0096	0.5946
212.2265	0.619
212.4435	0.5353
212.6604	0.5887
212.8774	0.572
213.0943	0.5473
213.3112	0.5677
213.5281	0.5377
213.745	0.4942
213.9619	0.4634
214.1788	0.5224
214.3956	0.4425
214.6125	0.4648
214.8293	0.3898
215.0461	0.5083
215.2629	0.4686
215.4798	0.4544
215.6965	0.4334
215.9133	0.4435
216.1301	0.4065
216.3469	0.4238
216.5636	0.4336
216.7803	0.3735
216.9971	0.4132
217.2138	0.3484
217.4305	0.3527
217.6472	0.3602
217.8639	0.3868
218.0805	0.3524
218.2972	0.3446
218.5138	0.3402
218.7305	0.3266
218.9471	0.3043
219.1637	0.3126
219.3803	0.2713
219.5969	0.2781
219.8135	0.2505
220.0301	0.2823
220.2466	0.2545
220.4632	0.254
220.6797	0.2465
220.8962	0.2303
221.1127	0.2527
221.3292	0.2719
221.5457	0.2527
221.7622	0.2459
221.9787	0.2297
222.1951	0.2386
222.4116	0.2834
222.628	0.2331
222.8444	0.2594
223.0608	0.2553
223.2772	0.254
223.4936	0.2431
223.71	0.2625
223.9264	0.2928
224.1427	0.2484
224.3591	0.2536
224.5754	0.2801
224.7917	0.2916
225.008	0.2748
225.2243	0.2531
225.4406	0.2838
225.6569	0.2699
225.8732	0.2715
226.0894	0.2599
226.3057	0.2646
226.5219	0.2862
226.7381	0.2537
226.9543	0.3084
227.1705	0.2942
227.3867	0.278
227.6029	0.3005
227.8191	0.2907
228.0352	0.3121
228.2513	0.3038
228.4675	0.3116
228.6836	0.3131
228.8997	0.3118
229.1158	0.3006
229.3319	0.3067
229.548	0.3249
229.764	0.3244
229.9801	0.3353
230.1961	0.3205
230.4121	0.3459
230.6282	0.3454
230.8442	0.3061
231.0602	0.3363
231.2761	0.3494
231.4921	0.3382
231.7081	0.3571
231.924	0.3383
232.14	0.3522
232.3559	0.3393
232.5718	0.3527
232.7877	0.3647
233.0036	0.344
233.2195	0.3693
233.4353	0.3458
233.6512	0.3878
233.867	0.3796
234.0829	0.3503
234.2987	0.3763
234.5145	0.3885
234.7303	0.3748
234.9461	0.3992
235.1619	0.3851
235.3776	0.3983
235.5934	0.3866
235.8091	0.3666
236.0249	0.3841
236.2406	0.379
236.4563	0.4021
236.672	0.39
236.8877	0.3898
237.1034	0.3992
237.319	0.4071
237.5347	0.3935
237.7503	0.3976
237.966	0.3829
238.1816	0.4192
238.3972	0.3975
238.6128	0.3924
238.8284	0.4047
239.0439	0.4079
239.2595	0.4114
239.475	0.4248
239.6906	0.4036
239.9061	0.406
240.1216	0.4031
240.3371	0.4154
240.5526	0.3968
240.7681	0.4176
240.9836	0.3739
241.199	0.4172
241.4145	0.3901
241.6299	0.3972
241.8453	0.3787
242.0607	0.3983
242.2761	0.3671
242.4915	0.3671
242.7069	0.388
242.9223	0.3649
243.1376	0.3613
243.353	0.334
243.5683	0.3591
243.7836	0.3357
243.9989	0.3339
244.2142	0.3199
244.4295	0.3366
244.6448	0.3154
244.86	0.2955
245.0753	0.3104
245.2905	0.2853
245.5057	0.2846
245.721	0.2749
245.9362	0.2823
246.1514	0.2835
246.3665	0.2538
246.5817	0.2665
246.7969	0.2501
247.012	0.2479
247.2271	0.2442
247.4423	0.2618
247.6574	0.2387
247.8725	0.228
248.0876	0.2387
248.3026	0.2178
248.5177	0.219
248.7328	0.2038
248.9478	0.2064
249.1628	0.2126
249.3779	0.2142
249.5929	0.2069
249.8079	0.2266
250.0228	0.2042
250.2378	0.2088
250.4528	0.1996
250.6677	0.1875
250.8827	0.2108
251.0976	0.193
251.3125	0.1941
251.5274	0.1982
251.7423	0.1895
251.9572	0.1851
252.172	0.1731
252.3869	0.1803
252.6017	0.1854
252.8166	0.1657
253.0314	0.1739
253.2462	0.1652
253.461	0.1767
253.6758	0.1648
253.8906	0.1805
254.1053	0.168
254.3201	0.1599
254.5348	0.1778
254.7496	0.173
254.9643	0.184
255.179	0.1744
255.3937	0.1662
255.6083	0.1741
255.823	0.1708
256.0377	0.157
256.2523	0.1692
256.467	0.1544
256.6816	0.1805
256.8962	0.1685
257.1108	0.1615
257.3254	0.1664
257.54	0.1636
257.7545	0.1737
257.9691	0.175
258.1836	0.174
258.3981	0.1742
258.6127	0.173
258.8272	0.1688
259.0417	0.1537
259.2561	0.1605
259.4706	0.1582
259.6851	0.1676
259.8995	0.152
260.114	0.1651
260.3284	0.1588
260.5428	0.1509
260.7572	0.1601
260.9716	0.1601
261.186	0.1576
261.4003	0.1596
261.6147	0.162
261.829	0.1675
262.0433	0.1609
262.2577	0.1723
262.472	0.1686
262.6863	0.1614
262.9005	0.1693
263.1148	0.1623
263.3291	0.1488
263.5433	0.1634
263.7576	0.1584
263.9718	0.164
264.186	0.1656
264.4002	0.1562
264.6144	0.1695
264.8286	0.1713
265.0427	0.1553
265.2569	0.1626
265.471	0.1527
265.6851	0.1645
265.8993	0.1636
266.1134	0.1444
266.3275	0.1547
266.5415	0.1602
266.7556	0.1735
266.9697	0.1623
267.1837	0.176
267.3978	0.1639
267.6118	0.1684
267.8258	0.1822
268.0398	0.1518
268.2538	0.1594
268.4677	0.1687
268.6817	0.1571
268.8957	0.1522
269.1096	0.1671
269.3235	0.1546
269.5374	0.1516
269.7514	0.1454
269.9652	0.1573
270.1791	0.1552
270.393	0.1458
270.6068	0.1579
270.8207	0.1548
271.0345	0.1408
271.2483	0.1497
271.4622	0.1338
271.676	0.1633
271.8897	0.1393
272.1035	0.1419
272.3173	0.1423
272.531	0.1487
272.7448	0.1513
272.9585	0.1337
273.1722	0.1547
273.3859	0.1487
273.5996	0.1352
273.8133	0.1506
274.0269	0.1483
274.2406	0.1331
274.4542	0.1449
274.6679	0.1456
274.8815	0.1465
275.0951	0.163
275.3087	0.1588
275.5223	0.1632
275.7358	0.1565
275.9494	0.1524
276.1629	0.1424
276.3765	0.1542
276.59	0.1541
276.8035	0.1558
277.017	0.1467
277.2305	0.1419
277.444	0.1478
277.6574	0.1509
277.8709	0.1527
278.0843	0.15
278.2978	0.1454
278.5112	0.1474
278.7246	0.1558
278.938	0.1565
279.1513	0.1533
279.3647	0.1546
279.5781	0.1544
279.7914	0.1501
280.0047	0.1641
280.2181	0.1612
280.4314	0.1715
280.6447	0.1663
280.8579	0.1546
281.0712	0.1561
281.2845	0.1698
281.4977	0.1514
281.711	0.1525
281.9242	0.1611
282.1374	0.1597
282.3506	0.1493
282.5638	0.1487
282.7769	0.1502
282.9901	0.1575
283.2033	0.1584
283.4164	0.1738
283.6295	0.156
283.8426	0.1551
284.0557	0.1611
284.2688	0.1721
284.4819	0.1587
284.695	0.1616
284.908	0.1622
285.1211	0.1481
285.3341	0.1714
285.5471	0.167
285.7601	0.1613
285.9731	0.1478
286.1861	0.1535
286.3991	0.1637
286.612	0.1721
286.825	0.1615
287.0379	0.1736
287.2508	0.1515
287.4637	0.168
287.6766	0.1669
287.8895	0.1631
288.1024	0.1867
288.3152	0.1693
288.5281	0.1516
288.7409	0.1562
288.9538	0.1724
289.1666	0.1556
289.3794	0.156
289.5922	0.1596
289.8049	0.1564
290.0177	0.1489
290.2304	0.171
290.4432	0.1683
290.6559	0.1551
290.8686	0.1669
291.0813	0.1594
291.294	0.1634
291.5067	0.178
291.7194	0.1643
291.932	0.1761
292.1447	0.1651
292.3573	0.1558
292.5699	0.1569
292.7825	0.1663
292.9951	0.17
293.2077	0.1658
293.4203	0.1666
293.6328	0.162
293.8454	0.1749
294.0579	0.1646
294.2704	0.1541
294.4829	0.1584
294.6954	0.174
294.9079	0.1613
295.1204	0.1629
295.3328	0.1622
295.5453	0.158
295.7577	0.1674
295.9701	0.1524
296.1825	0.1617
296.3949	0.154
296.6073	0.1661
296.8197	0.1498
297.0321	0.1711
297.2444	0.1565
297.4567	0.1549
297.6691	0.1656
297.8814	0.1568
298.0937	0.1506
298.306	0.1675
298.5182	0.1654
298.7305	0.1704
298.9428	0.1594
299.155	0.1672
299.3672	0.163
299.5794	0.1578
299.7916	0.1551
300.0038	0.1607
300.216	0.1617
300.4282	0.1566
300.6403	0.1611
300.8525	0.1633
301.0646	0.1505
301.2767	0.1629
301.4888	0.1603
301.7009	0.1626
301.913	0.1521
302.125	0.166
302.3371	0.1444
302.5491	0.1662
302.7612	0.1657
302.9732	0.1702
303.1852	0.1775
303.3972	0.151
303.6092	0.1554
303.8211	0.1462
304.0331	0.1486
304.245	0.15
304.457	0.148
304.6689	0.1543
304.8808	0.1522
305.0927	0.1493
305.3046	0.1591
305.5164	0.1492
305.7283	0.1338
305.9401	0.153
306.152	0.156
306.3638	0.1422
306.5756	0.145
306.7874	0.144
306.9992	0.1453
307.2109	0.1455
307.4227	0.1312
307.6344	0.147
307.8462	0.1225
308.0579	0.1374
308.2696	0.1238
308.4813	0.137
308.693	0.14
308.9046	0.1408
309.1163	0.1245
309.328	0.1211
309.5396	0.1336
309.7512	0.1273
309.9628	0.1228
310.1744	0.1175
310.386	0.1176
310.5976	0.1125
310.8091	0.1231
311.0207	0.1116
311.2322	0.1139
311.4437	0.1026
311.6552	0.1052
311.8667	0.1216
312.0782	0.1046
312.2897	0.1089
312.5012	0.1165
312.7126	0.1013
312.924	0.1019
313.1355	0.1178
313.3469	0.1064
313.5583	0.1056
313.7696	0.1091
313.981	0.1176
314.1924	0.1057
314.4037	0.1058
314.6151	0.1085
314.8264	0.1042
315.0377	0.1041
315.249	0.1067
315.4603	0.1107
315.6716	0.1031
315.8828	0.1043
316.0941	0.1018
316.3053	0.0941
316.5165	0.1065
316.7277	0.0967
316.9389	0.1084
317.1501	0.1
317.3613	0.1061
317.5724	0.0852
317.7836	0.1035
317.9947	0.0988
318.2058	0.0935
318.417	0.0943
318.6281	0.0978
318.8391	0.0938
319.0502	0.0925
319.2613	0.1015
319.4723	0.1066
319.6834	0.1018
319.8944	0.0985
320.1054	0.0917
320.3164	0.1026
320.5274	0.0999
320.7383	0.0949
320.9493	0.1035
321.1602	0.106
321.3712	0.0927
321.5821	0.0993
321.793	0.1021
322.0039	0.1031
322.2148	0.0871
322.4257	0.0997
322.6365	0.1147
322.8474	0.1041
323.0582	0.1037
323.269	0.1098
323.4798	0.1166
323.6906	0.1145
323.9014	0.0997
324.1122	0.0924
324.3229	0.0988
324.5337	0.1023
324.7444	0.094
324.9551	0.1075
325.1658	0.1083
325.3765	0.1008
325.5872	0.1102
325.7979	0.1134
326.0085	0.1052
326.2192	0.1201
326.4298	0.1125
326.6404	0.0981
326.851	0.1004
327.0616	0.0976
327.2722	0.1029
327.4828	0.1139
327.6933	0.0983
327.9039	0.1159
328.1144	0.1194
328.3249	0.1048
328.5354	0.1019
328.7459	0.1185
328.9564	0.1011
329.1669	0.1107
329.3773	0.1063
329.5878	0.1074
329.7982	0.1003
330.0086	0.0979
330.219	0.1066
330.4294	0.1022
330.6398	0.1138
330.8502	0.1101
331.0605	0.1038
331.2708	0.1081
331.4812	0.1107
331.6915	0.1186
331.9018	0.1122
332.1121	0.097
332.3224	0.1063
332.5326	0.1108
332.7429	0.1056
332.9531	0.1216
333.1633	0.1016
333.3735	0.11
333.5837	0.1031
333.7939	0.1062
334.0041	0.1255
334.2143	0.1143
334.4244	0.1099
334.6346	0.0891
334.8447	0.1219
335.0548	0.1075
335.2649	0.1093
335.475	0.1289
335.685	0.1096
335.8951	0.1212
336.1051	0.1113
336.3152	0.1129
336.5252	0.1153
336.7352	0.1096
336.9452	0.1249
337.1552	0.1209
337.3652	0.0985
337.5751	0.1115
337.7851	0.1129
337.995	0.1108
338.2049	0.1054
338.4148	0.116
338.6247	0.1152
338.8346	0.1047
339.0445	0.1037
339.2543	0.1051
339.4642	0.1226
339.674	0.1154
339.8838	0.1203
340.0936	0.1043
340.3034	0.1215
340.5132	0.1196
340.7229	0.1211
340.9327	0.1188
341.1424	0.1215
341.3522	0.1252
341.5619	0.1329
341.7716	0.1072
341.9813	0.1321
342.1909	0.1127
342.4006	0.1306
342.6102	0.1308
342.8199	0.117
343.0295	0.1323
343.2391	0.1273
343.4487	0.1331
343.6583	0.1312
343.8679	0.1405
344.0774	0.1173
344.287	0.1285
344.4965	0.1181
344.706	0.1168
344.9155	0.1243
345.125	0.1237
345.3345	0.1338
345.544	0.1223
345.7534	0.1264
345.9629	0.1308
346.1723	0.1255
346.3817	0.1211
346.5911	0.1333
346.8005	0.1325
347.0099	0.1204
347.2193	0.1314
347.4286	0.1286
347.638	0.1431
347.8473	0.1371
348.0566	0.1304
348.2659	0.1444
348.4752	0.1323
348.6845	0.1224
348.8937	0.133
349.103	0.1415
349.3122	0.1308
349.5214	0.1341
349.7306	0.1475
349.9398	0.1403
350.149	0.141
350.3582	0.1417
350.5674	0.1451
350.7765	0.1394
350.9856	0.1346
351.1948	0.1479
351.4039	0.1228
351.613	0.1287
351.822	0.1462
352.0311	0.1455
352.2402	0.1456
352.4492	0.1477
352.6582	0.1546
352.8672	0.1436
353.0762	0.1412
353.2852	0.1427
353.4942	0.1368
353.7032	0.1544
353.9121	0.1458
354.1211	0.1594
354.33	0.1409
354.5389	0.1566
354.7478	0.1449
354.9567	0.1383
355.1655	0.1484
355.3744	0.1661
355.5833	0.1506
355.7921	0.176
356.0009	0.1597
356.2097	0.1593
356.4185	0.1619
356.6273	0.1589
356.8361	0.1656
357.0448	0.1413
357.2536	0.1399
357.4623	0.1483
357.671	0.1575
357.8797	0.1711
358.0884	0.1696
358.2971	0.1614
358.5057	0.1642
358.7144	0.1766
358.923	0.1663
359.1316	0.1703
359.3402	0.1627
359.5488	0.1656
359.7574	0.1584
359.966	0.1709
360.1746	0.1675
360.3831	0.1679
360.5916	0.1609
360.8002	0.1544
361.0087	0.177
361.2172	0.1712
361.4256	0.1779
361.6341	0.2016
361.8426	0.1816
362.051	0.1879
362.2594	0.1938
362.4678	0.1658
362.6762	0.197
362.8846	0.1942
363.093	0.1751
363.3014	0.1874
363.5097	0.1655
363.718	0.1724
363.9264	0.1917
364.1347	0.1776
364.343	0.1918
364.5513	0.1979
364.7595	0.1929
364.9678	0.1817
365.176	0.1893
365.3842	0.1855
365.5925	0.1901
365.8007	0.1909
366.0089	0.197
366.217	0.1939
366.4252	0.2054
366.6333	0.1992
366.8415	0.21
367.0496	0.196
367.2577	0.2062
367.4658	0.206
367.6739	0.2015
367.882	0.2234
368.09	0.214
368.2981	0.1974
368.5061	0.1938
368.7141	0.2073
368.9221	0.2137
369.1301	0.205
369.3381	0.2013
369.5461	0.1968
369.754	0.2093
369.962	0.2176
370.1699	0.2106
370.3778	0.2206
370.5857	0.205
370.7936	0.2179
371.0015	0.213
371.2093	0.2299
371.4172	0.2159
371.625	0.2018
371.8328	0.2127
372.0406	0.2176
372.2484	0.2218
372.4562	0.2274
372.664	0.2093
372.8717	0.2259
373.0795	0.2073
373.2872	0.2215
373.4949	0.2139
373.7026	0.2133
373.9103	0.2347
374.118	0.2236
374.3256	0.211
374.5333	0.2173
374.7409	0.2091
374.9485	0.2181
375.1561	0.2184
375.3637	0.2329
375.5713	0.2374
375.7789	0.2375
375.9864	0.2278
376.194	0.2076
376.4015	0.2373
376.609	0.2316
376.8165	0.2311
377.024	0.2289
377.2315	0.2175
377.4389	0.2343
377.6464	0.2379
377.8538	0.2265
378.0612	0.2522
378.2686	0.2489
378.476	0.2429
378.6834	0.2344
378.8908	0.2321
379.0981	0.2455
379.3055	0.2284
379.5128	0.2443
379.7201	0.2537
379.9274	0.2341
380.1347	0.2318
380.342	0.2652
380.5492	0.2329
380.7565	0.2287
380.9637	0.2242
381.1709	0.2473
381.3781	0.2469
381.5853	0.2488
381.7925	0.259
381.9997	0.2395
382.2068	0.2475
382.4139	0.2377
382.6211	0.235
382.8282	0.2423
383.0353	0.2468
383.2424	0.2361
383.4494	0.2403
383.6565	0.2347
383.8635	0.2374
384.0706	0.2422
384.2776	0.2506
384.4846	0.2356
384.6916	0.2584
384.8986	0.2521
385.1055	0.2635
385.3125	0.2388
385.5194	0.2385
385.7263	0.257
385.9333	0.2548
386.1402	0.2386
386.347	0.2476
386.5539	0.2268
386.7608	0.2501
386.9676	0.2333
387.1744	0.2472
387.3813	0.2362
387.5881	0.2528
387.7948	0.2461
388.0016	0.2443
388.2084	0.235
388.4151	0.2315
388.6219	0.2444
388.8286	0.2405
389.0353	0.249
389.242	0.2481
389.4487	0.2244
389.6553	0.2191
389.862	0.2235
390.0686	0.2205
390.2753	0.2457
390.4819	0.2382
390.6885	0.2206
390.8951	0.2309
391.1016	0.2347
391.3082	0.2376
391.5147	0.2351
391.7213	0.2184
391.9278	0.2343
392.1343	0.218
392.3408	0.2233
392.5473	0.2132
392.7537	0.2217
392.9602	0.2202
393.1666	0.2125
393.373	0.2327
393.5794	0.2308
393.7858	0.2318
393.9922	0.2092
394.1986	0.236
394.4049	0.2292
394.6113	0.2106
394.8176	0.213
395.0239	0.202
395.2302	0.2085
395.4365	0.2048
395.6428	0.2151
395.8491	0.209
396.0553	0.2028
396.2615	0.2047
396.4678	0.2116
396.674	0.1912
396.8802	0.1995
397.0863	0.2161
397.2925	0.1879
397.4987	0.2074
397.7048	0.1998
397.9109	0.2033
398.117	0.1886
398.3231	0.1864
398.5292	0.2175
398.7353	0.1936
398.9413	0.208
399.1474	0.214
399.3534	0.2094
399.5594	0.1886
399.7654	0.2098
399.9714	0.2113
400.1774	0.1987
400.3833	0.2057
400.5893	0.203
400.7952	0.2017
401.0011	0.2029
401.207	0.2118
401.4129	0.2137
401.6188	0.217
401.8247	0.2148
402.0305	0.2034
402.2364	0.2031
402.4422	0.2138
402.648	0.1905
402.8538	0.2209
403.0596	0.2008
403.2654	0.2188
403.4711	0.1967
403.6768	0.2324
403.8826	0.2038
404.0883	0.2254
404.294	0.2126
404.4997	0.204
404.7054	0.1987
404.911	0.1901
405.1167	0.206
405.3223	0.2193
405.5279	0.2141
405.7335	0.2068
405.9391	0.2209
406.1447	0.1996
406.3502	0.2209
406.5558	0.1919
406.7613	0.2119
406.9668	0.2173
407.1724	0.1987
407.3778	0.2117
407.5833	0.1952
407.7888	0.183
407.9942	0.2117
408.1997	0.1966
408.4051	0.2016
408.6105	0.1961
408.8159	0.2022
409.0213	0.1859
409.2267	0.21
409.432	0.1902
409.6374	0.2209
409.8427	0.1892
410.048	0.199
410.2533	0.2083
410.4586	0.2026
410.6639	0.1829
410.8691	0.1801
411.0744	0.2056
411.2796	0.1873
411.4848	0.1994
411.69	0.2013
411.8952	0.2211
412.1004	0.1842
412.3056	0.2011
412.5107	0.1923
412.7158	0.2108
412.921	0.1907
413.1261	0.1969
413.3312	0.1972
413.5362	0.1992
413.7413	0.1902
413.9464	0.1915
414.1514	0.1973
414.3564	0.1911
414.5614	0.1879
414.7664	0.2013
414.9714	0.1945
415.1764	0.2016
415.3813	0.1989
415.5863	0.1865
415.7912	0.2195
415.9961	0.1963
416.201	0.1927
416.4059	0.1948
416.6108	0.1727
416.8156	0.1902
417.0205	0.1827
417.2253	0.1838
417.4301	0.2034
417.6349	0.2086
417.8397	0.1677
418.0445	0.1868
418.2492	0.1916
418.454	0.1952
418.6587	0.1999
418.8634	0.1975
419.0681	0.1721
419.2728	0.1918
419.4775	0.174
419.6822	0.1678
419.8868	0.1567
420.0915	0.1982
420.2961	0.1729
420.5007	0.1607
420.7053	0.1817
420.9099	0.1904
421.1144	0.1701
421.319	0.1745
421.5235	0.1733
421.728	0.1831
421.9325	0.1794
422.137	0.1917
422.3415	0.1712
422.546	0.1741
422.7504	0.1622
422.9549	0.1762
423.1593	0.1812
423.3637	0.181
423.5681	0.1663
423.7725	0.163
423.9769	0.1749
424.1812	0.1607
424.3856	0.1662
424.5899	0.1587
424.7942	0.1717
424.9985	0.1675
425.2028	0.1783
425.4071	0.1816
425.6113	0.147
425.8156	0.1541
426.0198	0.1726
426.224	0.1459
