Data from MonoPyChalIsomerACN10uM360nmA_Absorbance_13-57-30-704.txt Node
Date: Fri Jul 05 13:57:30 BST 2024
User: LASERRRRR
Spectrometer: FLMT03099
Trigger mode: 0
Integration Time (sec): 1.000000E-1
Scans to average: 1
Electric dark correction enabled: true
Nonlinearity correction enabled: false
Boxcar width: 0
XAxis mode: Wavelengths
Number of Pixels in Spectrum: 3648
>>>>>Begin Spectral Data<<<<<
179.3399	-0.1971
179.5586	-0.1971
179.7771	-0.1971
179.9957	-0
180.2143	-0
180.4329	1.8779
180.6514	-0
180.8699	-0.3527
181.0885	-0.1554
181.307	0.1277
181.5255	-1.1653
181.744	-0.6795
181.9625	-0.4079
182.181	-1.0322
182.3994	0.2421
182.6179	-0
182.8363	0.6447
183.0547	-0.017
183.2732	0.1748
183.4916	0.0764
183.71	0.0072
183.9284	0.25
184.1467	-0.2672
184.3651	-0.0239
184.5835	-0.2274
184.8018	-0.0789
185.0201	0.0618
185.2385	-0.0059
185.4568	0.381
185.6751	0.0351
185.8934	0.1861
186.1117	-0.1372
186.3299	-0.0149
186.5482	0.1593
186.7664	-0.1904
186.9847	-0.0399
187.2029	0.106
187.4211	-0.0398
187.6393	0.2128
187.8575	0.0234
188.0757	0.1109
188.2939	-0.0084
188.512	0.015
188.7302	-0.1917
188.9483	0.0184
189.1665	0.0513
189.3846	0.2947
189.6027	0.0825
189.8208	0.1375
190.0389	0.2227
190.257	0.1221
190.475	0.0986
190.6931	0.1484
190.9111	0.2717
191.1292	0.0551
191.3472	0.3869
191.5652	0.407
191.7832	0.062
192.0012	0.6398
192.2192	0.2866
192.4371	0.4756
192.6551	0.4177
192.873	0.5191
193.091	0.3635
193.3089	0.4994
193.5268	0.4532
193.7447	0.6534
193.9626	0.4454
194.1805	0.5196
194.3984	0.6742
194.6162	0.4696
194.8341	0.3585
195.0519	0.5145
195.2697	0.7233
195.4875	0.6417
195.7054	0.6072
195.9231	0.6304
196.1409	0.4895
196.3587	0.539
196.5765	0.6466
196.7942	0.4333
197.012	0.6263
197.2297	0.5363
197.4474	0.5789
197.6651	0.6439
197.8828	0.5557
198.1005	0.6662
198.3182	0.571
198.5358	0.7651
198.7535	0.5147
198.9711	0.5636
199.1888	0.5654
199.4064	0.7381
199.624	0.7492
199.8416	0.5477
200.0592	0.5787
200.2767	0.5814
200.4943	0.6375
200.7119	0.6543
200.9294	0.6397
201.1469	0.5188
201.3645	0.5522
201.582	0.5734
201.7995	0.6119
202.017	0.6856
202.2344	0.5923
202.4519	0.7044
202.6694	0.6085
202.8868	0.6886
203.1042	0.6461
203.3217	0.705
203.5391	0.6541
203.7565	0.5719
203.9739	0.6341
204.1913	0.6276
204.4086	0.6516
204.626	0.6787
204.8433	0.5835
205.0607	0.5387
205.278	0.6625
205.4953	0.5377
205.7126	0.6029
205.9299	0.7283
206.1472	0.6466
206.3644	0.609
206.5817	0.6879
206.7989	0.6755
207.0162	0.6289
207.2334	0.5809
207.4506	0.6336
207.6678	0.6106
207.885	0.6214
208.1022	0.6679
208.3194	0.7016
208.5365	0.6267
208.7537	0.6273
208.9708	0.5657
209.1879	0.5952
209.405	0.6675
209.6222	0.7158
209.8392	0.5547
210.0563	0.5897
210.2734	0.6305
210.4905	0.6401
210.7075	0.6595
210.9245	0.5748
211.1416	0.6397
211.3586	0.5481
211.5756	0.5626
211.7926	0.6343
212.0096	0.5816
212.2265	0.5534
212.4435	0.5432
212.6604	0.6498
212.8774	0.5904
213.0943	0.5669
213.3112	0.5127
213.5281	0.4878
213.745	0.4402
213.9619	0.5176
214.1788	0.4985
214.3956	0.4161
214.6125	0.4762
214.8293	0.4305
215.0461	0.4542
215.2629	0.4641
215.4798	0.4776
215.6965	0.4147
215.9133	0.4258
216.1301	0.396
216.3469	0.404
216.5636	0.3866
216.7803	0.3768
216.9971	0.3812
217.2138	0.3735
217.4305	0.3889
217.6472	0.3374
217.8639	0.3601
218.0805	0.3369
218.2972	0.3435
218.5138	0.3564
218.7305	0.2992
218.9471	0.3173
219.1637	0.2771
219.3803	0.2744
219.5969	0.2772
219.8135	0.2527
220.0301	0.2792
220.2466	0.2745
220.4632	0.2499
220.6797	0.2265
220.8962	0.2166
221.1127	0.2455
221.3292	0.2512
221.5457	0.2578
221.7622	0.2379
221.9787	0.2595
222.1951	0.2189
222.4116	0.2323
222.628	0.2654
222.8444	0.2533
223.0608	0.2534
223.2772	0.2722
223.4936	0.2656
223.71	0.2495
223.9264	0.2755
224.1427	0.2532
224.3591	0.2361
224.5754	0.272
224.7917	0.2559
225.008	0.2864
225.2243	0.2527
225.4406	0.2755
225.6569	0.2681
225.8732	0.2709
226.0894	0.2536
226.3057	0.2613
226.5219	0.2887
226.7381	0.272
226.9543	0.2679
227.1705	0.286
227.3867	0.2796
227.6029	0.2952
227.8191	0.3159
228.0352	0.3115
228.2513	0.3177
228.4675	0.3212
228.6836	0.281
228.8997	0.2883
229.1158	0.2978
229.3319	0.3116
229.548	0.3203
229.764	0.3171
229.9801	0.3304
230.1961	0.3339
230.4121	0.3252
230.6282	0.3456
230.8442	0.3029
231.0602	0.3445
231.2761	0.3652
231.4921	0.3454
231.7081	0.3528
231.924	0.3369
232.14	0.3473
232.3559	0.3431
232.5718	0.3504
232.7877	0.3501
233.0036	0.3571
233.2195	0.361
233.4353	0.3582
233.6512	0.3544
233.867	0.3593
234.0829	0.3637
234.2987	0.3902
234.5145	0.3712
234.7303	0.3542
234.9461	0.3777
235.1619	0.379
235.3776	0.3966
235.5934	0.3917
235.8091	0.3605
236.0249	0.3819
236.2406	0.3728
236.4563	0.397
236.672	0.3998
236.8877	0.4099
237.1034	0.3901
237.319	0.397
237.5347	0.411
237.7503	0.3813
237.966	0.4087
238.1816	0.4001
238.3972	0.4133
238.6128	0.395
238.8284	0.4236
239.0439	0.4081
239.2595	0.3881
239.475	0.4113
239.6906	0.4001
239.9061	0.3934
240.1216	0.4003
240.3371	0.4022
240.5526	0.3924
240.7681	0.3971
240.9836	0.3836
241.199	0.4074
241.4145	0.3767
241.6299	0.386
241.8453	0.3632
242.0607	0.3891
242.2761	0.3612
242.4915	0.3914
242.7069	0.3684
242.9223	0.3579
243.1376	0.3415
243.353	0.3461
243.5683	0.3489
243.7836	0.3316
243.9989	0.3217
244.2142	0.3138
244.4295	0.3226
244.6448	0.303
244.86	0.2988
245.0753	0.2903
245.2905	0.2869
245.5057	0.2789
245.721	0.2792
245.9362	0.2694
246.1514	0.2785
246.3665	0.2708
246.5817	0.2605
246.7969	0.2564
247.012	0.2471
247.2271	0.2383
247.4423	0.2381
247.6574	0.2351
247.8725	0.2373
248.0876	0.2242
248.3026	0.237
248.5177	0.2313
248.7328	0.2081
248.9478	0.2217
249.1628	0.2036
249.3779	0.225
249.5929	0.2132
249.8079	0.2219
250.0228	0.1965
250.2378	0.1941
250.4528	0.2053
250.6677	0.187
250.8827	0.1918
251.0976	0.1957
251.3125	0.1879
251.5274	0.1659
251.7423	0.1832
251.9572	0.1827
252.172	0.1726
252.3869	0.1775
252.6017	0.1685
252.8166	0.1703
253.0314	0.163
253.2462	0.1726
253.461	0.1777
253.6758	0.1662
253.8906	0.1812
254.1053	0.1663
254.3201	0.1708
254.5348	0.181
254.7496	0.1763
254.9643	0.1562
255.179	0.1694
255.3937	0.1605
255.6083	0.1686
255.823	0.1683
256.0377	0.168
256.2523	0.1533
256.467	0.1509
256.6816	0.1741
256.8962	0.1685
257.1108	0.1574
257.3254	0.1639
257.54	0.1549
257.7545	0.1567
257.9691	0.1601
258.1836	0.1551
258.3981	0.1693
258.6127	0.1671
258.8272	0.1581
259.0417	0.1533
259.2561	0.1718
259.4706	0.155
259.6851	0.1565
259.8995	0.1564
260.114	0.1684
260.3284	0.159
260.5428	0.1534
260.7572	0.161
260.9716	0.1733
261.186	0.1595
261.4003	0.17
261.6147	0.1628
261.829	0.1568
262.0433	0.1529
262.2577	0.1584
262.472	0.1539
262.6863	0.1479
262.9005	0.1614
263.1148	0.1656
263.3291	0.1466
263.5433	0.158
263.7576	0.1629
263.9718	0.1526
264.186	0.1612
264.4002	0.1645
264.6144	0.1573
264.8286	0.1686
265.0427	0.1516
265.2569	0.1657
265.471	0.1499
265.6851	0.143
265.8993	0.1542
266.1134	0.1529
266.3275	0.1636
266.5415	0.1686
266.7556	0.1659
266.9697	0.1526
267.1837	0.1672
267.3978	0.1622
267.6118	0.175
267.8258	0.1696
268.0398	0.1502
268.2538	0.1649
268.4677	0.1652
268.6817	0.1452
268.8957	0.1555
269.1096	0.1573
269.3235	0.1526
269.5374	0.1473
269.7514	0.1473
269.9652	0.1455
270.1791	0.1572
270.393	0.1437
270.6068	0.1535
270.8207	0.1556
271.0345	0.1483
271.2483	0.1515
271.4622	0.1535
271.676	0.163
271.8897	0.1439
272.1035	0.136
272.3173	0.1451
272.531	0.1388
272.7448	0.151
272.9585	0.1368
273.1722	0.1484
273.3859	0.155
273.5996	0.1397
273.8133	0.1493
274.0269	0.1377
274.2406	0.1347
274.4542	0.1464
274.6679	0.1336
274.8815	0.1392
275.0951	0.1542
275.3087	0.155
275.5223	0.145
275.7358	0.16
275.9494	0.1565
276.1629	0.1394
276.3765	0.1375
276.59	0.1472
276.8035	0.1491
277.017	0.1489
277.2305	0.1437
277.444	0.1604
277.6574	0.1388
277.8709	0.1525
278.0843	0.1512
278.2978	0.1535
278.5112	0.1494
278.7246	0.1441
278.938	0.1463
279.1513	0.1483
279.3647	0.1565
279.5781	0.148
279.7914	0.1519
280.0047	0.1538
280.2181	0.158
280.4314	0.1572
280.6447	0.153
280.8579	0.1679
281.0712	0.1694
281.2845	0.1585
281.4977	0.1498
281.711	0.1488
281.9242	0.1559
282.1374	0.1578
282.3506	0.1477
282.5638	0.1556
282.7769	0.1611
282.9901	0.1516
283.2033	0.1707
283.4164	0.1697
283.6295	0.1447
283.8426	0.1437
284.0557	0.1549
284.2688	0.183
284.4819	0.1686
284.695	0.1541
284.908	0.1755
285.1211	0.1662
285.3341	0.1589
285.5471	0.1643
285.7601	0.1515
285.9731	0.1652
286.1861	0.1532
286.3991	0.1599
286.612	0.1664
286.825	0.1677
287.0379	0.1687
287.2508	0.1536
287.4637	0.16
287.6766	0.1502
287.8895	0.1675
288.1024	0.1766
288.3152	0.1644
288.5281	0.1651
288.7409	0.1591
288.9538	0.1604
289.1666	0.1608
289.3794	0.1592
289.5922	0.1549
289.8049	0.1568
290.0177	0.1641
290.2304	0.158
290.4432	0.1567
290.6559	0.1504
290.8686	0.1717
291.0813	0.1584
291.294	0.1625
291.5067	0.163
291.7194	0.1695
291.932	0.1652
292.1447	0.1604
292.3573	0.1539
292.5699	0.1622
292.7825	0.1679
292.9951	0.16
293.2077	0.1665
293.4203	0.1516
293.6328	0.1551
293.8454	0.1566
294.0579	0.1524
294.2704	0.166
294.4829	0.1572
294.6954	0.1645
294.9079	0.1645
295.1204	0.16
295.3328	0.1646
295.5453	0.1571
295.7577	0.1678
295.9701	0.1678
296.1825	0.1657
296.3949	0.1561
296.6073	0.157
296.8197	0.1606
297.0321	0.1725
297.2444	0.156
297.4567	0.1648
297.6691	0.1576
297.8814	0.1512
298.0937	0.1594
298.306	0.1678
298.5182	0.1548
298.7305	0.1653
298.9428	0.1463
299.155	0.1627
299.3672	0.1688
299.5794	0.1593
299.7916	0.1498
300.0038	0.1651
300.216	0.1652
300.4282	0.1659
300.6403	0.1481
300.8525	0.1613
301.0646	0.1541
301.2767	0.1627
301.4888	0.1533
301.7009	0.1607
301.913	0.1612
302.125	0.1607
302.3371	0.1576
302.5491	0.1511
302.7612	0.1572
302.9732	0.1546
303.1852	0.1617
303.3972	0.1668
303.6092	0.1538
303.8211	0.1552
304.0331	0.1471
304.245	0.1629
304.457	0.1436
304.6689	0.1485
304.8808	0.1599
305.0927	0.1589
305.3046	0.1555
305.5164	0.1561
305.7283	0.1511
305.9401	0.1388
306.152	0.1479
306.3638	0.1433
306.5756	0.1451
306.7874	0.1468
306.9992	0.1487
307.2109	0.145
307.4227	0.1353
307.6344	0.1359
307.8462	0.14
308.0579	0.1414
308.2696	0.1362
308.4813	0.1261
308.693	0.1269
308.9046	0.1362
309.1163	0.1218
309.328	0.1313
309.5396	0.1201
309.7512	0.1244
309.9628	0.121
310.1744	0.1241
310.386	0.1218
310.5976	0.1107
310.8091	0.1101
311.0207	0.1191
311.2322	0.111
311.4437	0.1161
311.6552	0.1122
311.8667	0.1181
312.0782	0.0977
312.2897	0.0961
312.5012	0.1143
312.7126	0.1084
312.924	0.1033
313.1355	0.1182
313.3469	0.1009
313.5583	0.1068
313.7696	0.0948
313.981	0.0994
314.1924	0.1038
314.4037	0.0989
314.6151	0.1179
314.8264	0.106
315.0377	0.1
315.249	0.1043
315.4603	0.1109
315.6716	0.0955
315.8828	0.0955
316.0941	0.0944
316.3053	0.0933
316.5165	0.0973
316.7277	0.0956
316.9389	0.1153
317.1501	0.0951
317.3613	0.1051
317.5724	0.0886
317.7836	0.1066
317.9947	0.1099
318.2058	0.0963
318.417	0.0892
318.6281	0.0886
318.8391	0.0977
319.0502	0.0994
319.2613	0.1004
319.4723	0.0997
319.6834	0.1141
319.8944	0.0941
320.1054	0.1027
320.3164	0.0927
320.5274	0.0896
320.7383	0.0914
320.9493	0.105
321.1602	0.1128
321.3712	0.0892
321.5821	0.0959
321.793	0.0994
322.0039	0.0949
322.2148	0.0919
322.4257	0.1112
322.6365	0.1141
322.8474	0.1052
323.0582	0.1111
323.269	0.0936
323.4798	0.1084
323.6906	0.104
323.9014	0.1034
324.1122	0.1042
324.3229	0.0894
324.5337	0.1065
324.7444	0.0928
324.9551	0.1195
325.1658	0.1024
325.3765	0.1002
325.5872	0.0986
325.7979	0.1005
326.0085	0.1013
326.2192	0.1158
326.4298	0.1076
326.6404	0.1008
326.851	0.0972
327.0616	0.0971
327.2722	0.1126
327.4828	0.112
327.6933	0.1022
327.9039	0.102
328.1144	0.1118
328.3249	0.1137
328.5354	0.0932
328.7459	0.1097
328.9564	0.1101
329.1669	0.1137
329.3773	0.1044
329.5878	0.099
329.7982	0.1003
330.0086	0.1101
330.219	0.114
330.4294	0.1068
330.6398	0.1163
330.8502	0.0945
331.0605	0.1103
331.2708	0.1067
331.4812	0.1129
331.6915	0.1099
331.9018	0.1111
332.1121	0.1075
332.3224	0.1092
332.5326	0.1043
332.7429	0.1082
332.9531	0.1103
333.1633	0.1063
333.3735	0.1048
333.5837	0.1035
333.7939	0.1056
334.0041	0.1171
334.2143	0.112
334.4244	0.1113
334.6346	0.0857
334.8447	0.1102
335.0548	0.1128
335.2649	0.0961
335.475	0.1096
335.685	0.1058
335.8951	0.1203
336.1051	0.1041
336.3152	0.1071
336.5252	0.1037
336.7352	0.1144
336.9452	0.126
337.1552	0.118
337.3652	0.1198
337.5751	0.1234
337.7851	0.1181
337.995	0.1057
338.2049	0.1293
338.4148	0.1031
338.6247	0.1195
338.8346	0.1123
339.0445	0.1072
339.2543	0.1073
339.4642	0.1158
339.674	0.1047
339.8838	0.1089
340.0936	0.1169
340.3034	0.1265
340.5132	0.1244
340.7229	0.1139
340.9327	0.1173
341.1424	0.1187
341.3522	0.1305
341.5619	0.124
341.7716	0.1312
341.9813	0.1195
342.1909	0.1117
342.4006	0.1269
342.6102	0.1322
342.8199	0.1222
343.0295	0.1302
343.2391	0.1201
343.4487	0.1401
343.6583	0.1242
343.8679	0.132
344.0774	0.1308
344.287	0.1233
344.4965	0.1164
344.706	0.138
344.9155	0.1255
345.125	0.1256
345.3345	0.1318
345.544	0.1266
345.7534	0.1267
345.9629	0.127
346.1723	0.1387
346.3817	0.1267
346.5911	0.1261
346.8005	0.1279
347.0099	0.128
347.2193	0.1303
347.4286	0.1342
347.638	0.1379
347.8473	0.131
348.0566	0.1307
348.2659	0.1269
348.4752	0.1389
348.6845	0.1228
348.8937	0.1253
349.103	0.1373
349.3122	0.1364
349.5214	0.1274
349.7306	0.1463
349.9398	0.1338
350.149	0.157
350.3582	0.1404
350.5674	0.1464
350.7765	0.1469
350.9856	0.1497
351.1948	0.14
351.4039	0.1269
351.613	0.1467
351.822	0.1408
352.0311	0.1459
352.2402	0.1466
352.4492	0.1536
352.6582	0.1641
352.8672	0.144
353.0762	0.1598
353.2852	0.1483
353.4942	0.1481
353.7032	0.1494
353.9121	0.1513
354.1211	0.1406
354.33	0.1558
354.5389	0.1622
354.7478	0.1454
354.9567	0.1521
355.1655	0.143
355.3744	0.1457
355.5833	0.1549
355.7921	0.1743
356.0009	0.15
356.2097	0.1742
356.4185	0.1654
356.6273	0.1527
356.8361	0.162
357.0448	0.1459
357.2536	0.1501
357.4623	0.1581
357.671	0.1697
357.8797	0.1691
358.0884	0.1597
358.2971	0.1744
358.5057	0.163
358.7144	0.1685
358.923	0.1753
359.1316	0.1742
359.3402	0.1661
359.5488	0.1816
359.7574	0.1608
359.966	0.1695
360.1746	0.1781
360.3831	0.1721
360.5916	0.1592
360.8002	0.1558
361.0087	0.1816
361.2172	0.18
361.4256	0.1587
361.6341	0.1782
361.8426	0.1761
362.051	0.1857
362.2594	0.1823
362.4678	0.1799
362.6762	0.2038
362.8846	0.1742
363.093	0.1646
363.3014	0.1747
363.5097	0.1702
363.718	0.1778
363.9264	0.1835
364.1347	0.1744
364.343	0.1927
364.5513	0.201
364.7595	0.1992
364.9678	0.1874
365.176	0.1835
365.3842	0.1883
365.5925	0.1905
365.8007	0.1934
366.0089	0.1844
366.217	0.1862
366.4252	0.1921
366.6333	0.2059
366.8415	0.1933
367.0496	0.1995
367.2577	0.2032
367.4658	0.2129
367.6739	0.1969
367.882	0.2005
368.09	0.2057
368.2981	0.2214
368.5061	0.1986
368.7141	0.2084
368.9221	0.2034
369.1301	0.2112
369.3381	0.1955
369.5461	0.206
369.754	0.2023
369.962	0.2165
370.1699	0.21
370.3778	0.2223
370.5857	0.192
370.7936	0.2227
371.0015	0.2088
371.2093	0.2096
371.4172	0.2223
371.625	0.203
371.8328	0.2049
372.0406	0.223
372.2484	0.2156
372.4562	0.2067
372.664	0.2147
372.8717	0.2146
373.0795	0.193
373.2872	0.2113
373.4949	0.2105
373.7026	0.2205
373.9103	0.2167
374.118	0.2061
374.3256	0.2247
374.5333	0.2257
374.7409	0.2168
374.9485	0.2378
375.1561	0.2125
375.3637	0.2181
375.5713	0.2207
375.7789	0.2244
375.9864	0.2119
376.194	0.2203
376.4015	0.2232
376.609	0.2123
376.8165	0.2323
377.024	0.2218
377.2315	0.2078
377.4389	0.2346
377.6464	0.2404
377.8538	0.2294
378.0612	0.2181
378.2686	0.2355
378.476	0.2529
378.6834	0.2403
378.8908	0.2281
379.0981	0.2324
379.3055	0.2422
379.5128	0.2263
379.7201	0.238
379.9274	0.2293
380.1347	0.2328
380.342	0.2549
380.5492	0.2419
380.7565	0.2313
380.9637	0.2313
381.1709	0.2421
381.3781	0.236
381.5853	0.2308
381.7925	0.2446
381.9997	0.2313
382.2068	0.2519
382.4139	0.2503
382.6211	0.227
382.8282	0.2174
383.0353	0.2337
383.2424	0.2503
383.4494	0.2403
383.6565	0.2398
383.8635	0.2399
384.0706	0.2477
384.2776	0.256
384.4846	0.2249
384.6916	0.2362
384.8986	0.2448
385.1055	0.2499
385.3125	0.2399
385.5194	0.2319
385.7263	0.2318
385.9333	0.2252
386.1402	0.2483
386.347	0.237
386.5539	0.2307
386.7608	0.2443
386.9676	0.2166
387.1744	0.2359
387.3813	0.2274
387.5881	0.2438
387.7948	0.2373
388.0016	0.2268
388.2084	0.2365
388.4151	0.2292
388.6219	0.2412
388.8286	0.2246
389.0353	0.2626
389.242	0.2445
389.4487	0.2349
389.6553	0.239
389.862	0.2262
390.0686	0.2312
390.2753	0.2373
390.4819	0.2327
390.6885	0.2304
390.8951	0.2306
391.1016	0.2328
391.3082	0.2175
391.5147	0.2293
391.7213	0.2379
391.9278	0.2342
392.1343	0.2174
392.3408	0.2113
392.5473	0.2209
392.7537	0.2194
392.9602	0.2223
393.1666	0.2218
393.373	0.2105
393.5794	0.2191
393.7858	0.2206
393.9922	0.2089
394.1986	0.2201
394.4049	0.216
394.6113	0.2067
394.8176	0.1943
395.0239	0.2176
395.2302	0.1914
395.4365	0.2072
395.6428	0.1993
395.8491	0.1951
396.0553	0.2076
396.2615	0.1951
396.4678	0.2091
396.674	0.1962
396.8802	0.2037
397.0863	0.2317
397.2925	0.1981
397.4987	0.2024
397.7048	0.1879
397.9109	0.2186
398.117	0.1996
398.3231	0.1964
398.5292	0.2066
398.7353	0.209
398.9413	0.2006
399.1474	0.2017
399.3534	0.2051
399.5594	0.195
399.7654	0.2116
399.9714	0.2187
400.1774	0.1939
400.3833	0.1917
400.5893	0.1951
400.7952	0.2072
401.0011	0.1987
401.207	0.2057
401.4129	0.21
401.6188	0.2048
401.8247	0.1983
402.0305	0.1976
402.2364	0.1933
402.4422	0.1848
402.648	0.2103
402.8538	0.2137
403.0596	0.2073
403.2654	0.1959
403.4711	0.1802
403.6768	0.1821
403.8826	0.2015
404.0883	0.2018
404.294	0.209
404.4997	0.1939
404.7054	0.1925
404.911	0.1842
405.1167	0.1936
405.3223	0.2011
405.5279	0.2053
405.7335	0.1973
405.9391	0.2217
406.1447	0.1884
406.3502	0.2021
406.5558	0.1957
406.7613	0.2073
406.9668	0.2094
407.1724	0.2046
407.3778	0.1994
407.5833	0.2139
407.7888	0.1825
407.9942	0.2259
408.1997	0.1952
408.4051	0.1857
408.6105	0.1999
408.8159	0.1872
409.0213	0.1816
409.2267	0.2186
409.432	0.1762
409.6374	0.209
409.8427	0.1955
410.048	0.2086
410.2533	0.1936
410.4586	0.1922
410.6639	0.1873
410.8691	0.1963
411.0744	0.2078
411.2796	0.2119
411.4848	0.2016
411.69	0.1829
411.8952	0.2151
412.1004	0.1769
412.3056	0.2018
412.5107	0.1869
412.7158	0.2242
412.921	0.2015
413.1261	0.1918
413.3312	0.1836
413.5362	0.1987
413.7413	0.1767
413.9464	0.1867
414.1514	0.2057
414.3564	0.1896
414.5614	0.179
414.7664	0.1885
414.9714	0.2011
415.1764	0.1918
415.3813	0.2194
415.5863	0.1951
415.7912	0.1953
415.9961	0.1887
416.201	0.1891
416.4059	0.199
416.6108	0.1909
416.8156	0.1986
417.0205	0.1795
417.2253	0.1926
417.4301	0.1987
417.6349	0.1709
417.8397	0.1921
418.0445	0.1991
418.2492	0.1716
418.454	0.1789
418.6587	0.177
418.8634	0.196
419.0681	0.1769
419.2728	0.1728
419.4775	0.1911
419.6822	0.1829
419.8868	0.158
420.0915	0.1886
420.2961	0.1735
420.5007	0.1846
420.7053	0.1741
420.9099	0.1803
421.1144	0.1835
421.319	0.1756
421.5235	0.1805
421.728	0.1905
421.9325	0.1735
422.137	0.1883
422.3415	0.1765
422.546	0.173
422.7504	0.2017
422.9549	0.1859
423.1593	0.1632
423.3637	0.1644
423.5681	0.1809
423.7725	0.1571
423.9769	0.1607
424.1812	0.1774
424.3856	0.1652
424.5899	0.178
424.7942	0.1645
424.9985	0.1535
425.2028	0.1746
425.4071	0.1868
425.6113	0.1437
425.8156	0.1703
426.0198	0.1757
426.224	0.1461
426.4282	0.1448
