Data from MonoPyChalIsomerACN10uM360nmA_Absorbance_13-57-24-504.txt Node
Date: Fri Jul 05 13:57:24 BST 2024
User: LASERRRRR
Spectrometer: FLMT03099
Trigger mode: 0
Integration Time (sec): 1.000000E-1
Scans to average: 1
Electric dark correction enabled: true
Nonlinearity correction enabled: false
Boxcar width: 0
XAxis mode: Wavelengths
Number of Pixels in Spectrum: 3648
>>>>>Begin Spectral Data<<<<<
179.3399	0.0275
179.5586	0.0275
179.7771	0.0275
179.9957	-0
180.2143	1.0114
180.4329	-0.1525
180.6514	-0
180.8699	-0
181.0885	0.09
181.307	0.0632
181.5255	0.2576
181.744	-0.4718
181.9625	-0
182.181	-0
182.3994	-0
182.6179	-0
182.8363	0.1271
183.0547	-0.166
183.2732	0.1783
183.4916	-0.0405
183.71	0.0176
183.9284	0.133
184.1467	0.0861
184.3651	-0.0303
184.5835	-0.113
184.8018	-0
185.0201	0.1067
185.2385	0.1327
185.4568	0.1273
185.6751	0.4174
185.8934	0.4379
186.1117	0.0662
186.3299	-0.0234
186.5482	0.0804
186.7664	-0.1431
186.9847	-0.0375
187.2029	0.1478
187.4211	0.0447
187.6393	0.1311
187.8575	0.0598
188.0757	0.2748
188.2939	0.0902
188.512	-0.0202
188.7302	-0.0369
188.9483	0.1113
189.1665	0.0968
189.3846	-0.1803
189.6027	0.0488
189.8208	0.0715
190.0389	0.1453
190.257	0.2631
190.475	0.2534
190.6931	0.2426
190.9111	0.5162
191.1292	0.2659
191.3472	0.4465
191.5652	0.3117
191.7832	0.4613
192.0012	0.4813
192.2192	0.4297
192.4371	0.3675
192.6551	0.4101
192.873	0.4417
193.091	0.4263
193.3089	0.5172
193.5268	0.4853
193.7447	0.9211
193.9626	0.5174
194.1805	0.5678
194.3984	0.9112
194.6162	0.5338
194.8341	0.6023
195.0519	0.648
195.2697	0.8713
195.4875	0.5341
195.7054	0.5169
195.9231	0.5178
196.1409	0.7016
196.3587	0.7529
196.5765	0.4267
196.7942	0.6324
197.012	0.5044
197.2297	0.7216
197.4474	0.7946
197.6651	0.4192
197.8828	0.5713
198.1005	0.5915
198.3182	0.6265
198.5358	0.8184
198.7535	0.6862
198.9711	0.5777
199.1888	0.8156
199.4064	0.8002
199.624	0.5502
199.8416	0.6325
200.0592	0.6685
200.2767	0.5803
200.4943	0.6093
200.7119	0.7459
200.9294	0.6675
201.1469	0.6238
201.3645	0.5027
201.582	0.6493
201.7995	0.6414
202.017	0.6296
202.2344	0.6097
202.4519	0.7328
202.6694	0.7342
202.8868	0.5345
203.1042	0.8081
203.3217	0.6576
203.5391	0.5596
203.7565	0.5981
203.9739	0.646
204.1913	0.556
204.4086	0.7286
204.626	0.7271
204.8433	0.6351
205.0607	0.5095
205.278	0.6895
205.4953	0.7084
205.7126	0.7303
205.9299	0.7297
206.1472	0.6908
206.3644	0.6282
206.5817	0.6912
206.7989	0.7039
207.0162	0.6753
207.2334	0.6658
207.4506	0.5983
207.6678	0.6212
207.885	0.6939
208.1022	0.6334
208.3194	0.6523
208.5365	0.68
208.7537	0.5762
208.9708	0.5742
209.1879	0.558
209.405	0.692
209.6222	0.6907
209.8392	0.6352
210.0563	0.6357
210.2734	0.6711
210.4905	0.6118
210.7075	0.6344
210.9245	0.5976
211.1416	0.6263
211.3586	0.6682
211.5756	0.6058
211.7926	0.5956
212.0096	0.6106
212.2265	0.5747
212.4435	0.5736
212.6604	0.5917
212.8774	0.5756
213.0943	0.6147
213.3112	0.5503
213.5281	0.5314
213.745	0.5081
213.9619	0.5502
214.1788	0.4583
214.3956	0.4706
214.6125	0.487
214.8293	0.438
215.0461	0.4792
215.2629	0.4511
215.4798	0.4363
215.6965	0.4107
215.9133	0.4656
216.1301	0.4085
216.3469	0.4159
216.5636	0.4313
216.7803	0.3968
216.9971	0.3925
217.2138	0.39
217.4305	0.4101
217.6472	0.366
217.8639	0.3815
218.0805	0.3432
218.2972	0.3113
218.5138	0.3265
218.7305	0.312
218.9471	0.2992
219.1637	0.284
219.3803	0.3152
219.5969	0.3058
219.8135	0.2455
220.0301	0.2843
220.2466	0.2679
220.4632	0.2769
220.6797	0.2459
220.8962	0.2555
221.1127	0.2643
221.3292	0.2849
221.5457	0.2281
221.7622	0.25
221.9787	0.2461
222.1951	0.2494
222.4116	0.2476
222.628	0.2386
222.8444	0.2755
223.0608	0.2558
223.2772	0.2585
223.4936	0.2782
223.71	0.2595
223.9264	0.282
224.1427	0.2552
224.3591	0.2611
224.5754	0.2808
224.7917	0.2842
225.008	0.2677
225.2243	0.256
225.4406	0.2866
225.6569	0.2735
225.8732	0.273
226.0894	0.2701
226.3057	0.2758
226.5219	0.2815
226.7381	0.2764
226.9543	0.2927
227.1705	0.2856
227.3867	0.2747
227.6029	0.3222
227.8191	0.3329
228.0352	0.3082
228.2513	0.321
228.4675	0.3065
228.6836	0.3127
228.8997	0.2881
229.1158	0.3119
229.3319	0.3129
229.548	0.325
229.764	0.3343
229.9801	0.3465
230.1961	0.322
230.4121	0.3524
230.6282	0.3383
230.8442	0.3366
231.0602	0.3659
231.2761	0.3462
231.4921	0.3564
231.7081	0.3411
231.924	0.3414
232.14	0.382
232.3559	0.3601
232.5718	0.3581
232.7877	0.3726
233.0036	0.3391
233.2195	0.3617
233.4353	0.3867
233.6512	0.3683
233.867	0.3717
234.0829	0.3639
234.2987	0.3702
234.5145	0.3875
234.7303	0.3765
234.9461	0.4047
235.1619	0.3992
235.3776	0.3953
235.5934	0.3898
235.8091	0.384
236.0249	0.3791
236.2406	0.4019
236.4563	0.371
236.672	0.4058
236.8877	0.3999
237.1034	0.3914
237.319	0.398
237.5347	0.4197
237.7503	0.3982
237.966	0.4038
238.1816	0.3861
238.3972	0.4172
238.6128	0.3928
238.8284	0.415
239.0439	0.4154
239.2595	0.3982
239.475	0.4123
239.6906	0.4215
239.9061	0.4216
240.1216	0.424
240.3371	0.417
240.5526	0.4095
240.7681	0.4326
240.9836	0.3864
241.199	0.396
241.4145	0.3803
241.6299	0.3774
241.8453	0.3889
242.0607	0.3877
242.2761	0.3722
242.4915	0.3614
242.7069	0.361
242.9223	0.3483
243.1376	0.3528
243.353	0.3371
243.5683	0.3565
243.7836	0.3273
243.9989	0.3153
244.2142	0.3038
244.4295	0.3198
244.6448	0.2929
244.86	0.2965
245.0753	0.2791
245.2905	0.2821
245.5057	0.2809
245.721	0.2678
245.9362	0.2541
246.1514	0.2706
246.3665	0.2604
246.5817	0.2532
246.7969	0.2537
247.012	0.2407
247.2271	0.2256
247.4423	0.2474
247.6574	0.2334
247.8725	0.2288
248.0876	0.2261
248.3026	0.2314
248.5177	0.2191
248.7328	0.2134
248.9478	0.204
249.1628	0.2142
249.3779	0.2096
249.5929	0.2086
249.8079	0.2165
250.0228	0.1945
250.2378	0.2082
250.4528	0.1992
250.6677	0.1782
250.8827	0.1895
251.0976	0.2017
251.3125	0.1838
251.5274	0.1792
251.7423	0.1854
251.9572	0.1817
252.172	0.1876
252.3869	0.1776
252.6017	0.1743
252.8166	0.1782
253.0314	0.1694
253.2462	0.164
253.461	0.1769
253.6758	0.1726
253.8906	0.1747
254.1053	0.1732
254.3201	0.1619
254.5348	0.179
254.7496	0.1685
254.9643	0.17
255.179	0.1694
255.3937	0.1678
255.6083	0.1782
255.823	0.1667
256.0377	0.1641
256.2523	0.1615
256.467	0.1569
256.6816	0.1743
256.8962	0.1661
257.1108	0.1498
257.3254	0.1762
257.54	0.1775
257.7545	0.1676
257.9691	0.1638
258.1836	0.1645
258.3981	0.1806
258.6127	0.1759
258.8272	0.1586
259.0417	0.1624
259.2561	0.1695
259.4706	0.1753
259.6851	0.1668
259.8995	0.1632
260.114	0.1643
260.3284	0.1599
260.5428	0.1632
260.7572	0.1623
260.9716	0.1708
261.186	0.1552
261.4003	0.154
261.6147	0.1693
261.829	0.1528
262.0433	0.1686
262.2577	0.1658
262.472	0.164
262.6863	0.1551
262.9005	0.1628
263.1148	0.1596
263.3291	0.1396
263.5433	0.1678
263.7576	0.1715
263.9718	0.1593
264.186	0.1623
264.4002	0.1672
264.6144	0.1625
264.8286	0.1768
265.0427	0.1554
265.2569	0.1568
265.471	0.1521
265.6851	0.1515
265.8993	0.1559
266.1134	0.1583
266.3275	0.1603
266.5415	0.1577
266.7556	0.174
266.9697	0.1603
267.1837	0.1616
267.3978	0.1588
267.6118	0.1624
267.8258	0.1784
268.0398	0.1571
268.2538	0.1498
268.4677	0.1595
268.6817	0.1619
268.8957	0.1506
269.1096	0.1652
269.3235	0.1599
269.5374	0.1548
269.7514	0.1615
269.9652	0.1551
270.1791	0.1435
270.393	0.1585
270.6068	0.1584
270.8207	0.1517
271.0345	0.144
271.2483	0.149
271.4622	0.1525
271.676	0.1591
271.8897	0.1387
272.1035	0.1312
272.3173	0.1408
272.531	0.1373
272.7448	0.1492
272.9585	0.1345
273.1722	0.1431
273.3859	0.1444
273.5996	0.1291
273.8133	0.1364
274.0269	0.1307
274.2406	0.1299
274.4542	0.1463
274.6679	0.1265
274.8815	0.1335
275.0951	0.1443
275.3087	0.1539
275.5223	0.1306
275.7358	0.1478
275.9494	0.1354
276.1629	0.1288
276.3765	0.1468
276.59	0.1445
276.8035	0.134
277.017	0.1375
277.2305	0.1403
277.444	0.142
277.6574	0.1422
277.8709	0.1522
278.0843	0.1327
278.2978	0.1328
278.5112	0.1369
278.7246	0.141
278.938	0.144
279.1513	0.1614
279.3647	0.1518
279.5781	0.145
279.7914	0.1312
280.0047	0.1548
280.2181	0.1551
280.4314	0.1495
280.6447	0.1477
280.8579	0.1491
281.0712	0.1572
281.2845	0.1538
281.4977	0.151
281.711	0.144
281.9242	0.1538
282.1374	0.1476
282.3506	0.1463
282.5638	0.1457
282.7769	0.1522
282.9901	0.1552
283.2033	0.1521
283.4164	0.1543
283.6295	0.1543
283.8426	0.154
284.0557	0.1604
284.2688	0.1695
284.4819	0.159
284.695	0.1432
284.908	0.1609
285.1211	0.158
285.3341	0.159
285.5471	0.1615
285.7601	0.1578
285.9731	0.1468
286.1861	0.1531
286.3991	0.1709
286.612	0.1587
286.825	0.1575
287.0379	0.1697
287.2508	0.1639
287.4637	0.1617
287.6766	0.1551
287.8895	0.1665
288.1024	0.1776
288.3152	0.1646
288.5281	0.1519
288.7409	0.171
288.9538	0.1649
289.1666	0.1667
289.3794	0.1655
289.5922	0.1717
289.8049	0.169
290.0177	0.165
290.2304	0.1684
290.4432	0.1643
290.6559	0.1601
290.8686	0.1879
291.0813	0.1664
291.294	0.1669
291.5067	0.1828
291.7194	0.1705
291.932	0.1867
292.1447	0.1668
292.3573	0.1522
292.5699	0.1723
292.7825	0.1777
292.9951	0.1769
293.2077	0.1626
293.4203	0.1746
293.6328	0.1536
293.8454	0.1753
294.0579	0.1833
294.2704	0.1681
294.4829	0.1623
294.6954	0.1785
294.9079	0.1669
295.1204	0.1754
295.3328	0.1691
295.5453	0.1769
295.7577	0.1737
295.9701	0.1672
296.1825	0.178
296.3949	0.1733
296.6073	0.1568
296.8197	0.1533
297.0321	0.1758
297.2444	0.1629
297.4567	0.1787
297.6691	0.1674
297.8814	0.1735
298.0937	0.1666
298.306	0.1784
298.5182	0.175
298.7305	0.1699
298.9428	0.1696
299.155	0.1674
299.3672	0.1702
299.5794	0.1755
299.7916	0.178
300.0038	0.1715
300.216	0.1739
300.4282	0.1897
300.6403	0.1638
300.8525	0.186
301.0646	0.1675
301.2767	0.171
301.4888	0.1738
301.7009	0.1752
301.913	0.1655
302.125	0.172
302.3371	0.1645
302.5491	0.1798
302.7612	0.1767
302.9732	0.1595
303.1852	0.1695
303.3972	0.1615
303.6092	0.1552
303.8211	0.1658
304.0331	0.1608
304.245	0.1661
304.457	0.1653
304.6689	0.1453
304.8808	0.1621
305.0927	0.1573
305.3046	0.1589
305.5164	0.1702
305.7283	0.1591
305.9401	0.1656
306.152	0.1543
306.3638	0.1577
306.5756	0.145
306.7874	0.1529
306.9992	0.1596
307.2109	0.1407
307.4227	0.133
307.6344	0.1465
307.8462	0.1345
308.0579	0.1419
308.2696	0.1317
308.4813	0.1326
308.693	0.1388
308.9046	0.1446
309.1163	0.1307
309.328	0.1374
309.5396	0.1188
309.7512	0.1265
309.9628	0.1249
310.1744	0.1305
310.386	0.1262
310.5976	0.1258
310.8091	0.117
311.0207	0.1206
311.2322	0.1239
311.4437	0.108
311.6552	0.104
311.8667	0.1207
312.0782	0.1082
312.2897	0.1028
312.5012	0.1265
312.7126	0.0994
312.924	0.1083
313.1355	0.1127
313.3469	0.1
313.5583	0.1108
313.7696	0.104
313.981	0.0946
314.1924	0.1054
314.4037	0.1028
314.6151	0.1068
314.8264	0.0995
315.0377	0.0937
315.249	0.1209
315.4603	0.1047
315.6716	0.0911
315.8828	0.0902
316.0941	0.1018
316.3053	0.0949
316.5165	0.0966
316.7277	0.0896
316.9389	0.1065
317.1501	0.0943
317.3613	0.1002
317.5724	0.0933
317.7836	0.0986
317.9947	0.0972
318.2058	0.0969
318.417	0.0833
318.6281	0.0811
318.8391	0.0947
319.0502	0.0837
319.2613	0.0971
319.4723	0.1054
319.6834	0.1064
319.8944	0.0863
320.1054	0.0995
320.3164	0.1001
320.5274	0.0945
320.7383	0.0911
320.9493	0.0967
321.1602	0.1026
321.3712	0.0822
321.5821	0.0941
321.793	0.0954
322.0039	0.0991
322.2148	0.0959
322.4257	0.0979
322.6365	0.1015
322.8474	0.0988
323.0582	0.091
323.269	0.0941
323.4798	0.1021
323.6906	0.0972
323.9014	0.0935
324.1122	0.0917
324.3229	0.1006
324.5337	0.0936
324.7444	0.0889
324.9551	0.1076
325.1658	0.1008
325.3765	0.1084
325.5872	0.099
325.7979	0.0946
326.0085	0.0994
326.2192	0.1018
326.4298	0.1108
326.6404	0.0912
326.851	0.0847
327.0616	0.0941
327.2722	0.1037
327.4828	0.1052
327.6933	0.0966
327.9039	0.1052
328.1144	0.1043
328.3249	0.102
328.5354	0.1035
328.7459	0.0954
328.9564	0.108
329.1669	0.0995
329.3773	0.1017
329.5878	0.0923
329.7982	0.0904
330.0086	0.108
330.219	0.1082
330.4294	0.0949
330.6398	0.0953
330.8502	0.1003
331.0605	0.1001
331.2708	0.1
331.4812	0.1087
331.6915	0.1103
331.9018	0.1042
332.1121	0.097
332.3224	0.1193
332.5326	0.1028
332.7429	0.103
332.9531	0.1131
333.1633	0.1031
333.3735	0.0981
333.5837	0.0945
333.7939	0.1048
334.0041	0.1138
334.2143	0.1099
334.4244	0.1108
334.6346	0.0901
334.8447	0.1157
335.0548	0.1016
335.2649	0.1099
335.475	0.1163
335.685	0.1061
335.8951	0.1183
336.1051	0.106
336.3152	0.1159
336.5252	0.1008
336.7352	0.112
336.9452	0.116
337.1552	0.1184
337.3652	0.1048
337.5751	0.1117
337.7851	0.0958
337.995	0.0998
338.2049	0.1168
338.4148	0.1106
338.6247	0.1062
338.8346	0.113
339.0445	0.107
339.2543	0.1054
339.4642	0.1067
339.674	0.0952
339.8838	0.1102
340.0936	0.1153
340.3034	0.1205
340.5132	0.1257
340.7229	0.1218
340.9327	0.1083
341.1424	0.1264
341.3522	0.1129
341.5619	0.1277
341.7716	0.1111
341.9813	0.1123
342.1909	0.1144
342.4006	0.1234
342.6102	0.1237
342.8199	0.1239
343.0295	0.1229
343.2391	0.1113
343.4487	0.1349
343.6583	0.1133
343.8679	0.1113
344.0774	0.129
344.287	0.1293
344.4965	0.1145
344.706	0.1126
344.9155	0.1197
345.125	0.1286
345.3345	0.1189
345.544	0.1254
345.7534	0.1208
345.9629	0.1144
346.1723	0.1269
346.3817	0.1275
346.5911	0.1151
346.8005	0.1398
347.0099	0.1257
347.2193	0.1337
347.4286	0.1247
347.638	0.1212
347.8473	0.1419
348.0566	0.1265
348.2659	0.1311
348.4752	0.1239
348.6845	0.1223
348.8937	0.147
349.103	0.1353
349.3122	0.119
349.5214	0.1292
349.7306	0.1361
349.9398	0.1416
350.149	0.1466
350.3582	0.121
350.5674	0.1406
350.7765	0.1258
350.9856	0.1416
351.1948	0.1439
351.4039	0.1195
351.613	0.1349
351.822	0.1499
352.0311	0.1413
352.2402	0.145
352.4492	0.1424
352.6582	0.1488
352.8672	0.1292
353.0762	0.1485
353.2852	0.145
353.4942	0.1392
353.7032	0.1624
353.9121	0.1493
354.1211	0.1515
354.33	0.1504
354.5389	0.152
354.7478	0.1547
354.9567	0.1443
355.1655	0.1503
355.3744	0.1574
355.5833	0.1597
355.7921	0.1735
356.0009	0.1692
356.2097	0.1711
356.4185	0.1682
356.6273	0.1602
356.8361	0.1684
357.0448	0.1499
357.2536	0.1368
357.4623	0.1521
357.671	0.1691
357.8797	0.173
358.0884	0.1608
358.2971	0.165
358.5057	0.1799
358.7144	0.1652
358.923	0.1731
359.1316	0.1579
359.3402	0.1689
359.5488	0.1739
359.7574	0.1612
359.966	0.1725
360.1746	0.1692
360.3831	0.1702
360.5916	0.1749
360.8002	0.1714
361.0087	0.1789
361.2172	0.1798
361.4256	0.1705
361.6341	0.1929
361.8426	0.182
362.051	0.1826
362.2594	0.1718
362.4678	0.1763
362.6762	0.1998
362.8846	0.1861
363.093	0.185
363.3014	0.1737
363.5097	0.1802
363.718	0.1832
363.9264	0.1844
364.1347	0.1713
364.343	0.197
364.5513	0.2097
364.7595	0.2125
364.9678	0.2045
365.176	0.2002
365.3842	0.1978
365.5925	0.2025
365.8007	0.2007
366.0089	0.1954
366.217	0.2092
366.4252	0.2186
366.6333	0.2173
366.8415	0.2083
367.0496	0.2056
367.2577	0.2185
367.4658	0.2125
367.6739	0.2066
367.882	0.2141
368.09	0.207
368.2981	0.2134
368.5061	0.2151
368.7141	0.2228
368.9221	0.2147
369.1301	0.2112
369.3381	0.2172
369.5461	0.23
369.754	0.2291
369.962	0.2148
370.1699	0.2176
370.3778	0.2264
370.5857	0.2051
370.7936	0.2363
371.0015	0.2135
371.2093	0.2383
371.4172	0.2427
371.625	0.213
371.8328	0.2305
372.0406	0.2329
372.2484	0.2289
372.4562	0.2337
372.664	0.2418
372.8717	0.2485
373.0795	0.1908
373.2872	0.2427
373.4949	0.2287
373.7026	0.2388
373.9103	0.2345
374.118	0.2389
374.3256	0.2288
374.5333	0.2312
374.7409	0.2277
374.9485	0.2525
375.1561	0.2417
375.3637	0.2386
375.5713	0.2381
375.7789	0.2491
375.9864	0.2578
376.194	0.2302
376.4015	0.2528
376.609	0.2558
376.8165	0.2368
377.024	0.2473
377.2315	0.226
377.4389	0.2609
377.6464	0.2549
377.8538	0.274
378.0612	0.2545
378.2686	0.2565
378.476	0.252
378.6834	0.2477
378.8908	0.2597
379.0981	0.2597
379.3055	0.2741
379.5128	0.2608
379.7201	0.2732
379.9274	0.2513
380.1347	0.2547
380.342	0.2701
380.5492	0.2557
380.7565	0.2522
380.9637	0.2636
381.1709	0.2814
381.3781	0.2502
381.5853	0.2605
381.7925	0.2588
381.9997	0.2819
382.2068	0.2826
382.4139	0.2584
382.6211	0.2552
382.8282	0.2676
383.0353	0.2538
383.2424	0.2707
383.4494	0.2678
383.6565	0.2626
383.8635	0.279
384.0706	0.2747
384.2776	0.2815
384.4846	0.2617
384.6916	0.29
384.8986	0.2771
385.1055	0.2697
385.3125	0.2614
385.5194	0.2649
385.7263	0.2926
385.9333	0.2568
386.1402	0.2531
386.347	0.2646
386.5539	0.2687
386.7608	0.2784
386.9676	0.2595
387.1744	0.27
387.3813	0.2639
387.5881	0.274
387.7948	0.253
388.0016	0.2667
388.2084	0.2596
388.4151	0.2489
388.6219	0.2665
388.8286	0.2708
389.0353	0.2753
389.242	0.2803
389.4487	0.2596
389.6553	0.2686
389.862	0.2418
390.0686	0.2493
390.2753	0.2617
390.4819	0.2661
390.6885	0.2532
390.8951	0.2599
391.1016	0.2615
391.3082	0.2542
391.5147	0.2527
391.7213	0.2551
391.9278	0.2446
392.1343	0.2433
392.3408	0.2533
392.5473	0.2499
392.7537	0.2469
392.9602	0.2486
393.1666	0.2681
393.373	0.2485
393.5794	0.2587
393.7858	0.2477
393.9922	0.2379
394.1986	0.2435
394.4049	0.247
394.6113	0.2411
394.8176	0.2206
395.0239	0.2359
395.2302	0.2189
395.4365	0.2425
395.6428	0.2229
395.8491	0.228
396.0553	0.2409
396.2615	0.2356
396.4678	0.2242
396.674	0.2099
396.8802	0.2431
397.0863	0.2441
397.2925	0.2305
397.4987	0.2291
397.7048	0.2346
397.9109	0.2261
398.117	0.2285
398.3231	0.2415
398.5292	0.2277
398.7353	0.2526
398.9413	0.224
399.1474	0.2198
399.3534	0.2247
399.5594	0.219
399.7654	0.2573
399.9714	0.245
400.1774	0.2177
400.3833	0.2257
400.5893	0.2411
400.7952	0.2268
401.0011	0.2306
401.207	0.2392
401.4129	0.2513
401.6188	0.2339
401.8247	0.2525
402.0305	0.2102
402.2364	0.2291
402.4422	0.2361
402.648	0.227
402.8538	0.2196
403.0596	0.2117
403.2654	0.2332
403.4711	0.2254
403.6768	0.2276
403.8826	0.2364
404.0883	0.235
404.294	0.2237
404.4997	0.2292
404.7054	0.2345
404.911	0.2184
405.1167	0.2222
405.3223	0.2365
405.5279	0.2458
405.7335	0.2239
405.9391	0.2345
406.1447	0.2181
406.3502	0.2485
406.5558	0.2226
406.7613	0.2445
406.9668	0.258
407.1724	0.2204
407.3778	0.2238
407.5833	0.2249
407.7888	0.2161
407.9942	0.2268
408.1997	0.2218
408.4051	0.2417
408.6105	0.2298
408.8159	0.219
409.0213	0.2062
409.2267	0.2422
409.432	0.1905
409.6374	0.2439
409.8427	0.2219
410.048	0.2352
410.2533	0.2356
410.4586	0.2332
410.6639	0.2249
410.8691	0.2157
411.0744	0.2308
411.2796	0.2121
411.4848	0.2234
411.69	0.2249
411.8952	0.2334
412.1004	0.2214
412.3056	0.2415
412.5107	0.2255
412.7158	0.2371
412.921	0.2316
413.1261	0.2112
413.3312	0.213
413.5362	0.2165
413.7413	0.2137
413.9464	0.213
414.1514	0.2163
414.3564	0.2165
414.5614	0.2142
414.7664	0.2229
414.9714	0.217
415.1764	0.2282
415.3813	0.2394
415.5863	0.2209
415.7912	0.232
415.9961	0.2208
416.201	0.2187
416.4059	0.2283
416.6108	0.2135
416.8156	0.22
417.0205	0.2107
417.2253	0.2249
417.4301	0.2181
417.6349	0.2289
417.8397	0.2173
418.0445	0.2213
418.2492	0.2253
418.454	0.2304
418.6587	0.2063
418.8634	0.2245
419.0681	0.1975
419.2728	0.1955
419.4775	0.1944
419.6822	0.2039
419.8868	0.1947
420.0915	0.2093
420.2961	0.2032
420.5007	0.1972
420.7053	0.2096
420.9099	0.202
421.1144	0.2038
421.319	0.1975
421.5235	0.2065
421.728	0.2139
421.9325	0.2119
422.137	0.2153
422.3415	0.2042
422.546	0.2123
422.7504	0.1966
422.9549	0.2059
423.1593	0.218
423.3637	0.2061
423.5681	0.2005
423.7725	0.1856
423.9769	0.1892
424.1812	0.1848
424.3856	0.1888
424.5899	0.1965
424.7942	0.1896
424.9985	0.1836
425.2028	0.1997
425.4071	0.1962
425.6113	0.1745
425.8156	0.1884
426.0198	0.2002
426.224	0.1627
426.4282	0.1854
426.6324	0.1715
426.8366	0.1641
