Data from MonoPyChalIsomerACN10uM360nmA_Absorbance_13-57-28-404.txt Node
Date: Fri Jul 05 13:57:28 BST 2024
User: LASERRRRR
Spectrometer: FLMT03099
Trigger mode: 0
Integration Time (sec): 1.000000E-1
Scans to average: 1
Electric dark correction enabled: true
Nonlinearity correction enabled: false
Boxcar width: 0
XAxis mode: Wavelengths
Number of Pixels in Spectrum: 3648
>>>>>Begin Spectral Data<<<<<
179.3399	-0.1008
179.5586	-0.1008
179.7771	-0.1008
179.9957	-0.1117
180.2143	-0
180.4329	-0
180.6514	-0
180.8699	-0
181.0885	-0
181.307	-0.153
181.5255	-0
181.744	-0.6784
181.9625	-0
182.181	-0.7217
182.3994	0.3582
182.6179	0.2659
182.8363	-0.0095
183.0547	0.1997
183.2732	0.0827
183.4916	0.0813
183.71	0.0573
183.9284	0.3631
184.1467	0.3427
184.3651	0.0283
184.5835	-0.06
184.8018	0.1541
185.0201	0.1619
185.2385	0.1712
185.4568	0.1907
185.6751	0.1403
185.8934	0.3411
186.1117	0.1491
186.3299	0.1151
186.5482	0.0715
186.7664	0.1247
186.9847	-0.0361
187.2029	0.1878
187.4211	0.216
187.6393	0.179
187.8575	0.0904
188.0757	0.1835
188.2939	-0.0266
188.512	0.0399
188.7302	0.0749
188.9483	0.3096
189.1665	0.1098
189.3846	0.065
189.6027	0.3419
189.8208	0.122
190.0389	0.0684
190.257	0.163
190.475	0.2553
190.6931	0.3919
190.9111	0.3744
191.1292	0.4555
191.3472	0.5545
191.5652	0.3017
191.7832	0.5303
192.0012	0.434
192.2192	0.4503
192.4371	0.5868
192.6551	0.4451
192.873	0.5812
193.091	0.5631
193.3089	0.9573
193.5268	0.4623
193.7447	0.7535
193.9626	0.4331
194.1805	0.8426
194.3984	0.8738
194.6162	0.715
194.8341	0.733
195.0519	0.6302
195.2697	1.0077
195.4875	0.8189
195.7054	0.5901
195.9231	0.6257
196.1409	0.575
196.3587	0.6204
196.5765	0.7204
196.7942	0.7249
197.012	0.4743
197.2297	0.6217
197.4474	0.8818
197.6651	0.5313
197.8828	0.7242
198.1005	0.5821
198.3182	0.6573
198.5358	0.7196
198.7535	0.6017
198.9711	0.5415
199.1888	0.5887
199.4064	0.9885
199.624	0.5659
199.8416	0.5925
200.0592	0.6663
200.2767	0.6929
200.4943	0.7857
200.7119	0.618
200.9294	0.7263
201.1469	0.758
201.3645	0.4782
201.582	0.5779
201.7995	0.5586
202.017	0.6884
202.2344	0.5989
202.4519	0.5592
202.6694	0.6563
202.8868	0.5839
203.1042	0.9195
203.3217	0.6851
203.5391	0.6441
203.7565	0.5812
203.9739	0.676
204.1913	0.5777
204.4086	0.7086
204.626	0.7329
204.8433	0.6125
205.0607	0.692
205.278	0.6784
205.4953	0.5526
205.7126	0.6549
205.9299	0.7431
206.1472	0.6793
206.3644	0.6214
206.5817	0.6715
206.7989	0.6811
207.0162	0.7006
207.2334	0.6371
207.4506	0.5796
207.6678	0.7081
207.885	0.7088
208.1022	0.6986
208.3194	0.6909
208.5365	0.663
208.7537	0.6862
208.9708	0.6475
209.1879	0.6305
209.405	0.795
209.6222	0.6398
209.8392	0.6372
210.0563	0.5828
210.2734	0.6482
210.4905	0.6273
210.7075	0.6174
210.9245	0.6693
211.1416	0.6805
211.3586	0.6791
211.5756	0.5592
211.7926	0.6116
212.0096	0.5872
212.2265	0.5807
212.4435	0.6145
212.6604	0.6009
212.8774	0.5346
213.0943	0.6253
213.3112	0.5419
213.5281	0.5691
213.745	0.511
213.9619	0.5148
214.1788	0.4601
214.3956	0.4741
214.6125	0.4769
214.8293	0.4469
215.0461	0.4899
215.2629	0.4323
215.4798	0.4507
215.6965	0.4109
215.9133	0.4385
216.1301	0.4323
216.3469	0.4293
216.5636	0.4359
216.7803	0.4075
216.9971	0.3921
217.2138	0.3797
217.4305	0.3877
217.6472	0.3417
217.8639	0.3982
218.0805	0.3622
218.2972	0.343
218.5138	0.3482
218.7305	0.343
218.9471	0.3286
219.1637	0.3026
219.3803	0.2869
219.5969	0.2963
219.8135	0.27
220.0301	0.2682
220.2466	0.2587
220.4632	0.2517
220.6797	0.2238
220.8962	0.2557
221.1127	0.2557
221.3292	0.261
221.5457	0.2461
221.7622	0.2461
221.9787	0.2608
222.1951	0.24
222.4116	0.2724
222.628	0.2613
222.8444	0.268
223.0608	0.2537
223.2772	0.2592
223.4936	0.27
223.71	0.2485
223.9264	0.2774
224.1427	0.258
224.3591	0.2465
224.5754	0.2686
224.7917	0.2652
225.008	0.2741
225.2243	0.2822
225.4406	0.2805
225.6569	0.278
225.8732	0.2737
226.0894	0.2729
226.3057	0.2953
226.5219	0.291
226.7381	0.2808
226.9543	0.2877
227.1705	0.288
227.3867	0.2935
227.6029	0.2989
227.8191	0.311
228.0352	0.2953
228.2513	0.3361
228.4675	0.3141
228.6836	0.3291
228.8997	0.2984
229.1158	0.3324
229.3319	0.3161
229.548	0.3302
229.764	0.326
229.9801	0.3373
230.1961	0.3497
230.4121	0.3473
230.6282	0.3366
230.8442	0.3401
231.0602	0.3546
231.2761	0.3625
231.4921	0.3439
231.7081	0.3693
231.924	0.3479
232.14	0.3526
232.3559	0.3423
232.5718	0.3692
232.7877	0.3652
233.0036	0.3645
233.2195	0.3596
233.4353	0.3521
233.6512	0.3695
233.867	0.3804
234.0829	0.3717
234.2987	0.3815
234.5145	0.3717
234.7303	0.3623
234.9461	0.398
235.1619	0.3817
235.3776	0.3988
235.5934	0.3782
235.8091	0.3565
236.0249	0.3865
236.2406	0.4014
236.4563	0.3845
236.672	0.4138
236.8877	0.401
237.1034	0.3994
237.319	0.3997
237.5347	0.4042
237.7503	0.404
237.966	0.4259
238.1816	0.4256
238.3972	0.4317
238.6128	0.4015
238.8284	0.4148
239.0439	0.4105
239.2595	0.4177
239.475	0.4116
239.6906	0.4245
239.9061	0.4057
240.1216	0.3952
240.3371	0.4182
240.5526	0.3955
240.7681	0.3907
240.9836	0.395
241.199	0.4179
241.4145	0.3855
241.6299	0.3915
241.8453	0.3758
242.0607	0.4037
242.2761	0.3657
242.4915	0.3497
242.7069	0.3914
242.9223	0.3554
243.1376	0.3513
243.353	0.342
243.5683	0.3511
243.7836	0.3177
243.9989	0.3355
244.2142	0.3217
244.4295	0.3063
244.6448	0.3097
244.86	0.2872
245.0753	0.2891
245.2905	0.2825
245.5057	0.2961
245.721	0.2777
245.9362	0.2765
246.1514	0.2894
246.3665	0.2591
246.5817	0.2661
246.7969	0.2682
247.012	0.2527
247.2271	0.2359
247.4423	0.2473
247.6574	0.2498
247.8725	0.2216
248.0876	0.2411
248.3026	0.2383
248.5177	0.2219
248.7328	0.2173
248.9478	0.2072
249.1628	0.2184
249.3779	0.2254
249.5929	0.2102
249.8079	0.2099
250.0228	0.2123
250.2378	0.2056
250.4528	0.2037
250.6677	0.1971
250.8827	0.2033
251.0976	0.2009
251.3125	0.1902
251.5274	0.1689
251.7423	0.191
251.9572	0.1991
252.172	0.1733
252.3869	0.1906
252.6017	0.1889
252.8166	0.176
253.0314	0.1754
253.2462	0.1771
253.461	0.1939
253.6758	0.1856
253.8906	0.2
254.1053	0.1757
254.3201	0.1704
254.5348	0.1749
254.7496	0.1818
254.9643	0.172
255.179	0.1711
255.3937	0.1711
255.6083	0.1779
255.823	0.1669
256.0377	0.158
256.2523	0.1678
256.467	0.149
256.6816	0.1876
256.8962	0.1709
257.1108	0.1496
257.3254	0.1841
257.54	0.158
257.7545	0.1638
257.9691	0.1674
258.1836	0.1738
258.3981	0.1711
258.6127	0.1792
258.8272	0.1632
259.0417	0.1756
259.2561	0.1618
259.4706	0.1655
259.6851	0.1638
259.8995	0.1617
260.114	0.1674
260.3284	0.1602
260.5428	0.1563
260.7572	0.1811
260.9716	0.1691
261.186	0.153
261.4003	0.1742
261.6147	0.1709
261.829	0.1487
262.0433	0.1606
262.2577	0.1682
262.472	0.166
262.6863	0.1619
262.9005	0.1721
263.1148	0.1639
263.3291	0.151
263.5433	0.1727
263.7576	0.1506
263.9718	0.1558
264.186	0.1531
264.4002	0.153
264.6144	0.1696
264.8286	0.1692
265.0427	0.1617
265.2569	0.1532
265.471	0.1528
265.6851	0.1597
265.8993	0.1635
266.1134	0.1699
266.3275	0.1564
266.5415	0.1563
266.7556	0.1631
266.9697	0.169
267.1837	0.1646
267.3978	0.1621
267.6118	0.178
267.8258	0.1703
268.0398	0.1543
268.2538	0.1769
268.4677	0.1624
268.6817	0.1533
268.8957	0.161
269.1096	0.1717
269.3235	0.1623
269.5374	0.1586
269.7514	0.1541
269.9652	0.1554
270.1791	0.1537
270.393	0.1538
270.6068	0.1671
270.8207	0.1463
271.0345	0.142
271.2483	0.1518
271.4622	0.1404
271.676	0.1426
271.8897	0.1391
272.1035	0.1502
272.3173	0.1411
272.531	0.1421
272.7448	0.1535
272.9585	0.1428
273.1722	0.149
273.3859	0.1527
273.5996	0.1473
273.8133	0.1476
274.0269	0.1371
274.2406	0.1287
274.4542	0.1456
274.6679	0.1268
274.8815	0.1484
275.0951	0.153
275.3087	0.1507
275.5223	0.1451
275.7358	0.1542
275.9494	0.1516
276.1629	0.1373
276.3765	0.1608
276.59	0.1489
276.8035	0.1365
277.017	0.1509
277.2305	0.1491
277.444	0.1593
277.6574	0.1419
277.8709	0.1512
278.0843	0.1365
278.2978	0.1538
278.5112	0.147
278.7246	0.1524
278.938	0.1437
279.1513	0.155
279.3647	0.1507
279.5781	0.1512
279.7914	0.1587
280.0047	0.1629
280.2181	0.1448
280.4314	0.1562
280.6447	0.1604
280.8579	0.1511
281.0712	0.1692
281.2845	0.1561
281.4977	0.1647
281.711	0.1475
281.9242	0.1446
282.1374	0.1577
282.3506	0.1546
282.5638	0.1572
282.7769	0.1584
282.9901	0.1522
283.2033	0.1612
283.4164	0.1672
283.6295	0.1464
283.8426	0.1582
284.0557	0.1622
284.2688	0.1712
284.4819	0.1632
284.695	0.162
284.908	0.1653
285.1211	0.152
285.3341	0.1655
285.5471	0.1661
285.7601	0.1543
285.9731	0.153
286.1861	0.1442
286.3991	0.1447
286.612	0.1703
286.825	0.151
287.0379	0.167
287.2508	0.1545
287.4637	0.1705
287.6766	0.1648
287.8895	0.1685
288.1024	0.1863
288.3152	0.1646
288.5281	0.1575
288.7409	0.1672
288.9538	0.1741
289.1666	0.1642
289.3794	0.1659
289.5922	0.1637
289.8049	0.1703
290.0177	0.1662
290.2304	0.1619
290.4432	0.1646
290.6559	0.1667
290.8686	0.1746
291.0813	0.1669
291.294	0.1644
291.5067	0.1714
291.7194	0.1686
291.932	0.1842
292.1447	0.1649
292.3573	0.1561
292.5699	0.1615
292.7825	0.1677
292.9951	0.1688
293.2077	0.1704
293.4203	0.1603
293.6328	0.1485
293.8454	0.1672
294.0579	0.1613
294.2704	0.1726
294.4829	0.1581
294.6954	0.1604
294.9079	0.1768
295.1204	0.1714
295.3328	0.1579
295.5453	0.1619
295.7577	0.1724
295.9701	0.1577
296.1825	0.1735
296.3949	0.1723
296.6073	0.171
296.8197	0.153
297.0321	0.1767
297.2444	0.1487
297.4567	0.1616
297.6691	0.1702
297.8814	0.152
298.0937	0.1742
298.306	0.1736
298.5182	0.1582
298.7305	0.1626
298.9428	0.1601
299.155	0.1784
299.3672	0.1619
299.5794	0.1581
299.7916	0.1623
300.0038	0.1654
300.216	0.1665
300.4282	0.1685
300.6403	0.1608
300.8525	0.163
301.0646	0.1493
301.2767	0.1624
301.4888	0.16
301.7009	0.1603
301.913	0.1624
302.125	0.1665
302.3371	0.1517
302.5491	0.166
302.7612	0.1727
302.9732	0.1691
303.1852	0.1591
303.3972	0.1539
303.6092	0.1564
303.8211	0.1536
304.0331	0.1542
304.245	0.1586
304.457	0.1477
304.6689	0.147
304.8808	0.1568
305.0927	0.1569
305.3046	0.163
305.5164	0.1577
305.7283	0.1402
305.9401	0.1555
306.152	0.1509
306.3638	0.1685
306.5756	0.1329
306.7874	0.1453
306.9992	0.1514
307.2109	0.147
307.4227	0.1306
307.6344	0.1459
307.8462	0.1378
308.0579	0.1311
308.2696	0.1402
308.4813	0.1238
308.693	0.132
308.9046	0.1386
309.1163	0.1203
309.328	0.1321
309.5396	0.1213
309.7512	0.1247
309.9628	0.1238
310.1744	0.1193
310.386	0.1186
310.5976	0.1241
310.8091	0.1306
311.0207	0.1214
311.2322	0.1175
311.4437	0.1062
311.6552	0.1124
311.8667	0.1118
312.0782	0.1091
312.2897	0.1086
312.5012	0.1049
312.7126	0.1078
312.924	0.1126
313.1355	0.1178
313.3469	0.1026
313.5583	0.1087
313.7696	0.1046
313.981	0.1036
314.1924	0.1048
314.4037	0.0918
314.6151	0.114
314.8264	0.0963
315.0377	0.0988
315.249	0.1057
315.4603	0.1128
315.6716	0.1051
315.8828	0.0934
316.0941	0.1083
316.3053	0.0895
316.5165	0.0927
316.7277	0.0943
316.9389	0.098
317.1501	0.0982
317.3613	0.1017
317.5724	0.0896
317.7836	0.1015
317.9947	0.0953
318.2058	0.0949
318.417	0.0963
318.6281	0.0833
318.8391	0.0977
319.0502	0.096
319.2613	0.101
319.4723	0.111
319.6834	0.1007
319.8944	0.092
320.1054	0.0961
320.3164	0.1079
320.5274	0.104
320.7383	0.1118
320.9493	0.0954
321.1602	0.114
321.3712	0.0873
321.5821	0.086
321.793	0.1113
322.0039	0.1011
322.2148	0.1007
322.4257	0.112
322.6365	0.1072
322.8474	0.1008
323.0582	0.1068
323.269	0.1032
323.4798	0.1126
323.6906	0.101
323.9014	0.0958
324.1122	0.1101
324.3229	0.1062
324.5337	0.0986
324.7444	0.0906
324.9551	0.1242
325.1658	0.1139
325.3765	0.1103
325.5872	0.1044
325.7979	0.0972
326.0085	0.1016
326.2192	0.1093
326.4298	0.1054
326.6404	0.0969
326.851	0.1028
327.0616	0.0925
327.2722	0.102
327.4828	0.109
327.6933	0.1036
327.9039	0.1017
328.1144	0.1083
328.3249	0.1113
328.5354	0.0969
328.7459	0.1039
328.9564	0.1007
329.1669	0.0927
329.3773	0.0983
329.5878	0.0983
329.7982	0.107
330.0086	0.1005
330.219	0.1041
330.4294	0.0988
330.6398	0.1046
330.8502	0.0914
331.0605	0.1086
331.2708	0.1067
331.4812	0.1122
331.6915	0.1107
331.9018	0.1212
332.1121	0.1101
332.3224	0.1158
332.5326	0.1128
332.7429	0.1155
332.9531	0.1139
333.1633	0.1115
333.3735	0.1093
333.5837	0.1085
333.7939	0.1027
334.0041	0.117
334.2143	0.1187
334.4244	0.1059
334.6346	0.0912
334.8447	0.1232
335.0548	0.1232
335.2649	0.1011
335.475	0.1086
335.685	0.108
335.8951	0.129
336.1051	0.1025
336.3152	0.1132
336.5252	0.1055
336.7352	0.12
336.9452	0.121
337.1552	0.1163
337.3652	0.1104
337.5751	0.1147
337.7851	0.1093
337.995	0.108
338.2049	0.1127
338.4148	0.1126
338.6247	0.1276
338.8346	0.109
339.0445	0.1108
339.2543	0.1044
339.4642	0.1219
339.674	0.1055
339.8838	0.1148
340.0936	0.1155
340.3034	0.1175
340.5132	0.1307
340.7229	0.1183
340.9327	0.1201
341.1424	0.1157
341.3522	0.1351
341.5619	0.1353
341.7716	0.116
341.9813	0.1247
342.1909	0.1104
342.4006	0.1239
342.6102	0.1366
342.8199	0.1209
343.0295	0.1234
343.2391	0.1297
343.4487	0.1279
343.6583	0.127
343.8679	0.1302
344.0774	0.1327
344.287	0.1289
344.4965	0.1112
344.706	0.1374
344.9155	0.1303
345.125	0.1345
345.3345	0.1357
345.544	0.1302
345.7534	0.1256
345.9629	0.1282
346.1723	0.1223
346.3817	0.1251
346.5911	0.1299
346.8005	0.1417
347.0099	0.1274
347.2193	0.1438
347.4286	0.1245
347.638	0.1369
347.8473	0.1357
348.0566	0.146
348.2659	0.1337
348.4752	0.1433
348.6845	0.1321
348.8937	0.1335
349.103	0.1407
349.3122	0.137
349.5214	0.1437
349.7306	0.1427
349.9398	0.1368
350.149	0.1386
350.3582	0.1353
350.5674	0.1452
350.7765	0.1436
350.9856	0.1423
351.1948	0.1525
351.4039	0.1318
351.613	0.1436
351.822	0.1415
352.0311	0.1516
352.2402	0.1419
352.4492	0.1542
352.6582	0.1496
352.8672	0.1425
353.0762	0.1468
353.2852	0.1579
353.4942	0.1458
353.7032	0.1537
353.9121	0.149
354.1211	0.1464
354.33	0.1517
354.5389	0.159
354.7478	0.1562
354.9567	0.1514
355.1655	0.1522
355.3744	0.1506
355.5833	0.1574
355.7921	0.1618
356.0009	0.1603
356.2097	0.1747
356.4185	0.1653
356.6273	0.1593
356.8361	0.1683
357.0448	0.1526
357.2536	0.1587
357.4623	0.1488
357.671	0.1658
357.8797	0.1706
358.0884	0.1672
358.2971	0.1536
358.5057	0.1735
358.7144	0.1675
358.923	0.1655
359.1316	0.1721
359.3402	0.168
359.5488	0.1743
359.7574	0.1556
359.966	0.1712
360.1746	0.1694
360.3831	0.1767
360.5916	0.1743
360.8002	0.1585
361.0087	0.1805
361.2172	0.174
361.4256	0.1651
361.6341	0.1874
361.8426	0.1835
362.051	0.1688
362.2594	0.1823
362.4678	0.1811
362.6762	0.1903
362.8846	0.1928
363.093	0.1791
363.3014	0.1825
363.5097	0.1733
363.718	0.1884
363.9264	0.1799
364.1347	0.1804
364.343	0.1847
364.5513	0.2061
364.7595	0.1956
364.9678	0.1905
365.176	0.1932
365.3842	0.1823
365.5925	0.1938
365.8007	0.196
366.0089	0.1947
366.217	0.1878
366.4252	0.2201
366.6333	0.2109
366.8415	0.206
367.0496	0.1995
367.2577	0.2133
367.4658	0.2139
367.6739	0.2052
367.882	0.199
368.09	0.1983
368.2981	0.2061
368.5061	0.1971
368.7141	0.2207
368.9221	0.2067
369.1301	0.2013
369.3381	0.214
369.5461	0.2203
369.754	0.201
369.962	0.2034
370.1699	0.2018
370.3778	0.2114
370.5857	0.2098
370.7936	0.2077
371.0015	0.2213
371.2093	0.229
371.4172	0.2305
371.625	0.2014
371.8328	0.213
372.0406	0.2136
372.2484	0.2181
372.4562	0.2279
372.664	0.2064
372.8717	0.2221
373.0795	0.21
373.2872	0.2359
373.4949	0.2334
373.7026	0.2279
373.9103	0.2289
374.118	0.2233
374.3256	0.2169
374.5333	0.2164
374.7409	0.2309
374.9485	0.2432
375.1561	0.2324
375.3637	0.2357
375.5713	0.2354
375.7789	0.2223
375.9864	0.2286
376.194	0.2342
376.4015	0.2323
376.609	0.2421
376.8165	0.22
377.024	0.223
377.2315	0.2313
377.4389	0.252
377.6464	0.235
377.8538	0.2557
378.0612	0.2431
378.2686	0.2475
378.476	0.2634
378.6834	0.2429
378.8908	0.2332
379.0981	0.2375
379.3055	0.2447
379.5128	0.2256
379.7201	0.2561
379.9274	0.2328
380.1347	0.2548
380.342	0.2547
380.5492	0.2393
380.7565	0.2511
380.9637	0.2482
381.1709	0.2571
381.3781	0.2464
381.5853	0.2583
381.7925	0.2624
381.9997	0.2417
382.2068	0.2554
382.4139	0.2553
382.6211	0.2365
382.8282	0.2571
383.0353	0.2531
383.2424	0.2411
383.4494	0.2721
383.6565	0.25
383.8635	0.25
384.0706	0.2711
384.2776	0.2739
384.4846	0.2274
384.6916	0.2507
384.8986	0.252
385.1055	0.2499
385.3125	0.2597
385.5194	0.2451
385.7263	0.266
385.9333	0.2424
386.1402	0.253
386.347	0.2647
386.5539	0.2509
386.7608	0.2584
386.9676	0.2608
387.1744	0.2522
387.3813	0.2194
387.5881	0.2571
387.7948	0.2575
388.0016	0.2475
388.2084	0.2526
388.4151	0.2423
388.6219	0.2603
388.8286	0.2469
389.0353	0.2604
389.242	0.239
389.4487	0.2314
389.6553	0.2296
389.862	0.2243
390.0686	0.2249
390.2753	0.2359
390.4819	0.2452
390.6885	0.2484
390.8951	0.2448
391.1016	0.2328
391.3082	0.2439
391.5147	0.245
391.7213	0.2277
391.9278	0.2257
392.1343	0.2461
392.3408	0.2126
392.5473	0.2355
392.7537	0.2337
392.9602	0.2309
393.1666	0.2314
393.373	0.2208
393.5794	0.2298
393.7858	0.2202
393.9922	0.213
394.1986	0.2255
394.4049	0.2215
394.6113	0.209
394.8176	0.2185
395.0239	0.2178
395.2302	0.205
395.4365	0.2135
395.6428	0.2192
395.8491	0.214
396.0553	0.2151
396.2615	0.2102
396.4678	0.2093
396.674	0.2017
396.8802	0.2285
397.0863	0.2308
397.2925	0.1966
397.4987	0.2166
397.7048	0.2089
397.9109	0.2276
398.117	0.1928
398.3231	0.2015
398.5292	0.2306
398.7353	0.227
398.9413	0.2044
399.1474	0.2101
399.3534	0.2097
399.5594	0.1859
399.7654	0.2175
399.9714	0.2207
400.1774	0.2267
400.3833	0.1937
400.5893	0.2106
400.7952	0.2067
401.0011	0.2035
401.207	0.2241
401.4129	0.2086
401.6188	0.2144
401.8247	0.2101
402.0305	0.2124
402.2364	0.2068
402.4422	0.2192
402.648	0.2248
402.8538	0.2153
403.0596	0.2012
403.2654	0.2293
403.4711	0.2052
403.6768	0.2105
403.8826	0.216
404.0883	0.2209
404.294	0.1988
404.4997	0.2166
404.7054	0.2205
404.911	0.1995
405.1167	0.2158
405.3223	0.2244
405.5279	0.2172
405.7335	0.2081
405.9391	0.2048
406.1447	0.1918
406.3502	0.2175
406.5558	0.1923
406.7613	0.2121
406.9668	0.196
407.1724	0.1981
407.3778	0.2136
407.5833	0.2089
407.7888	0.2072
407.9942	0.214
408.1997	0.1997
408.4051	0.1984
408.6105	0.2205
408.8159	0.1978
409.0213	0.2129
409.2267	0.2212
409.432	0.2069
409.6374	0.2147
409.8427	0.2042
410.048	0.2054
410.2533	0.2027
410.4586	0.1975
410.6639	0.2089
410.8691	0.2133
411.0744	0.2176
411.2796	0.1928
411.4848	0.2018
411.69	0.2191
411.8952	0.2386
412.1004	0.2089
412.3056	0.2038
412.5107	0.2048
412.7158	0.2126
412.921	0.1996
413.1261	0.2039
413.3312	0.1864
413.5362	0.1951
413.7413	0.1947
413.9464	0.1909
414.1514	0.1999
414.3564	0.2005
414.5614	0.194
414.7664	0.2143
414.9714	0.2153
415.1764	0.2025
415.3813	0.2126
415.5863	0.1908
415.7912	0.2
415.9961	0.1977
416.201	0.2158
416.4059	0.2186
416.6108	0.1937
416.8156	0.2008
417.0205	0.1972
417.2253	0.1804
417.4301	0.2007
417.6349	0.2044
417.8397	0.1911
418.0445	0.1947
418.2492	0.1965
418.454	0.1953
418.6587	0.1949
418.8634	0.2017
419.0681	0.1905
419.2728	0.1887
419.4775	0.1955
419.6822	0.1869
419.8868	0.1689
420.0915	0.1851
420.2961	0.1907
420.5007	0.1712
420.7053	0.2005
420.9099	0.1855
421.1144	0.1948
421.319	0.1758
421.5235	0.1795
421.728	0.1816
421.9325	0.1936
422.137	0.1817
422.3415	0.1952
422.546	0.1787
422.7504	0.1878
422.9549	0.1871
423.1593	0.1814
423.3637	0.1896
423.5681	0.1763
423.7725	0.171
423.9769	0.1526
424.1812	0.1612
424.3856	0.1656
424.5899	0.1831
424.7942	0.1728
424.9985	0.1668
425.2028	0.1688
425.4071	0.1937
425.6113	0.1569
425.8156	0.192
426.0198	0.1616
426.224	0.1692
426.4282	0.1663
426.6324	0.1652
426.8366	0.1747
