Data from MonoPyChalIsomerACN10uM360nmA_Absorbance_13-57-26-604.txt Node
Date: Fri Jul 05 13:57:26 BST 2024
User: LASERRRRR
Spectrometer: FLMT03099
Trigger mode: 0
Integration Time (sec): 1.000000E-1
Scans to average: 1
Electric dark correction enabled: true
Nonlinearity correction enabled: false
Boxcar width: 0
XAxis mode: Wavelengths
Number of Pixels in Spectrum: 3648
>>>>>Begin Spectral Data<<<<<
179.3399	0.45
179.5586	0.45
179.7771	0.45
179.9957	1.4078
180.2143	-0
180.4329	-0.1994
180.6514	-0
180.8699	-0
181.0885	-0.1989
181.307	0.4544
181.5255	-0
181.744	-0
181.9625	-0.253
182.181	-0
182.3994	0.177
182.6179	-0
182.8363	-0.0852
183.0547	-0.3193
183.2732	-0.0587
183.4916	0.1735
183.71	-0.0179
183.9284	0.104
184.1467	-0.1561
184.3651	-0.0307
184.5835	-0.1532
184.8018	-0.0906
185.0201	-0.0313
185.2385	-0.1373
185.4568	0.1143
185.6751	0.145
185.8934	0.1947
186.1117	0.0088
186.3299	-0.0936
186.5482	-0.1018
186.7664	0.0416
186.9847	-0.0662
187.2029	0.1039
187.4211	0.0515
187.6393	0.1235
187.8575	0.0459
188.0757	0.2089
188.2939	0.1136
188.512	-0.0645
188.7302	-0.0153
188.9483	-0.115
189.1665	-0.0111
189.3846	-0.0207
189.6027	0.0116
189.8208	0.1975
190.0389	0.0808
190.257	-0.002
190.475	-0.0659
190.6931	0.4665
190.9111	0.4537
191.1292	0.0726
191.3472	0.2865
191.5652	0.2713
191.7832	0.1866
192.0012	0.2494
192.2192	0.1846
192.4371	0.4364
192.6551	0.1801
192.873	0.3808
193.091	0.4497
193.3089	0.5532
193.5268	0.3858
193.7447	0.4632
193.9626	0.4993
194.1805	0.6553
194.3984	1.1442
194.6162	0.6218
194.8341	0.4223
195.0519	0.6097
195.2697	0.6295
195.4875	0.6496
195.7054	0.4929
195.9231	0.5075
196.1409	0.5651
196.3587	0.4509
196.5765	0.5205
196.7942	0.5571
197.012	0.519
197.2297	0.5588
197.4474	0.5292
197.6651	0.4973
197.8828	0.5252
198.1005	0.5226
198.3182	0.511
198.5358	0.7141
198.7535	0.5533
198.9711	0.5153
199.1888	0.7329
199.4064	0.7481
199.624	0.4909
199.8416	0.4834
200.0592	0.5856
200.2767	0.6656
200.4943	0.6474
200.7119	0.6857
200.9294	0.5981
201.1469	0.6057
201.3645	0.539
201.582	0.513
201.7995	0.5413
202.017	0.5982
202.2344	0.4862
202.4519	0.6014
202.6694	0.6526
202.8868	0.5437
203.1042	0.5786
203.3217	0.6324
203.5391	0.5948
203.7565	0.5598
203.9739	0.5471
204.1913	0.5805
204.4086	0.6482
204.626	0.6435
204.8433	0.5826
205.0607	0.5395
205.278	0.5122
205.4953	0.5571
205.7126	0.6075
205.9299	0.5911
206.1472	0.6666
206.3644	0.5807
206.5817	0.5765
206.7989	0.7078
207.0162	0.6024
207.2334	0.6889
207.4506	0.6183
207.6678	0.5479
207.885	0.5928
208.1022	0.5286
208.3194	0.623
208.5365	0.5851
208.7537	0.5841
208.9708	0.5588
209.1879	0.6193
209.405	0.6477
209.6222	0.7265
209.8392	0.5442
210.0563	0.622
210.2734	0.6823
210.4905	0.5932
210.7075	0.5457
210.9245	0.5554
211.1416	0.7338
211.3586	0.5408
211.5756	0.6095
211.7926	0.6111
212.0096	0.5491
212.2265	0.5221
212.4435	0.5226
212.6604	0.5991
212.8774	0.5102
213.0943	0.5746
213.3112	0.534
213.5281	0.5506
213.745	0.4927
213.9619	0.4728
214.1788	0.4645
214.3956	0.4595
214.6125	0.4578
214.8293	0.4503
215.0461	0.4523
215.2629	0.4609
215.4798	0.4809
215.6965	0.4213
215.9133	0.4183
216.1301	0.4166
216.3469	0.414
216.5636	0.4225
216.7803	0.3853
216.9971	0.4164
217.2138	0.3847
217.4305	0.3497
217.6472	0.3192
217.8639	0.3589
218.0805	0.3117
218.2972	0.3231
218.5138	0.3094
218.7305	0.299
218.9471	0.3031
219.1637	0.306
219.3803	0.269
219.5969	0.2851
219.8135	0.2566
220.0301	0.2684
220.2466	0.2862
220.4632	0.2595
220.6797	0.2587
220.8962	0.2576
221.1127	0.2674
221.3292	0.2658
221.5457	0.2538
221.7622	0.2315
221.9787	0.2493
222.1951	0.2541
222.4116	0.2617
222.628	0.2479
222.8444	0.2663
223.0608	0.2579
223.2772	0.2673
223.4936	0.2516
223.71	0.2539
223.9264	0.2713
224.1427	0.2706
224.3591	0.2392
224.5754	0.2571
224.7917	0.2711
225.008	0.2703
225.2243	0.2656
225.4406	0.298
225.6569	0.2954
225.8732	0.2744
226.0894	0.2793
226.3057	0.2658
226.5219	0.2672
226.7381	0.2871
226.9543	0.2912
227.1705	0.3066
227.3867	0.2713
227.6029	0.306
227.8191	0.3024
228.0352	0.2986
228.2513	0.3249
228.4675	0.3457
228.6836	0.3034
228.8997	0.3082
229.1158	0.3162
229.3319	0.3281
229.548	0.3295
229.764	0.3285
229.9801	0.3198
230.1961	0.3367
230.4121	0.3234
230.6282	0.3286
230.8442	0.3361
231.0602	0.3659
231.2761	0.3495
231.4921	0.3413
231.7081	0.3543
231.924	0.363
232.14	0.3745
232.3559	0.3331
232.5718	0.3699
232.7877	0.3558
233.0036	0.3499
233.2195	0.3535
233.4353	0.3616
233.6512	0.3521
233.867	0.3538
234.0829	0.3691
234.2987	0.3709
234.5145	0.3735
234.7303	0.3675
234.9461	0.3982
235.1619	0.3765
235.3776	0.4061
235.5934	0.375
235.8091	0.3672
236.0249	0.3793
236.2406	0.3838
236.4563	0.3656
236.672	0.3958
236.8877	0.3923
237.1034	0.4009
237.319	0.4039
237.5347	0.4087
237.7503	0.4047
237.966	0.3999
238.1816	0.4077
238.3972	0.4035
238.6128	0.3993
238.8284	0.409
239.0439	0.4227
239.2595	0.4025
239.475	0.4136
239.6906	0.4059
239.9061	0.4018
240.1216	0.3973
240.3371	0.3949
240.5526	0.39
240.7681	0.4094
240.9836	0.3889
241.199	0.3965
241.4145	0.3588
241.6299	0.3972
241.8453	0.3825
242.0607	0.3884
242.2761	0.3562
242.4915	0.3605
242.7069	0.3667
242.9223	0.3585
243.1376	0.3401
243.353	0.3522
243.5683	0.3343
243.7836	0.328
243.9989	0.3379
244.2142	0.299
244.4295	0.3106
244.6448	0.3059
244.86	0.3125
245.0753	0.2929
245.2905	0.2848
245.5057	0.2821
245.721	0.2748
245.9362	0.2608
246.1514	0.2739
246.3665	0.2635
246.5817	0.2542
246.7969	0.2675
247.012	0.2499
247.2271	0.2348
247.4423	0.2447
247.6574	0.2466
247.8725	0.2375
248.0876	0.2208
248.3026	0.2303
248.5177	0.211
248.7328	0.2104
248.9478	0.1998
249.1628	0.205
249.3779	0.2106
249.5929	0.211
249.8079	0.2232
250.0228	0.187
250.2378	0.2068
250.4528	0.2168
250.6677	0.1813
250.8827	0.1926
251.0976	0.1893
251.3125	0.1822
251.5274	0.176
251.7423	0.1778
251.9572	0.1818
252.172	0.1782
252.3869	0.1735
252.6017	0.1768
252.8166	0.1614
253.0314	0.1585
253.2462	0.1662
253.461	0.18
253.6758	0.1636
253.8906	0.1778
254.1053	0.1562
254.3201	0.164
254.5348	0.169
254.7496	0.1796
254.9643	0.1742
255.179	0.1585
255.3937	0.1746
255.6083	0.1829
255.823	0.1689
256.0377	0.1595
256.2523	0.1671
256.467	0.1494
256.6816	0.1771
256.8962	0.1567
257.1108	0.1451
257.3254	0.1659
257.54	0.1643
257.7545	0.1653
257.9691	0.1639
258.1836	0.1517
258.3981	0.1723
258.6127	0.1738
258.8272	0.1658
259.0417	0.1666
259.2561	0.167
259.4706	0.1577
259.6851	0.1622
259.8995	0.1553
260.114	0.1598
260.3284	0.1661
260.5428	0.1644
260.7572	0.1774
260.9716	0.1706
261.186	0.1633
261.4003	0.1617
261.6147	0.1761
261.829	0.1645
262.0433	0.1591
262.2577	0.1652
262.472	0.1717
262.6863	0.158
262.9005	0.1679
263.1148	0.1758
263.3291	0.1403
263.5433	0.1695
263.7576	0.1596
263.9718	0.1502
264.186	0.154
264.4002	0.1594
264.6144	0.167
264.8286	0.1689
265.0427	0.159
265.2569	0.1581
265.471	0.1571
265.6851	0.1496
265.8993	0.1531
266.1134	0.1436
266.3275	0.1449
266.5415	0.1589
266.7556	0.1612
266.9697	0.1736
267.1837	0.1645
267.3978	0.1499
267.6118	0.1571
267.8258	0.1651
268.0398	0.1507
268.2538	0.1646
268.4677	0.1738
268.6817	0.1514
268.8957	0.1654
269.1096	0.154
269.3235	0.1536
269.5374	0.1522
269.7514	0.1531
269.9652	0.1504
270.1791	0.1498
270.393	0.1542
270.6068	0.1642
270.8207	0.1389
271.0345	0.1354
271.2483	0.1539
271.4622	0.1432
271.676	0.1596
271.8897	0.131
272.1035	0.1368
272.3173	0.14
272.531	0.1368
272.7448	0.142
272.9585	0.1378
273.1722	0.1455
273.3859	0.1492
273.5996	0.1347
273.8133	0.1459
274.0269	0.1348
274.2406	0.125
274.4542	0.144
274.6679	0.134
274.8815	0.1343
275.0951	0.1546
275.3087	0.1493
275.5223	0.1396
275.7358	0.1432
275.9494	0.149
276.1629	0.139
276.3765	0.1554
276.59	0.155
276.8035	0.1494
277.017	0.1418
277.2305	0.1362
277.444	0.1476
277.6574	0.1419
277.8709	0.1319
278.0843	0.1483
278.2978	0.1412
278.5112	0.1496
278.7246	0.1409
278.938	0.1498
279.1513	0.1475
279.3647	0.1638
279.5781	0.1392
279.7914	0.1441
280.0047	0.1466
280.2181	0.1547
280.4314	0.164
280.6447	0.1489
280.8579	0.1557
281.0712	0.1492
281.2845	0.1402
281.4977	0.1548
281.711	0.1381
281.9242	0.1545
282.1374	0.1478
282.3506	0.1491
282.5638	0.15
282.7769	0.1383
282.9901	0.154
283.2033	0.1608
283.4164	0.1581
283.6295	0.1564
283.8426	0.1472
284.0557	0.1449
284.2688	0.1634
284.4819	0.1557
284.695	0.1487
284.908	0.1582
285.1211	0.1465
285.3341	0.1573
285.5471	0.1573
285.7601	0.1521
285.9731	0.1557
286.1861	0.1621
286.3991	0.1653
286.612	0.1643
286.825	0.1583
287.0379	0.1706
287.2508	0.1541
287.4637	0.1635
287.6766	0.156
287.8895	0.165
288.1024	0.183
288.3152	0.1655
288.5281	0.1641
288.7409	0.1618
288.9538	0.16
289.1666	0.1579
289.3794	0.1592
289.5922	0.1589
289.8049	0.1636
290.0177	0.1615
290.2304	0.1615
290.4432	0.1742
290.6559	0.166
290.8686	0.1641
291.0813	0.1636
291.294	0.1693
291.5067	0.1728
291.7194	0.1668
291.932	0.174
292.1447	0.1647
292.3573	0.1677
292.5699	0.162
292.7825	0.172
292.9951	0.1597
293.2077	0.1699
293.4203	0.17
293.6328	0.163
293.8454	0.1753
294.0579	0.1605
294.2704	0.158
294.4829	0.1674
294.6954	0.1617
294.9079	0.1638
295.1204	0.1649
295.3328	0.1614
295.5453	0.1636
295.7577	0.1656
295.9701	0.1487
296.1825	0.1587
296.3949	0.1633
296.6073	0.1653
296.8197	0.1617
297.0321	0.1789
297.2444	0.1493
297.4567	0.1716
297.6691	0.1772
297.8814	0.1657
298.0937	0.1593
298.306	0.1759
298.5182	0.1688
298.7305	0.1705
298.9428	0.1566
299.155	0.1628
299.3672	0.1586
299.5794	0.1573
299.7916	0.1642
300.0038	0.1601
300.216	0.1663
300.4282	0.1763
300.6403	0.1553
300.8525	0.1625
301.0646	0.153
301.2767	0.1785
301.4888	0.1652
301.7009	0.1667
301.913	0.1666
302.125	0.1615
302.3371	0.16
302.5491	0.1641
302.7612	0.1706
302.9732	0.1681
303.1852	0.167
303.3972	0.1583
303.6092	0.1608
303.8211	0.1618
304.0331	0.1608
304.245	0.1581
304.457	0.1584
304.6689	0.1571
304.8808	0.1642
305.0927	0.1609
305.3046	0.1399
305.5164	0.1583
305.7283	0.1394
305.9401	0.1498
306.152	0.1418
306.3638	0.1448
306.5756	0.1464
306.7874	0.1485
306.9992	0.1545
307.2109	0.1349
307.4227	0.1274
307.6344	0.1305
307.8462	0.1337
308.0579	0.1276
308.2696	0.1231
308.4813	0.1313
308.693	0.1226
308.9046	0.1431
309.1163	0.1245
309.328	0.1246
309.5396	0.1256
309.7512	0.1309
309.9628	0.1138
310.1744	0.1286
310.386	0.116
310.5976	0.1178
310.8091	0.1191
311.0207	0.113
311.2322	0.1125
311.4437	0.106
311.6552	0.1064
311.8667	0.1113
312.0782	0.1068
312.2897	0.0978
312.5012	0.118
312.7126	0.103
312.924	0.1024
313.1355	0.1045
313.3469	0.1008
313.5583	0.1124
313.7696	0.1106
313.981	0.0965
314.1924	0.1067
314.4037	0.0956
314.6151	0.1176
314.8264	0.0954
315.0377	0.1023
315.249	0.1022
315.4603	0.1064
315.6716	0.0984
315.8828	0.0888
316.0941	0.0984
316.3053	0.0975
316.5165	0.0921
316.7277	0.0971
316.9389	0.1039
317.1501	0.0985
317.3613	0.1053
317.5724	0.0788
317.7836	0.1037
317.9947	0.0972
318.2058	0.0981
318.417	0.0916
318.6281	0.0871
318.8391	0.0892
319.0502	0.0926
319.2613	0.1039
319.4723	0.0943
319.6834	0.0984
319.8944	0.0924
320.1054	0.1053
320.3164	0.0971
320.5274	0.087
320.7383	0.0939
320.9493	0.0928
321.1602	0.1073
321.3712	0.0975
321.5821	0.1042
321.793	0.0941
322.0039	0.0978
322.2148	0.0899
322.4257	0.1059
322.6365	0.1006
322.8474	0.096
323.0582	0.0975
323.269	0.1027
323.4798	0.1044
323.6906	0.0982
323.9014	0.1003
324.1122	0.0941
324.3229	0.0974
324.5337	0.0996
324.7444	0.0817
324.9551	0.1046
325.1658	0.0956
325.3765	0.1071
325.5872	0.1041
325.7979	0.1008
326.0085	0.1083
326.2192	0.1109
326.4298	0.1084
326.6404	0.0979
326.851	0.1003
327.0616	0.0921
327.2722	0.0975
327.4828	0.1091
327.6933	0.0964
327.9039	0.0955
328.1144	0.1167
328.3249	0.1069
328.5354	0.0906
328.7459	0.1102
328.9564	0.1043
329.1669	0.0949
329.3773	0.1015
329.5878	0.0962
329.7982	0.1093
330.0086	0.1029
330.219	0.1058
330.4294	0.1046
330.6398	0.1079
330.8502	0.0928
331.0605	0.1112
331.2708	0.1026
331.4812	0.1041
331.6915	0.1037
331.9018	0.0981
332.1121	0.1094
332.3224	0.1021
332.5326	0.1108
332.7429	0.1031
332.9531	0.1187
333.1633	0.1032
333.3735	0.0949
333.5837	0.1019
333.7939	0.1076
334.0041	0.1105
334.2143	0.1117
334.4244	0.1067
334.6346	0.0866
334.8447	0.1216
335.0548	0.1098
335.2649	0.095
335.475	0.1058
335.685	0.1049
335.8951	0.1137
336.1051	0.1027
336.3152	0.1062
336.5252	0.1093
336.7352	0.1104
336.9452	0.1198
337.1552	0.1206
337.3652	0.1068
337.5751	0.1154
337.7851	0.1157
337.995	0.0959
338.2049	0.1123
338.4148	0.1215
338.6247	0.1104
338.8346	0.1193
339.0445	0.1014
339.2543	0.1077
339.4642	0.1067
339.674	0.0984
339.8838	0.1019
340.0936	0.1183
340.3034	0.1213
340.5132	0.1126
340.7229	0.1193
340.9327	0.1054
341.1424	0.113
341.3522	0.1267
341.5619	0.1083
341.7716	0.1136
341.9813	0.1128
342.1909	0.1046
342.4006	0.1238
342.6102	0.1234
342.8199	0.1214
343.0295	0.1169
343.2391	0.1104
343.4487	0.1266
343.6583	0.1153
343.8679	0.1121
344.0774	0.1276
344.287	0.1338
344.4965	0.1202
344.706	0.1298
344.9155	0.1274
345.125	0.1143
345.3345	0.1248
345.544	0.1179
345.7534	0.1086
345.9629	0.1269
346.1723	0.1361
346.3817	0.1238
346.5911	0.1283
346.8005	0.1327
347.0099	0.1325
347.2193	0.1346
347.4286	0.1274
347.638	0.1403
347.8473	0.1257
348.0566	0.141
348.2659	0.1361
348.4752	0.1339
348.6845	0.13
348.8937	0.134
349.103	0.1435
349.3122	0.1251
349.5214	0.1266
349.7306	0.1421
349.9398	0.1346
350.149	0.1395
350.3582	0.1303
350.5674	0.1503
350.7765	0.1357
350.9856	0.1307
351.1948	0.1384
351.4039	0.1296
351.613	0.1286
351.822	0.1327
352.0311	0.1409
352.2402	0.1444
352.4492	0.1554
352.6582	0.1444
352.8672	0.1358
353.0762	0.1508
353.2852	0.1539
353.4942	0.1401
353.7032	0.1496
353.9121	0.1399
354.1211	0.145
354.33	0.1622
354.5389	0.1548
354.7478	0.1581
354.9567	0.1539
355.1655	0.1449
355.3744	0.1466
355.5833	0.1643
355.7921	0.1684
356.0009	0.1625
356.2097	0.1626
356.4185	0.1613
356.6273	0.1594
356.8361	0.1538
357.0448	0.1554
357.2536	0.1481
357.4623	0.1492
357.671	0.1667
357.8797	0.1628
358.0884	0.1653
358.2971	0.1616
358.5057	0.1596
358.7144	0.1691
358.923	0.1701
359.1316	0.1583
359.3402	0.1614
359.5488	0.1659
359.7574	0.1479
359.966	0.1783
360.1746	0.1655
360.3831	0.171
360.5916	0.158
360.8002	0.1645
361.0087	0.1786
361.2172	0.1792
361.4256	0.1754
361.6341	0.1837
361.8426	0.1901
362.051	0.1688
362.2594	0.1723
362.4678	0.1828
362.6762	0.1996
362.8846	0.1852
363.093	0.1823
363.3014	0.173
363.5097	0.1834
363.718	0.1741
363.9264	0.1728
364.1347	0.168
364.343	0.1939
364.5513	0.1922
364.7595	0.2023
364.9678	0.1827
365.176	0.1868
365.3842	0.199
365.5925	0.1991
365.8007	0.2007
366.0089	0.1963
366.217	0.188
366.4252	0.2034
366.6333	0.2105
366.8415	0.2014
367.0496	0.1983
367.2577	0.2106
367.4658	0.2127
367.6739	0.2091
367.882	0.2113
368.09	0.199
368.2981	0.2013
368.5061	0.1981
368.7141	0.2134
368.9221	0.2039
369.1301	0.2068
369.3381	0.2122
369.5461	0.2063
369.754	0.2049
369.962	0.2241
370.1699	0.2174
370.3778	0.2234
370.5857	0.2112
370.7936	0.226
371.0015	0.2254
371.2093	0.2139
371.4172	0.2345
371.625	0.2091
371.8328	0.2038
372.0406	0.2216
372.2484	0.2159
372.4562	0.219
372.664	0.2131
372.8717	0.2281
373.0795	0.2055
373.2872	0.2205
373.4949	0.2356
373.7026	0.2258
373.9103	0.2267
374.118	0.2191
374.3256	0.2175
374.5333	0.2307
374.7409	0.2236
374.9485	0.2485
375.1561	0.2284
375.3637	0.2238
375.5713	0.231
375.7789	0.2336
375.9864	0.222
376.194	0.217
376.4015	0.233
376.609	0.24
376.8165	0.2311
377.024	0.2307
377.2315	0.234
377.4389	0.2262
377.6464	0.2421
377.8538	0.2576
378.0612	0.2426
378.2686	0.25
378.476	0.2489
378.6834	0.2466
378.8908	0.2379
379.0981	0.2519
379.3055	0.2378
379.5128	0.2361
379.7201	0.2453
379.9274	0.2367
380.1347	0.2468
380.342	0.2553
380.5492	0.2458
380.7565	0.2444
380.9637	0.257
381.1709	0.2528
381.3781	0.2617
381.5853	0.2595
381.7925	0.2598
381.9997	0.2419
382.2068	0.2578
382.4139	0.2577
382.6211	0.2313
382.8282	0.2718
383.0353	0.2394
383.2424	0.253
383.4494	0.2643
383.6565	0.2404
383.8635	0.2471
384.0706	0.271
384.2776	0.258
384.4846	0.2653
384.6916	0.2566
384.8986	0.2628
385.1055	0.2689
385.3125	0.241
385.5194	0.2381
385.7263	0.2603
385.9333	0.2615
386.1402	0.2509
386.347	0.2661
386.5539	0.252
386.7608	0.2681
386.9676	0.2267
387.1744	0.2547
387.3813	0.2466
387.5881	0.2594
387.7948	0.2576
388.0016	0.2392
388.2084	0.2495
388.4151	0.244
388.6219	0.2384
388.8286	0.231
389.0353	0.2738
389.242	0.2363
389.4487	0.2543
389.6553	0.2391
389.862	0.2375
390.0686	0.2388
390.2753	0.2564
390.4819	0.2498
390.6885	0.2336
390.8951	0.2343
391.1016	0.2284
391.3082	0.2387
391.5147	0.2468
391.7213	0.2424
391.9278	0.2131
392.1343	0.2552
392.3408	0.2417
392.5473	0.2516
392.7537	0.2277
392.9602	0.2308
393.1666	0.2245
393.373	0.2424
393.5794	0.2304
393.7858	0.2363
393.9922	0.2207
394.1986	0.2453
394.4049	0.2325
394.6113	0.2187
394.8176	0.2187
395.0239	0.215
395.2302	0.2021
395.4365	0.2195
395.6428	0.227
395.8491	0.2116
396.0553	0.2166
396.2615	0.2256
396.4678	0.2085
396.674	0.1922
396.8802	0.2146
397.0863	0.2336
397.2925	0.208
397.4987	0.1917
397.7048	0.2215
397.9109	0.2227
398.117	0.1997
398.3231	0.2096
398.5292	0.2137
398.7353	0.2263
398.9413	0.197
399.1474	0.2214
399.3534	0.1977
399.5594	0.2021
399.7654	0.2379
399.9714	0.208
400.1774	0.21
400.3833	0.2039
400.5893	0.2017
400.7952	0.2226
401.0011	0.1999
401.207	0.2153
401.4129	0.2296
401.6188	0.2113
401.8247	0.2002
402.0305	0.201
402.2364	0.198
402.4422	0.2253
402.648	0.223
402.8538	0.2161
403.0596	0.2084
403.2654	0.217
403.4711	0.2077
403.6768	0.2118
403.8826	0.2152
404.0883	0.2215
404.294	0.2338
404.4997	0.213
404.7054	0.2128
404.911	0.2096
405.1167	0.1952
405.3223	0.2167
405.5279	0.2184
405.7335	0.2078
405.9391	0.215
406.1447	0.2111
406.3502	0.2292
406.5558	0.2141
406.7613	0.2279
406.9668	0.2295
407.1724	0.1901
407.3778	0.211
407.5833	0.2027
407.7888	0.2131
407.9942	0.2297
408.1997	0.2079
408.4051	0.2198
408.6105	0.2232
408.8159	0.2097
409.0213	0.2041
409.2267	0.2068
409.432	0.1957
409.6374	0.2212
409.8427	0.1973
410.048	0.208
410.2533	0.2192
410.4586	0.2069
410.6639	0.1914
410.8691	0.193
411.0744	0.2112
411.2796	0.2052
411.4848	0.2104
411.69	0.2111
411.8952	0.2199
412.1004	0.1802
412.3056	0.2092
412.5107	0.2069
412.7158	0.2214
412.921	0.2106
413.1261	0.2024
413.3312	0.2044
413.5362	0.1993
413.7413	0.1908
413.9464	0.1992
414.1514	0.2158
414.3564	0.1965
414.5614	0.1872
414.7664	0.2093
414.9714	0.2201
415.1764	0.2192
415.3813	0.2312
415.5863	0.21
415.7912	0.1954
415.9961	0.1998
416.201	0.221
416.4059	0.2131
416.6108	0.2021
416.8156	0.2251
417.0205	0.1966
417.2253	0.1851
417.4301	0.2107
417.6349	0.1862
417.8397	0.1787
418.0445	0.2059
418.2492	0.1862
418.454	0.1986
418.6587	0.2052
418.8634	0.2013
419.0681	0.197
419.2728	0.2011
419.4775	0.1984
419.6822	0.1873
419.8868	0.1747
420.0915	0.1969
420.2961	0.1887
420.5007	0.1783
420.7053	0.1899
420.9099	0.1892
421.1144	0.2061
421.319	0.1845
421.5235	0.1973
421.728	0.1931
421.9325	0.1797
422.137	0.1967
422.3415	0.1815
422.546	0.1864
422.7504	0.1737
422.9549	0.2007
423.1593	0.1846
423.3637	0.1946
423.5681	0.1928
423.7725	0.1714
423.9769	0.1759
424.1812	0.172
424.3856	0.169
424.5899	0.1753
424.7942	0.1841
424.9985	0.1821
425.2028	0.1734
425.4071	0.2009
425.6113	0.1745
425.8156	0.1811
426.0198	0.1947
426.224	0.1438
426.4282	0.1719
426.6324	0.1674
