Data from MonoPyChalIsomerACN10uM360nmA_Absorbance_13-57-28-804.txt Node
Date: Fri Jul 05 13:57:28 BST 2024
User: LASERRRRR
Spectrometer: FLMT03099
Trigger mode: 0
Integration Time (sec): 1.000000E-1
Scans to average: 1
Electric dark correction enabled: true
Nonlinearity correction enabled: false
Boxcar width: 0
XAxis mode: Wavelengths
Number of Pixels in Spectrum: 3648
>>>>>Begin Spectral Data<<<<<
179.3399	0.4232
179.5586	0.4232
179.7771	0.4232
179.9957	-0
180.2143	1.2333
180.4329	-0.2146
180.6514	-0
180.8699	-0
181.0885	0.1372
181.307	-0.0713
181.5255	-0.7607
181.744	-0
181.9625	-0
182.181	-0.6303
182.3994	0.2404
182.6179	-0
182.8363	-0.2322
183.0547	-0.1711
183.2732	-0.1369
183.4916	0.1392
183.71	0.0449
183.9284	0.2996
184.1467	-0.1014
184.3651	-0.0456
184.5835	-0.0934
184.8018	0.2663
185.0201	0.1631
185.2385	-0.1976
185.4568	0.2145
185.6751	0.24
185.8934	0.1537
186.1117	0.0072
186.3299	-0.1286
186.5482	0.2004
186.7664	-0.1238
186.9847	-0.0049
187.2029	0.119
187.4211	0.0159
187.6393	0.1347
187.8575	-0.0508
188.0757	0.2459
188.2939	0.082
188.512	0.349
188.7302	-0.1265
188.9483	0.0465
189.1665	0.0727
189.3846	-0.2743
189.6027	0.0871
189.8208	0.1576
190.0389	0.0656
190.257	0.0706
190.475	-0.0035
190.6931	1.2673
190.9111	0.5406
191.1292	0.04
191.3472	0.3247
191.5652	0.1738
191.7832	0.0906
192.0012	0.4067
192.2192	0.4094
192.4371	0.6024
192.6551	0.1757
192.873	0.4867
193.091	0.4103
193.3089	0.3875
193.5268	0.2939
193.7447	0.5863
193.9626	0.4582
194.1805	0.5651
194.3984	1.0552
194.6162	0.5143
194.8341	0.7407
195.0519	0.4321
195.2697	0.7171
195.4875	0.5444
195.7054	0.5706
195.9231	0.5263
196.1409	0.7156
196.3587	0.6342
196.5765	0.616
196.7942	0.5414
197.012	0.4693
197.2297	0.5468
197.4474	0.721
197.6651	0.6022
197.8828	0.4875
198.1005	0.5657
198.3182	0.584
198.5358	0.7164
198.7535	0.7238
198.9711	0.5688
199.1888	0.5865
199.4064	0.6117
199.624	0.5634
199.8416	0.676
200.0592	0.6015
200.2767	0.5894
200.4943	0.7107
200.7119	0.7301
200.9294	0.5698
201.1469	0.5924
201.3645	0.5758
201.582	0.5225
201.7995	0.6371
202.017	0.543
202.2344	0.63
202.4519	0.6989
202.6694	0.6333
202.8868	0.6345
203.1042	0.5884
203.3217	0.6855
203.5391	0.5606
203.7565	0.572
203.9739	0.6056
204.1913	0.6237
204.4086	0.6407
204.626	0.6406
204.8433	0.712
205.0607	0.6763
205.278	0.6406
205.4953	0.6293
205.7126	0.6451
205.9299	0.6258
206.1472	0.7307
206.3644	0.6021
206.5817	0.623
206.7989	0.6682
207.0162	0.6442
207.2334	0.7342
207.4506	0.6192
207.6678	0.6577
207.885	0.6585
208.1022	0.6198
208.3194	0.7199
208.5365	0.7088
208.7537	0.626
208.9708	0.6056
209.1879	0.6744
209.405	0.6856
209.6222	0.66
209.8392	0.6705
210.0563	0.5763
210.2734	0.6263
210.4905	0.6124
210.7075	0.6049
210.9245	0.5783
211.1416	0.6228
211.3586	0.5967
211.5756	0.6242
211.7926	0.5599
212.0096	0.5805
212.2265	0.5378
212.4435	0.559
212.6604	0.5691
212.8774	0.5838
213.0943	0.6373
213.3112	0.5576
213.5281	0.4862
213.745	0.46
213.9619	0.5121
214.1788	0.5133
214.3956	0.5026
214.6125	0.4661
214.8293	0.4236
215.0461	0.4498
215.2629	0.3986
215.4798	0.4556
215.6965	0.4262
215.9133	0.4434
216.1301	0.4095
216.3469	0.4313
216.5636	0.4522
216.7803	0.4183
216.9971	0.3893
217.2138	0.3862
217.4305	0.3739
217.6472	0.3321
217.8639	0.396
218.0805	0.3389
218.2972	0.3275
218.5138	0.3373
218.7305	0.3366
218.9471	0.2868
219.1637	0.2953
219.3803	0.2705
219.5969	0.2948
219.8135	0.245
220.0301	0.2774
220.2466	0.2826
220.4632	0.2535
220.6797	0.2496
220.8962	0.2467
221.1127	0.2523
221.3292	0.2585
221.5457	0.2231
221.7622	0.234
221.9787	0.2855
222.1951	0.2517
222.4116	0.259
222.628	0.2508
222.8444	0.2743
223.0608	0.2701
223.2772	0.2681
223.4936	0.2576
223.71	0.2462
223.9264	0.2715
224.1427	0.246
224.3591	0.2597
224.5754	0.269
224.7917	0.2863
225.008	0.2747
225.2243	0.2609
225.4406	0.2891
225.6569	0.284
225.8732	0.2652
226.0894	0.2709
226.3057	0.2668
226.5219	0.295
226.7381	0.2748
226.9543	0.282
227.1705	0.3074
227.3867	0.269
227.6029	0.2947
227.8191	0.3062
228.0352	0.2912
228.2513	0.3119
228.4675	0.3246
228.6836	0.2922
228.8997	0.3027
229.1158	0.3092
229.3319	0.3286
229.548	0.3263
229.764	0.3382
229.9801	0.333
230.1961	0.3152
230.4121	0.3346
230.6282	0.3287
230.8442	0.3232
231.0602	0.3373
231.2761	0.3536
231.4921	0.3331
231.7081	0.3434
231.924	0.3629
232.14	0.373
232.3559	0.3502
232.5718	0.3624
232.7877	0.3608
233.0036	0.3552
233.2195	0.3523
233.4353	0.3517
233.6512	0.3645
233.867	0.3661
234.0829	0.3548
234.2987	0.37
234.5145	0.3905
234.7303	0.3788
234.9461	0.3997
235.1619	0.3657
235.3776	0.3801
235.5934	0.3813
235.8091	0.3676
236.0249	0.3854
236.2406	0.3847
236.4563	0.3886
236.672	0.3968
236.8877	0.4033
237.1034	0.4025
237.319	0.3912
237.5347	0.411
237.7503	0.3876
237.966	0.4122
238.1816	0.3996
238.3972	0.4006
238.6128	0.4031
238.8284	0.4118
239.0439	0.4215
239.2595	0.4004
239.475	0.4084
239.6906	0.4201
239.9061	0.3863
240.1216	0.4028
240.3371	0.4113
240.5526	0.3886
240.7681	0.4147
240.9836	0.3913
241.199	0.3837
241.4145	0.3987
241.6299	0.386
241.8453	0.3869
242.0607	0.3725
242.2761	0.3466
242.4915	0.3819
242.7069	0.362
242.9223	0.3516
243.1376	0.3507
243.353	0.3462
243.5683	0.3329
243.7836	0.3159
243.9989	0.3417
244.2142	0.3109
244.4295	0.3181
244.6448	0.327
244.86	0.2941
245.0753	0.2857
245.2905	0.2862
245.5057	0.2673
245.721	0.2864
245.9362	0.2542
246.1514	0.2724
246.3665	0.271
246.5817	0.2512
246.7969	0.244
247.012	0.2547
247.2271	0.2298
247.4423	0.2424
247.6574	0.2462
247.8725	0.242
248.0876	0.2319
248.3026	0.2313
248.5177	0.2196
248.7328	0.2257
248.9478	0.2094
249.1628	0.2136
249.3779	0.2185
249.5929	0.2038
249.8079	0.2209
250.0228	0.2002
250.2378	0.2074
250.4528	0.2096
250.6677	0.1889
250.8827	0.2064
251.0976	0.1987
251.3125	0.194
251.5274	0.1918
251.7423	0.1746
251.9572	0.1877
252.172	0.1856
252.3869	0.1716
252.6017	0.1732
252.8166	0.1682
253.0314	0.1664
253.2462	0.1581
253.461	0.1724
253.6758	0.1614
253.8906	0.1808
254.1053	0.1621
254.3201	0.1641
254.5348	0.1752
254.7496	0.169
254.9643	0.1631
255.179	0.162
255.3937	0.1538
255.6083	0.1582
255.823	0.1701
256.0377	0.1702
256.2523	0.1724
256.467	0.1448
256.6816	0.1818
256.8962	0.1638
257.1108	0.1583
257.3254	0.1772
257.54	0.1638
257.7545	0.1717
257.9691	0.167
258.1836	0.1692
258.3981	0.1718
258.6127	0.1709
258.8272	0.1823
259.0417	0.1597
259.2561	0.1624
259.4706	0.1614
259.6851	0.1672
259.8995	0.1767
260.114	0.1559
260.3284	0.1682
260.5428	0.1491
260.7572	0.1658
260.9716	0.1711
261.186	0.1733
261.4003	0.1697
261.6147	0.1758
261.829	0.1718
262.0433	0.1589
262.2577	0.1599
262.472	0.1694
262.6863	0.1638
262.9005	0.1639
263.1148	0.1593
263.3291	0.1506
263.5433	0.163
263.7576	0.1841
263.9718	0.1627
264.186	0.1668
264.4002	0.1657
264.6144	0.1562
264.8286	0.1682
265.0427	0.1653
265.2569	0.1618
265.471	0.168
265.6851	0.1598
265.8993	0.1505
266.1134	0.1529
266.3275	0.1564
266.5415	0.1454
266.7556	0.1778
266.9697	0.1573
267.1837	0.1558
267.3978	0.1734
267.6118	0.1647
267.8258	0.1669
268.0398	0.1551
268.2538	0.1664
268.4677	0.1687
268.6817	0.1632
268.8957	0.1631
269.1096	0.1738
269.3235	0.1543
269.5374	0.1572
269.7514	0.1601
269.9652	0.1532
270.1791	0.1551
270.393	0.1498
270.6068	0.1698
270.8207	0.1478
271.0345	0.1439
271.2483	0.1619
271.4622	0.1397
271.676	0.1474
271.8897	0.1461
272.1035	0.1541
272.3173	0.1451
272.531	0.1481
272.7448	0.1438
272.9585	0.1403
273.1722	0.1486
273.3859	0.1496
273.5996	0.1384
273.8133	0.1451
274.0269	0.1495
274.2406	0.1373
274.4542	0.1432
274.6679	0.1336
274.8815	0.1406
275.0951	0.1585
275.3087	0.1599
275.5223	0.1523
275.7358	0.1423
275.9494	0.1531
276.1629	0.1397
276.3765	0.14
276.59	0.1467
276.8035	0.1545
277.017	0.1389
277.2305	0.1538
277.444	0.1512
277.6574	0.1445
277.8709	0.1506
278.0843	0.1464
278.2978	0.1471
278.5112	0.1424
278.7246	0.1495
278.938	0.1521
279.1513	0.1503
279.3647	0.1634
279.5781	0.1418
279.7914	0.1579
280.0047	0.1573
280.2181	0.148
280.4314	0.1618
280.6447	0.1629
280.8579	0.1482
281.0712	0.1625
281.2845	0.165
281.4977	0.1571
281.711	0.1474
281.9242	0.1615
282.1374	0.1604
282.3506	0.1467
282.5638	0.1554
282.7769	0.1527
282.9901	0.1477
283.2033	0.164
283.4164	0.1713
283.6295	0.143
283.8426	0.156
284.0557	0.165
284.2688	0.1633
284.4819	0.1526
284.695	0.158
284.908	0.172
285.1211	0.1543
285.3341	0.1578
285.5471	0.1682
285.7601	0.1556
285.9731	0.1574
286.1861	0.1525
286.3991	0.1596
286.612	0.1715
286.825	0.1458
287.0379	0.1666
287.2508	0.1577
287.4637	0.1641
287.6766	0.1584
287.8895	0.1625
288.1024	0.1651
288.3152	0.1681
288.5281	0.1466
288.7409	0.1638
288.9538	0.168
289.1666	0.1616
289.3794	0.158
289.5922	0.1603
289.8049	0.1664
290.0177	0.1681
290.2304	0.167
290.4432	0.1607
290.6559	0.1603
290.8686	0.1754
291.0813	0.1657
291.294	0.1637
291.5067	0.1767
291.7194	0.166
291.932	0.1785
292.1447	0.1661
292.3573	0.1518
292.5699	0.1679
292.7825	0.1625
292.9951	0.1653
293.2077	0.1658
293.4203	0.1577
293.6328	0.1581
293.8454	0.1771
294.0579	0.1733
294.2704	0.167
294.4829	0.1646
294.6954	0.1684
294.9079	0.1639
295.1204	0.1683
295.3328	0.1607
295.5453	0.1624
295.7577	0.1605
295.9701	0.16
296.1825	0.1674
296.3949	0.164
296.6073	0.1571
296.8197	0.1599
297.0321	0.1876
297.2444	0.1536
297.4567	0.1683
297.6691	0.1659
297.8814	0.1463
298.0937	0.1628
298.306	0.1666
298.5182	0.1534
298.7305	0.1726
298.9428	0.1538
299.155	0.1622
299.3672	0.1577
299.5794	0.1706
299.7916	0.1501
300.0038	0.1735
300.216	0.1608
300.4282	0.1627
300.6403	0.1585
300.8525	0.1615
301.0646	0.1446
301.2767	0.169
301.4888	0.162
301.7009	0.1626
301.913	0.1578
302.125	0.1673
302.3371	0.1476
302.5491	0.1553
302.7612	0.1754
302.9732	0.1622
303.1852	0.1607
303.3972	0.163
303.6092	0.1635
303.8211	0.1538
304.0331	0.1598
304.245	0.1489
304.457	0.1523
304.6689	0.1558
304.8808	0.1679
305.0927	0.1574
305.3046	0.1468
305.5164	0.1526
305.7283	0.1482
305.9401	0.144
306.152	0.1471
306.3638	0.1551
306.5756	0.1475
306.7874	0.147
306.9992	0.1493
307.2109	0.1512
307.4227	0.1304
307.6344	0.1417
307.8462	0.1381
308.0579	0.1394
308.2696	0.1314
308.4813	0.134
308.693	0.1409
308.9046	0.1259
309.1163	0.1217
309.328	0.1263
309.5396	0.1211
309.7512	0.1245
309.9628	0.1157
310.1744	0.1164
310.386	0.1128
310.5976	0.1244
310.8091	0.1217
311.0207	0.1202
311.2322	0.1174
311.4437	0.1058
311.6552	0.1105
311.8667	0.1167
312.0782	0.1039
312.2897	0.0983
312.5012	0.114
312.7126	0.1062
312.924	0.0994
313.1355	0.116
313.3469	0.11
313.5583	0.1116
313.7696	0.1054
313.981	0.1072
314.1924	0.1007
314.4037	0.1035
314.6151	0.1077
314.8264	0.0919
315.0377	0.101
315.249	0.1083
315.4603	0.1105
315.6716	0.099
315.8828	0.0996
316.0941	0.1023
316.3053	0.1003
316.5165	0.0915
316.7277	0.0838
316.9389	0.1031
317.1501	0.0902
317.3613	0.1011
317.5724	0.0925
317.7836	0.1051
317.9947	0.1013
318.2058	0.0906
318.417	0.0949
318.6281	0.0919
318.8391	0.1022
319.0502	0.0971
319.2613	0.1022
319.4723	0.112
319.6834	0.1057
319.8944	0.0926
320.1054	0.1055
320.3164	0.1001
320.5274	0.0918
320.7383	0.0878
320.9493	0.0929
321.1602	0.1059
321.3712	0.0823
321.5821	0.1012
321.793	0.0968
322.0039	0.1005
322.2148	0.1036
322.4257	0.0926
322.6365	0.1058
322.8474	0.1043
323.0582	0.0973
323.269	0.1064
323.4798	0.1134
323.6906	0.1018
323.9014	0.0991
324.1122	0.1028
324.3229	0.0958
324.5337	0.0944
324.7444	0.1017
324.9551	0.1153
325.1658	0.1078
325.3765	0.1103
325.5872	0.1009
325.7979	0.0976
326.0085	0.0999
326.2192	0.1092
326.4298	0.106
326.6404	0.0948
326.851	0.1039
327.0616	0.1012
327.2722	0.1083
327.4828	0.1194
327.6933	0.1015
327.9039	0.1149
328.1144	0.1068
328.3249	0.107
328.5354	0.0954
328.7459	0.0974
328.9564	0.1042
329.1669	0.1125
329.3773	0.1014
329.5878	0.1076
329.7982	0.1052
330.0086	0.1008
330.219	0.1054
330.4294	0.0996
330.6398	0.1069
330.8502	0.1001
331.0605	0.1088
331.2708	0.1005
331.4812	0.1054
331.6915	0.1107
331.9018	0.1057
332.1121	0.1099
332.3224	0.1157
332.5326	0.1109
332.7429	0.1093
332.9531	0.1196
333.1633	0.1102
333.3735	0.102
333.5837	0.1033
333.7939	0.1117
334.0041	0.1188
334.2143	0.1133
334.4244	0.1175
334.6346	0.0817
334.8447	0.1102
335.0548	0.105
335.2649	0.1027
335.475	0.116
335.685	0.0989
335.8951	0.1139
336.1051	0.1096
336.3152	0.1114
336.5252	0.097
336.7352	0.1144
336.9452	0.1169
337.1552	0.1166
337.3652	0.1065
337.5751	0.1118
337.7851	0.1206
337.995	0.0909
338.2049	0.1189
338.4148	0.1102
338.6247	0.11
338.8346	0.1085
339.0445	0.1127
339.2543	0.0986
339.4642	0.11
339.674	0.1059
339.8838	0.1177
340.0936	0.1209
340.3034	0.1361
340.5132	0.113
340.7229	0.1066
340.9327	0.1204
341.1424	0.109
341.3522	0.1317
341.5619	0.118
341.7716	0.1171
341.9813	0.1182
342.1909	0.1022
342.4006	0.1296
342.6102	0.1311
342.8199	0.1283
343.0295	0.1246
343.2391	0.1303
343.4487	0.1338
343.6583	0.1116
343.8679	0.1218
344.0774	0.1148
344.287	0.1245
344.4965	0.1227
344.706	0.1279
344.9155	0.1154
345.125	0.1121
345.3345	0.1356
345.544	0.12
345.7534	0.1327
345.9629	0.1222
346.1723	0.129
346.3817	0.1217
346.5911	0.1232
346.8005	0.1393
347.0099	0.1291
347.2193	0.1275
347.4286	0.1387
347.638	0.1252
347.8473	0.1331
348.0566	0.1438
348.2659	0.1326
348.4752	0.1423
348.6845	0.1434
348.8937	0.1393
349.103	0.1518
349.3122	0.1303
349.5214	0.1393
349.7306	0.1304
349.9398	0.1402
350.149	0.1334
350.3582	0.1298
350.5674	0.1519
350.7765	0.1432
350.9856	0.1471
351.1948	0.1513
351.4039	0.1282
351.613	0.133
351.822	0.1427
352.0311	0.1533
352.2402	0.1413
352.4492	0.1453
352.6582	0.1456
352.8672	0.1287
353.0762	0.1545
353.2852	0.1451
353.4942	0.134
353.7032	0.1477
353.9121	0.1409
354.1211	0.1512
354.33	0.136
354.5389	0.1502
354.7478	0.1449
354.9567	0.1433
355.1655	0.1549
355.3744	0.1516
355.5833	0.1501
355.7921	0.1753
356.0009	0.16
356.2097	0.1621
356.4185	0.1686
356.6273	0.1745
356.8361	0.1582
357.0448	0.1584
357.2536	0.1485
357.4623	0.1507
357.671	0.1599
357.8797	0.1623
358.0884	0.1626
358.2971	0.1559
358.5057	0.1662
358.7144	0.1685
358.923	0.1624
359.1316	0.1671
359.3402	0.1689
359.5488	0.1615
359.7574	0.1746
359.966	0.1638
360.1746	0.16
360.3831	0.173
360.5916	0.1751
360.8002	0.1679
361.0087	0.1795
361.2172	0.1742
361.4256	0.1675
361.6341	0.181
361.8426	0.1835
362.051	0.1809
362.2594	0.174
362.4678	0.1707
362.6762	0.1929
362.8846	0.1899
363.093	0.1866
363.3014	0.1754
363.5097	0.1617
363.718	0.1827
363.9264	0.1854
364.1347	0.1691
364.343	0.1893
364.5513	0.1946
364.7595	0.1853
364.9678	0.2048
365.176	0.2014
365.3842	0.1913
365.5925	0.1892
365.8007	0.202
366.0089	0.1953
366.217	0.1726
366.4252	0.2001
366.6333	0.2051
366.8415	0.1925
367.0496	0.2016
367.2577	0.2025
367.4658	0.1958
367.6739	0.2041
367.882	0.2042
368.09	0.1943
368.2981	0.1962
368.5061	0.1986
368.7141	0.207
368.9221	0.2252
369.1301	0.2073
369.3381	0.2151
369.5461	0.2157
369.754	0.2147
369.962	0.2187
370.1699	0.2032
370.3778	0.2188
370.5857	0.2074
370.7936	0.2129
371.0015	0.2092
371.2093	0.2086
371.4172	0.2132
371.625	0.2127
371.8328	0.2037
372.0406	0.2138
372.2484	0.212
372.4562	0.2165
372.664	0.2009
372.8717	0.231
373.0795	0.2011
373.2872	0.2223
373.4949	0.2192
373.7026	0.2267
373.9103	0.2325
374.118	0.21
374.3256	0.2362
374.5333	0.2077
374.7409	0.2205
374.9485	0.2432
375.1561	0.2315
375.3637	0.2231
375.5713	0.2326
375.7789	0.2166
375.9864	0.2293
376.194	0.222
376.4015	0.2268
376.609	0.2297
376.8165	0.2273
377.024	0.2317
377.2315	0.2216
377.4389	0.2368
377.6464	0.228
377.8538	0.2246
378.0612	0.2266
378.2686	0.2345
378.476	0.2578
378.6834	0.2465
378.8908	0.2381
379.0981	0.2328
379.3055	0.2404
379.5128	0.2427
379.7201	0.2552
379.9274	0.247
380.1347	0.2392
380.342	0.2663
380.5492	0.2378
380.7565	0.2355
380.9637	0.2498
381.1709	0.2459
381.3781	0.2417
381.5853	0.2592
381.7925	0.2476
381.9997	0.2564
382.2068	0.261
382.4139	0.2592
382.6211	0.2237
382.8282	0.2373
383.0353	0.242
383.2424	0.2472
383.4494	0.2749
383.6565	0.2564
383.8635	0.2319
384.0706	0.2526
384.2776	0.2515
384.4846	0.2441
384.6916	0.2702
384.8986	0.2342
385.1055	0.2616
385.3125	0.2453
385.5194	0.2517
385.7263	0.2682
385.9333	0.2518
386.1402	0.2419
386.347	0.2339
386.5539	0.2401
386.7608	0.2604
386.9676	0.2361
387.1744	0.2503
387.3813	0.2297
387.5881	0.2422
387.7948	0.2413
388.0016	0.2389
388.2084	0.2354
388.4151	0.2235
388.6219	0.2543
388.8286	0.2411
389.0353	0.2588
389.242	0.2512
389.4487	0.2583
389.6553	0.2347
389.862	0.2276
390.0686	0.2272
390.2753	0.2459
390.4819	0.2572
390.6885	0.2249
390.8951	0.2333
391.1016	0.2372
391.3082	0.2241
391.5147	0.2215
391.7213	0.2215
391.9278	0.2101
392.1343	0.2264
392.3408	0.2318
392.5473	0.2372
392.7537	0.2281
392.9602	0.2293
393.1666	0.2173
393.373	0.2204
393.5794	0.2243
393.7858	0.2232
393.9922	0.2167
394.1986	0.2324
394.4049	0.2152
394.6113	0.2173
394.8176	0.2049
395.0239	0.2149
395.2302	0.2183
395.4365	0.1995
395.6428	0.208
395.8491	0.2054
396.0553	0.214
396.2615	0.2162
396.4678	0.2147
396.674	0.1937
396.8802	0.2003
397.0863	0.2298
397.2925	0.2108
397.4987	0.2047
397.7048	0.2132
397.9109	0.1976
398.117	0.2044
398.3231	0.2058
398.5292	0.2115
398.7353	0.2077
398.9413	0.2042
399.1474	0.2015
399.3534	0.1999
399.5594	0.1905
399.7654	0.2235
399.9714	0.2119
400.1774	0.192
400.3833	0.192
400.5893	0.2031
400.7952	0.1986
401.0011	0.2086
401.207	0.2103
401.4129	0.2025
401.6188	0.2131
401.8247	0.2071
402.0305	0.1992
402.2364	0.1957
402.4422	0.2178
402.648	0.2091
402.8538	0.2258
403.0596	0.1993
403.2654	0.1959
403.4711	0.2038
403.6768	0.2121
403.8826	0.2031
404.0883	0.2085
404.294	0.2088
404.4997	0.1951
404.7054	0.2078
404.911	0.188
405.1167	0.209
405.3223	0.2177
405.5279	0.2105
405.7335	0.2097
405.9391	0.204
406.1447	0.1984
406.3502	0.2392
406.5558	0.2133
406.7613	0.2143
406.9668	0.2263
407.1724	0.1946
407.3778	0.2017
407.5833	0.2
407.7888	0.2033
407.9942	0.215
408.1997	0.1871
408.4051	0.1996
408.6105	0.1961
408.8159	0.2056
409.0213	0.1808
409.2267	0.2097
409.432	0.2035
409.6374	0.2059
409.8427	0.1903
410.048	0.2138
410.2533	0.204
410.4586	0.1987
410.6639	0.1861
410.8691	0.2057
411.0744	0.1911
411.2796	0.1938
411.4848	0.2004
411.69	0.1961
411.8952	0.2146
412.1004	0.1993
412.3056	0.196
412.5107	0.208
412.7158	0.1985
412.921	0.1987
413.1261	0.2135
413.3312	0.1816
413.5362	0.1895
413.7413	0.2054
413.9464	0.196
414.1514	0.1891
414.3564	0.2022
414.5614	0.1732
414.7664	0.1793
414.9714	0.2006
415.1764	0.2095
415.3813	0.2207
415.5863	0.1906
415.7912	0.1985
415.9961	0.2021
416.201	0.1931
416.4059	0.2071
416.6108	0.1779
416.8156	0.1972
417.0205	0.1732
417.2253	0.1775
417.4301	0.1894
417.6349	0.1897
417.8397	0.1891
418.0445	0.1954
418.2492	0.1858
418.454	0.1946
418.6587	0.1881
418.8634	0.1938
419.0681	0.1959
419.2728	0.1679
419.4775	0.195
419.6822	0.1727
419.8868	0.1711
420.0915	0.1949
420.2961	0.177
420.5007	0.1985
420.7053	0.1858
420.9099	0.1902
421.1144	0.192
421.319	0.171
421.5235	0.2012
421.728	0.1818
421.9325	0.1838
422.137	0.1925
422.3415	0.1953
422.546	0.1863
422.7504	0.1713
422.9549	0.1801
423.1593	0.1781
423.3637	0.1905
423.5681	0.1733
423.7725	0.1626
423.9769	0.164
424.1812	0.1621
424.3856	0.1711
424.5899	0.1778
424.7942	0.168
424.9985	0.1855
425.2028	0.1853
425.4071	0.1873
425.6113	0.1518
425.8156	0.1687
426.0198	0.1712
426.224	0.1475
426.4282	0.1746
426.6324	0.1562
