Data from MonoPyChalIsomerACN10uM360nmA_Absorbance_13-57-26-304.txt Node
Date: Fri Jul 05 13:57:26 BST 2024
User: LASERRRRR
Spectrometer: FLMT03099
Trigger mode: 0
Integration Time (sec): 1.000000E-1
Scans to average: 1
Electric dark correction enabled: true
Nonlinearity correction enabled: false
Boxcar width: 0
XAxis mode: Wavelengths
Number of Pixels in Spectrum: 3648
>>>>>Begin Spectral Data<<<<<
179.3399	-0.2119
179.5586	-0.2119
179.7771	-0.2119
179.9957	-0.332
180.2143	-0
180.4329	-0.0751
180.6514	0.9122
180.8699	-0
181.0885	0.0263
181.307	0.0867
181.5255	-0.6105
181.744	-0.5287
181.9625	-0
182.181	-1.0244
182.3994	0.1615
182.6179	-0
182.8363	-0.2841
183.0547	-0.0525
183.2732	0.001
183.4916	-0.0569
183.71	0.2077
183.9284	0.2089
184.1467	0.1488
184.3651	0.1823
184.5835	-0.0774
184.8018	0.3643
185.0201	0.0934
185.2385	0.2589
185.4568	0.1326
185.6751	-0.0778
185.8934	0.7483
186.1117	0.1905
186.3299	0.2843
186.5482	0.24
186.7664	0.0465
186.9847	-0.0819
187.2029	0.0383
187.4211	0.0731
187.6393	0.13
187.8575	0.2855
188.0757	0.371
188.2939	0.2861
188.512	0.5054
188.7302	0.115
188.9483	-0.1005
189.1665	0.3082
189.3846	-0.0452
189.6027	0.0639
189.8208	0.3625
190.0389	0.1697
190.257	0.3459
190.475	0.0761
190.6931	0.3021
190.9111	0.4138
191.1292	0.1464
191.3472	0.4982
191.5652	0.4236
191.7832	0.2614
192.0012	0.4311
192.2192	0.662
192.4371	0.8849
192.6551	0.3362
192.873	0.6713
193.091	0.4074
193.3089	1.106
193.5268	0.5052
193.7447	0.6231
193.9626	0.5626
194.1805	0.8791
194.3984	-0
194.6162	0.4379
194.8341	0.7107
195.0519	0.6374
195.2697	0.6027
195.4875	0.6879
195.7054	0.6005
195.9231	0.5379
196.1409	0.6538
196.3587	0.5586
196.5765	0.5813
196.7942	0.6538
197.012	0.5768
197.2297	0.7005
197.4474	0.7283
197.6651	0.6747
197.8828	0.7222
198.1005	0.6638
198.3182	0.687
198.5358	1.019
198.7535	0.6494
198.9711	0.6379
199.1888	0.6386
199.4064	0.6872
199.624	0.592
199.8416	0.6805
200.0592	0.7964
200.2767	0.7408
200.4943	0.7287
200.7119	0.7013
200.9294	0.5878
201.1469	0.6671
201.3645	0.6713
201.582	0.6778
201.7995	0.638
202.017	0.693
202.2344	0.7518
202.4519	0.639
202.6694	0.6882
202.8868	0.6284
203.1042	0.7968
203.3217	0.8024
203.5391	0.6916
203.7565	0.681
203.9739	0.6224
204.1913	0.6513
204.4086	0.6973
204.626	0.6864
204.8433	0.6874
205.0607	0.5788
205.278	0.7372
205.4953	0.6751
205.7126	0.6319
205.9299	0.7817
206.1472	0.6803
206.3644	0.6685
206.5817	0.6887
206.7989	0.7158
207.0162	0.6296
207.2334	0.6988
207.4506	0.6476
207.6678	0.5926
207.885	0.6393
208.1022	0.6757
208.3194	0.6901
208.5365	0.637
208.7537	0.6992
208.9708	0.5727
209.1879	0.6102
209.405	0.6735
209.6222	0.6605
209.8392	0.6566
210.0563	0.5674
210.2734	0.6756
210.4905	0.6554
210.7075	0.6268
210.9245	0.6132
211.1416	0.6521
211.3586	0.6784
211.5756	0.6069
211.7926	0.5989
212.0096	0.5797
212.2265	0.654
212.4435	0.6452
212.6604	0.5624
212.8774	0.6433
213.0943	0.6294
213.3112	0.5166
213.5281	0.5312
213.745	0.5442
213.9619	0.489
214.1788	0.4896
214.3956	0.4533
214.6125	0.493
214.8293	0.4569
215.0461	0.4854
215.2629	0.43
215.4798	0.4657
215.6965	0.4069
215.9133	0.4548
216.1301	0.4353
216.3469	0.4413
216.5636	0.4394
216.7803	0.4072
216.9971	0.4018
217.2138	0.3709
217.4305	0.3575
217.6472	0.3654
217.8639	0.3777
218.0805	0.3331
218.2972	0.3593
218.5138	0.3324
218.7305	0.3097
218.9471	0.3162
219.1637	0.3073
219.3803	0.2984
219.5969	0.3078
219.8135	0.2656
220.0301	0.2839
220.2466	0.2866
220.4632	0.2746
220.6797	0.2501
220.8962	0.2268
221.1127	0.2538
221.3292	0.2622
221.5457	0.2552
221.7622	0.2406
221.9787	0.2622
222.1951	0.2433
222.4116	0.2713
222.628	0.2488
222.8444	0.263
223.0608	0.2699
223.2772	0.2609
223.4936	0.2849
223.71	0.2815
223.9264	0.2734
224.1427	0.2588
224.3591	0.273
224.5754	0.2833
224.7917	0.2744
225.008	0.2676
225.2243	0.2791
225.4406	0.291
225.6569	0.2877
225.8732	0.2695
226.0894	0.2512
226.3057	0.2976
226.5219	0.298
226.7381	0.2798
226.9543	0.2915
227.1705	0.3015
227.3867	0.2746
227.6029	0.2891
227.8191	0.3032
228.0352	0.3145
228.2513	0.3343
228.4675	0.2988
228.6836	0.3266
228.8997	0.3171
229.1158	0.315
229.3319	0.3109
229.548	0.3193
229.764	0.3111
229.9801	0.3489
230.1961	0.3312
230.4121	0.3375
230.6282	0.3594
230.8442	0.3443
231.0602	0.3591
231.2761	0.3817
231.4921	0.35
231.7081	0.3588
231.924	0.355
232.14	0.3912
232.3559	0.3383
232.5718	0.386
232.7877	0.3731
233.0036	0.3638
233.2195	0.3744
233.4353	0.3817
233.6512	0.3733
233.867	0.3626
234.0829	0.3783
234.2987	0.3775
234.5145	0.3592
234.7303	0.3654
234.9461	0.397
235.1619	0.3775
235.3776	0.3853
235.5934	0.3949
235.8091	0.385
236.0249	0.3785
236.2406	0.3871
236.4563	0.3955
236.672	0.4055
236.8877	0.4238
237.1034	0.3851
237.319	0.4012
237.5347	0.4147
237.7503	0.3882
237.966	0.411
238.1816	0.3957
238.3972	0.4145
238.6128	0.4024
238.8284	0.4125
239.0439	0.4359
239.2595	0.4154
239.475	0.4142
239.6906	0.4122
239.9061	0.4094
240.1216	0.411
240.3371	0.4062
240.5526	0.4176
240.7681	0.4203
240.9836	0.3842
241.199	0.393
241.4145	0.3899
241.6299	0.3876
241.8453	0.3829
242.0607	0.3884
242.2761	0.3676
242.4915	0.3697
242.7069	0.3598
242.9223	0.3594
243.1376	0.357
243.353	0.3436
243.5683	0.3464
243.7836	0.3296
243.9989	0.3324
244.2142	0.3132
244.4295	0.3145
244.6448	0.3244
244.86	0.3048
245.0753	0.303
245.2905	0.2914
245.5057	0.2628
245.721	0.2719
245.9362	0.2702
246.1514	0.2745
246.3665	0.2576
246.5817	0.262
246.7969	0.2486
247.012	0.2476
247.2271	0.2437
247.4423	0.2343
247.6574	0.2472
247.8725	0.2221
248.0876	0.2313
248.3026	0.2431
248.5177	0.2142
248.7328	0.2129
248.9478	0.2058
249.1628	0.2126
249.3779	0.2202
249.5929	0.1973
249.8079	0.2266
250.0228	0.201
250.2378	0.2028
250.4528	0.1954
250.6677	0.2045
250.8827	0.2047
251.0976	0.1931
251.3125	0.1939
251.5274	0.1678
251.7423	0.1904
251.9572	0.1805
252.172	0.1844
252.3869	0.1826
252.6017	0.1773
252.8166	0.1823
253.0314	0.1576
253.2462	0.168
253.461	0.1831
253.6758	0.1722
253.8906	0.1656
254.1053	0.1783
254.3201	0.1653
254.5348	0.1815
254.7496	0.1888
254.9643	0.1557
255.179	0.1685
255.3937	0.1657
255.6083	0.183
255.823	0.1749
256.0377	0.1779
256.2523	0.1763
256.467	0.1614
256.6816	0.1942
256.8962	0.1627
257.1108	0.1604
257.3254	0.1683
257.54	0.1605
257.7545	0.1776
257.9691	0.1607
258.1836	0.1662
258.3981	0.1799
258.6127	0.1692
258.8272	0.1684
259.0417	0.1671
259.2561	0.1555
259.4706	0.1802
259.6851	0.1718
259.8995	0.1674
260.114	0.1676
260.3284	0.1655
260.5428	0.1572
260.7572	0.1709
260.9716	0.1672
261.186	0.1707
261.4003	0.1689
261.6147	0.1738
261.829	0.1614
262.0433	0.1643
262.2577	0.1647
262.472	0.1711
262.6863	0.1629
262.9005	0.1652
263.1148	0.165
263.3291	0.1609
263.5433	0.1845
263.7576	0.1522
263.9718	0.1737
264.186	0.174
264.4002	0.1509
264.6144	0.1591
264.8286	0.188
265.0427	0.1652
265.2569	0.1655
265.471	0.1589
265.6851	0.1463
265.8993	0.1564
266.1134	0.1601
266.3275	0.1603
266.5415	0.1685
266.7556	0.1675
266.9697	0.175
267.1837	0.1497
267.3978	0.1672
267.6118	0.1637
267.8258	0.1701
268.0398	0.155
268.2538	0.1694
268.4677	0.1623
268.6817	0.1532
268.8957	0.1622
269.1096	0.1668
269.3235	0.1659
269.5374	0.153
269.7514	0.1624
269.9652	0.1593
270.1791	0.1481
270.393	0.141
270.6068	0.1491
270.8207	0.1504
271.0345	0.1508
271.2483	0.1474
271.4622	0.1532
271.676	0.1604
271.8897	0.1437
272.1035	0.1359
272.3173	0.1357
272.531	0.1531
272.7448	0.1527
272.9585	0.1413
273.1722	0.1494
273.3859	0.1461
273.5996	0.1325
273.8133	0.1483
274.0269	0.1418
274.2406	0.1376
274.4542	0.1449
274.6679	0.1402
274.8815	0.1366
275.0951	0.1447
275.3087	0.1425
275.5223	0.1404
275.7358	0.1464
275.9494	0.1439
276.1629	0.1297
276.3765	0.1445
276.59	0.1439
276.8035	0.1474
277.017	0.1471
277.2305	0.1373
277.444	0.1501
277.6574	0.1355
277.8709	0.1551
278.0843	0.1364
278.2978	0.1446
278.5112	0.1458
278.7246	0.144
278.938	0.1505
279.1513	0.1549
279.3647	0.1546
279.5781	0.1519
279.7914	0.1466
280.0047	0.1622
280.2181	0.1551
280.4314	0.1582
280.6447	0.1531
280.8579	0.1494
281.0712	0.1551
281.2845	0.1595
281.4977	0.1534
281.711	0.145
281.9242	0.1546
282.1374	0.1451
282.3506	0.1606
282.5638	0.1641
282.7769	0.1555
282.9901	0.1537
283.2033	0.1665
283.4164	0.1583
283.6295	0.144
283.8426	0.1382
284.0557	0.1648
284.2688	0.1722
284.4819	0.1497
284.695	0.146
284.908	0.1653
285.1211	0.1613
285.3341	0.1671
285.5471	0.1608
285.7601	0.1753
285.9731	0.1581
286.1861	0.1533
286.3991	0.1742
286.612	0.1691
286.825	0.1567
287.0379	0.1759
287.2508	0.1534
287.4637	0.1592
287.6766	0.1555
287.8895	0.1631
288.1024	0.1873
288.3152	0.1697
288.5281	0.165
288.7409	0.163
288.9538	0.1651
289.1666	0.1753
289.3794	0.1711
289.5922	0.1604
289.8049	0.1691
290.0177	0.1567
290.2304	0.1723
290.4432	0.1693
290.6559	0.1651
290.8686	0.1845
291.0813	0.1644
291.294	0.1689
291.5067	0.1889
291.7194	0.1742
291.932	0.1779
292.1447	0.1719
292.3573	0.1573
292.5699	0.1782
292.7825	0.175
292.9951	0.1724
293.2077	0.169
293.4203	0.1592
293.6328	0.1588
293.8454	0.1763
294.0579	0.1612
294.2704	0.1708
294.4829	0.161
294.6954	0.1611
294.9079	0.1595
295.1204	0.1602
295.3328	0.1614
295.5453	0.1684
295.7577	0.1637
295.9701	0.1533
296.1825	0.1725
296.3949	0.1632
296.6073	0.1669
296.8197	0.1625
297.0321	0.1797
297.2444	0.1674
297.4567	0.1724
297.6691	0.1714
297.8814	0.17
298.0937	0.1674
298.306	0.1694
298.5182	0.1722
298.7305	0.1753
298.9428	0.1645
299.155	0.1762
299.3672	0.1575
299.5794	0.1668
299.7916	0.1688
300.0038	0.1802
300.216	0.1705
300.4282	0.1638
300.6403	0.1592
300.8525	0.1679
301.0646	0.1629
301.2767	0.1695
301.4888	0.1635
301.7009	0.1596
301.913	0.161
302.125	0.1632
302.3371	0.1562
302.5491	0.1587
302.7612	0.1691
302.9732	0.1632
303.1852	0.1677
303.3972	0.163
303.6092	0.1526
303.8211	0.1537
304.0331	0.1524
304.245	0.169
304.457	0.156
304.6689	0.1468
304.8808	0.1701
305.0927	0.1541
305.3046	0.16
305.5164	0.1574
305.7283	0.145
305.9401	0.161
306.152	0.1552
306.3638	0.1533
306.5756	0.1529
306.7874	0.1401
306.9992	0.1464
307.2109	0.1454
307.4227	0.1338
307.6344	0.134
307.8462	0.1482
308.0579	0.134
308.2696	0.1307
308.4813	0.1381
308.693	0.1467
308.9046	0.1345
309.1163	0.1346
309.328	0.126
309.5396	0.125
309.7512	0.1272
309.9628	0.1263
310.1744	0.136
310.386	0.1243
310.5976	0.1303
310.8091	0.1222
311.0207	0.1206
311.2322	0.1304
311.4437	0.113
311.6552	0.1073
311.8667	0.1244
312.0782	0.1136
312.2897	0.1031
312.5012	0.1167
312.7126	0.108
312.924	0.0971
313.1355	0.1139
313.3469	0.1044
313.5583	0.1179
313.7696	0.107
313.981	0.1184
314.1924	0.106
314.4037	0.1009
314.6151	0.12
314.8264	0.0934
315.0377	0.0954
315.249	0.1117
315.4603	0.1068
315.6716	0.1075
315.8828	0.0958
316.0941	0.0957
316.3053	0.1006
316.5165	0.0911
316.7277	0.0887
316.9389	0.1099
317.1501	0.1075
317.3613	0.1028
317.5724	0.0846
317.7836	0.0948
317.9947	0.0918
318.2058	0.0953
318.417	0.0929
318.6281	0.0886
318.8391	0.1051
319.0502	0.0949
319.2613	0.0991
319.4723	0.1123
319.6834	0.1107
319.8944	0.0968
320.1054	0.1014
320.3164	0.107
320.5274	0.0894
320.7383	0.094
320.9493	0.1054
321.1602	0.1074
321.3712	0.0963
321.5821	0.0994
321.793	0.0956
322.0039	0.0952
322.2148	0.1008
322.4257	0.0966
322.6365	0.0998
322.8474	0.1051
323.0582	0.0982
323.269	0.0957
323.4798	0.1111
323.6906	0.0959
323.9014	0.1056
324.1122	0.1119
324.3229	0.0985
324.5337	0.0997
324.7444	0.0824
324.9551	0.1149
325.1658	0.109
325.3765	0.1044
325.5872	0.1083
325.7979	0.1042
326.0085	0.1033
326.2192	0.1044
326.4298	0.1177
326.6404	0.0941
326.851	0.1017
327.0616	0.0857
327.2722	0.1059
327.4828	0.1171
327.6933	0.0979
327.9039	0.1118
328.1144	0.1182
328.3249	0.1032
328.5354	0.099
328.7459	0.0981
328.9564	0.1001
329.1669	0.0927
329.3773	0.0999
329.5878	0.1029
329.7982	0.1053
330.0086	0.1062
330.219	0.1125
330.4294	0.1014
330.6398	0.1119
330.8502	0.1051
331.0605	0.1007
331.2708	0.1056
331.4812	0.1101
331.6915	0.1032
331.9018	0.1106
332.1121	0.1107
332.3224	0.1005
332.5326	0.1127
332.7429	0.1035
332.9531	0.1176
333.1633	0.1009
333.3735	0.1156
333.5837	0.0988
333.7939	0.104
334.0041	0.1061
334.2143	0.1156
334.4244	0.0991
334.6346	0.0946
334.8447	0.1194
335.0548	0.099
335.2649	0.0995
335.475	0.1165
335.685	0.1136
335.8951	0.1163
336.1051	0.1169
336.3152	0.1119
336.5252	0.1181
336.7352	0.106
336.9452	0.1088
337.1552	0.1121
337.3652	0.0981
337.5751	0.1096
337.7851	0.105
337.995	0.1015
338.2049	0.1106
338.4148	0.1121
338.6247	0.1126
338.8346	0.1099
339.0445	0.1001
339.2543	0.1112
339.4642	0.1147
339.674	0.1077
339.8838	0.1128
340.0936	0.1122
340.3034	0.1185
340.5132	0.1229
340.7229	0.1125
340.9327	0.1111
341.1424	0.1279
341.3522	0.1268
341.5619	0.1262
341.7716	0.1176
341.9813	0.114
342.1909	0.1165
342.4006	0.122
342.6102	0.1268
342.8199	0.1251
343.0295	0.1246
343.2391	0.133
343.4487	0.133
343.6583	0.1202
343.8679	0.1192
344.0774	0.1226
344.287	0.1227
344.4965	0.1231
344.706	0.1307
344.9155	0.129
345.125	0.116
345.3345	0.1258
345.544	0.13
345.7534	0.1293
345.9629	0.1241
346.1723	0.1361
346.3817	0.1228
346.5911	0.1344
346.8005	0.1312
347.0099	0.1365
347.2193	0.1378
347.4286	0.1339
347.638	0.1474
347.8473	0.1386
348.0566	0.131
348.2659	0.1399
348.4752	0.1312
348.6845	0.1302
348.8937	0.132
349.103	0.1422
349.3122	0.1378
349.5214	0.1297
349.7306	0.1437
349.9398	0.1344
350.149	0.1449
350.3582	0.1324
350.5674	0.147
350.7765	0.148
350.9856	0.1396
351.1948	0.1608
351.4039	0.1246
351.613	0.1369
351.822	0.1445
352.0311	0.151
352.2402	0.1424
352.4492	0.1434
352.6582	0.1456
352.8672	0.1665
353.0762	0.1518
353.2852	0.1421
353.4942	0.1549
353.7032	0.1438
353.9121	0.1539
354.1211	0.1613
354.33	0.1538
354.5389	0.1595
354.7478	0.1526
354.9567	0.148
355.1655	0.1479
355.3744	0.1505
355.5833	0.1578
355.7921	0.1656
356.0009	0.1508
356.2097	0.1787
356.4185	0.1675
356.6273	0.1572
356.8361	0.1574
357.0448	0.1568
357.2536	0.1442
357.4623	0.1505
357.671	0.1655
357.8797	0.1686
358.0884	0.1568
358.2971	0.1671
358.5057	0.1679
358.7144	0.1681
358.923	0.1729
359.1316	0.1616
359.3402	0.1679
359.5488	0.1726
359.7574	0.1661
359.966	0.1711
360.1746	0.1795
360.3831	0.1768
360.5916	0.1799
360.8002	0.1677
361.0087	0.1858
361.2172	0.1869
361.4256	0.1982
361.6341	0.1799
361.8426	0.1747
362.051	0.1704
362.2594	0.1686
362.4678	0.1835
362.6762	0.203
362.8846	0.1893
363.093	0.1668
363.3014	0.193
363.5097	0.1692
363.718	0.1952
363.9264	0.1794
364.1347	0.1933
364.343	0.1964
364.5513	0.1941
364.7595	0.2036
364.9678	0.1953
365.176	0.2007
365.3842	0.1853
365.5925	0.1959
365.8007	0.2125
366.0089	0.2043
366.217	0.1998
366.4252	0.2122
366.6333	0.2103
366.8415	0.1992
367.0496	0.1922
367.2577	0.2147
367.4658	0.223
367.6739	0.2043
367.882	0.2202
368.09	0.2018
368.2981	0.2134
368.5061	0.1861
368.7141	0.2256
368.9221	0.2024
369.1301	0.2149
369.3381	0.2179
369.5461	0.2167
369.754	0.2229
369.962	0.237
370.1699	0.2311
370.3778	0.2297
370.5857	0.1998
370.7936	0.2245
371.0015	0.2245
371.2093	0.2245
371.4172	0.2344
371.625	0.2043
371.8328	0.2197
372.0406	0.222
372.2484	0.2173
372.4562	0.2297
372.664	0.2291
372.8717	0.2159
373.0795	0.1997
373.2872	0.2462
373.4949	0.226
373.7026	0.2419
373.9103	0.2409
374.118	0.2431
374.3256	0.2352
374.5333	0.2374
374.7409	0.2265
374.9485	0.247
375.1561	0.2386
375.3637	0.2525
375.5713	0.2463
375.7789	0.2353
375.9864	0.2194
376.194	0.2343
376.4015	0.2527
376.609	0.2474
376.8165	0.2336
377.024	0.2343
377.2315	0.2301
377.4389	0.2447
377.6464	0.2456
377.8538	0.2462
378.0612	0.2361
378.2686	0.2578
378.476	0.2557
378.6834	0.2623
378.8908	0.2391
379.0981	0.2506
379.3055	0.2471
379.5128	0.2463
379.7201	0.2575
379.9274	0.2493
380.1347	0.247
380.342	0.2721
380.5492	0.2451
380.7565	0.2538
380.9637	0.2577
381.1709	0.2542
381.3781	0.2542
381.5853	0.2586
381.7925	0.2625
381.9997	0.2646
382.2068	0.2654
382.4139	0.2622
382.6211	0.2306
382.8282	0.2529
383.0353	0.2603
383.2424	0.2557
383.4494	0.2579
383.6565	0.2673
383.8635	0.2523
384.0706	0.2639
384.2776	0.2643
384.4846	0.2433
384.6916	0.2561
384.8986	0.263
385.1055	0.2771
385.3125	0.2628
385.5194	0.2554
385.7263	0.257
385.9333	0.2482
386.1402	0.2703
386.347	0.2581
386.5539	0.2705
386.7608	0.2619
386.9676	0.2548
387.1744	0.2657
387.3813	0.2478
387.5881	0.2603
387.7948	0.2468
388.0016	0.2421
388.2084	0.2596
388.4151	0.2408
388.6219	0.2772
388.8286	0.2657
389.0353	0.2689
389.242	0.2511
389.4487	0.2603
389.6553	0.2537
389.862	0.2375
390.0686	0.2441
390.2753	0.2622
390.4819	0.2575
390.6885	0.2538
390.8951	0.2424
391.1016	0.2614
391.3082	0.2415
391.5147	0.2456
391.7213	0.2536
391.9278	0.2338
392.1343	0.2406
392.3408	0.2268
392.5473	0.2341
392.7537	0.2385
392.9602	0.2507
393.1666	0.252
393.373	0.244
393.5794	0.2341
393.7858	0.241
393.9922	0.2333
394.1986	0.2354
394.4049	0.2411
394.6113	0.2261
394.8176	0.2458
395.0239	0.217
395.2302	0.2208
395.4365	0.2261
395.6428	0.2415
395.8491	0.2213
396.0553	0.2345
396.2615	0.2209
396.4678	0.2271
396.674	0.2094
396.8802	0.2258
397.0863	0.242
397.2925	0.2233
397.4987	0.2295
397.7048	0.2163
397.9109	0.2241
398.117	0.2142
398.3231	0.2249
398.5292	0.2242
398.7353	0.2174
398.9413	0.2161
399.1474	0.225
399.3534	0.2126
399.5594	0.21
399.7654	0.2475
399.9714	0.2286
400.1774	0.2245
400.3833	0.2118
400.5893	0.2185
400.7952	0.2308
401.0011	0.2202
401.207	0.2193
401.4129	0.2379
401.6188	0.2363
401.8247	0.2241
402.0305	0.2203
402.2364	0.2078
402.4422	0.2147
402.648	0.2174
402.8538	0.237
403.0596	0.2088
403.2654	0.2195
403.4711	0.2076
403.6768	0.2251
403.8826	0.2295
404.0883	0.2259
404.294	0.2211
404.4997	0.229
404.7054	0.2456
404.911	0.2066
405.1167	0.226
405.3223	0.2461
405.5279	0.231
405.7335	0.2396
405.9391	0.2262
406.1447	0.2144
406.3502	0.2353
406.5558	0.2334
406.7613	0.211
406.9668	0.2243
407.1724	0.2287
407.3778	0.216
407.5833	0.2118
407.7888	0.2044
407.9942	0.2268
408.1997	0.23
408.4051	0.1973
408.6105	0.2348
408.8159	0.2
409.0213	0.2057
409.2267	0.2289
409.432	0.2036
409.6374	0.2197
409.8427	0.2214
410.048	0.2267
410.2533	0.2191
410.4586	0.2163
410.6639	0.1963
410.8691	0.2144
411.0744	0.2154
411.2796	0.1902
411.4848	0.2273
411.69	0.2128
411.8952	0.2213
412.1004	0.2195
412.3056	0.2171
412.5107	0.2159
412.7158	0.224
412.921	0.2178
413.1261	0.2045
413.3312	0.2191
413.5362	0.2045
413.7413	0.2199
413.9464	0.2021
414.1514	0.2315
414.3564	0.2087
414.5614	0.1912
414.7664	0.2203
414.9714	0.2077
415.1764	0.2125
415.3813	0.2182
415.5863	0.2119
415.7912	0.2206
415.9961	0.1857
416.201	0.2103
416.4059	0.2227
416.6108	0.2145
416.8156	0.2051
417.0205	0.1991
417.2253	0.2099
417.4301	0.2143
417.6349	0.2006
417.8397	0.2071
418.0445	0.2173
418.2492	0.2244
418.454	0.2078
418.6587	0.2076
418.8634	0.2033
419.0681	0.1909
419.2728	0.1964
419.4775	0.2001
419.6822	0.1887
419.8868	0.1793
420.0915	0.2052
420.2961	0.192
420.5007	0.1992
420.7053	0.2052
420.9099	0.192
421.1144	0.2004
421.319	0.1917
421.5235	0.1947
421.728	0.2101
421.9325	0.2004
422.137	0.2028
422.3415	0.1842
422.546	0.1868
422.7504	0.1817
422.9549	0.2011
423.1593	0.1924
423.3637	0.2118
423.5681	0.1829
423.7725	0.1962
423.9769	0.1916
424.1812	0.1827
424.3856	0.1772
424.5899	0.1811
424.7942	0.1907
424.9985	0.1832
425.2028	0.1852
425.4071	0.1887
425.6113	0.1604
425.8156	0.1788
426.0198	0.1867
426.224	0.1657
426.4282	0.1761
426.6324	0.1585
