Data from MonoPyChalIsomerACN10uM360nmA_Absorbance_13-57-28-004.txt Node
Date: Fri Jul 05 13:57:28 BST 2024
User: LASERRRRR
Spectrometer: FLMT03099
Trigger mode: 0
Integration Time (sec): 1.000000E-1
Scans to average: 1
Electric dark correction enabled: true
Nonlinearity correction enabled: false
Boxcar width: 0
XAxis mode: Wavelengths
Number of Pixels in Spectrum: 3648
>>>>>Begin Spectral Data<<<<<
179.3399	-0.0465
179.5586	-0.0465
179.7771	-0.0465
179.9957	-0.2943
180.2143	-0.1872
180.4329	-0.3003
180.6514	-0
180.8699	-0
181.0885	0.1791
181.307	0.1192
181.5255	-0
181.744	-0
181.9625	0.5031
182.181	-0
182.3994	0.0126
182.6179	-0
182.8363	0.64
183.0547	0.1375
183.2732	0.0507
183.4916	0.0512
183.71	-0.0194
183.9284	0.0311
184.1467	-0.1688
184.3651	0.2674
184.5835	0.0324
184.8018	0.2458
185.0201	0.068
185.2385	-0.0055
185.4568	0.3187
185.6751	0.4913
185.8934	0.1698
186.1117	0.064
186.3299	0.1404
186.5482	0.111
186.7664	-0.098
186.9847	-0.1123
187.2029	0.1233
187.4211	0.0126
187.6393	0.4486
187.8575	-0.0863
188.0757	0.2668
188.2939	0.2266
188.512	-0.0875
188.7302	-0.1041
188.9483	0.0992
189.1665	0.1347
189.3846	-0.2087
189.6027	0.2187
189.8208	0.2046
190.0389	0.033
190.257	0.0369
190.475	0.2683
190.6931	0.1627
190.9111	0.7743
191.1292	0.1937
191.3472	0.4438
191.5652	0.284
191.7832	0.2319
192.0012	0.7009
192.2192	0.3515
192.4371	0.5102
192.6551	0.4291
192.873	0.4733
193.091	0.4525
193.3089	0.4256
193.5268	0.4631
193.7447	0.6111
193.9626	0.491
194.1805	0.6214
194.3984	0.7203
194.6162	0.6835
194.8341	0.4752
195.0519	0.5221
195.2697	0.9269
195.4875	0.5085
195.7054	0.4723
195.9231	0.5584
196.1409	0.5715
196.3587	0.5501
196.5765	0.5802
196.7942	0.6093
197.012	0.5489
197.2297	0.8505
197.4474	0.5564
197.6651	0.538
197.8828	0.6146
198.1005	0.7203
198.3182	0.5776
198.5358	0.6937
198.7535	0.7197
198.9711	0.5188
199.1888	0.5481
199.4064	0.679
199.624	0.5103
199.8416	0.6726
200.0592	0.7602
200.2767	0.6643
200.4943	0.624
200.7119	0.6907
200.9294	0.7338
201.1469	0.562
201.3645	0.6193
201.582	0.5759
201.7995	0.6605
202.017	0.5921
202.2344	0.5948
202.4519	0.6989
202.6694	0.6384
202.8868	0.7216
203.1042	0.7278
203.3217	0.7411
203.5391	0.5854
203.7565	0.5447
203.9739	0.6406
204.1913	0.6157
204.4086	0.7065
204.626	0.6447
204.8433	0.6282
205.0607	0.6397
205.278	0.6036
205.4953	0.6172
205.7126	0.6594
205.9299	0.7163
206.1472	0.6321
206.3644	0.6109
206.5817	0.6505
206.7989	0.7277
207.0162	0.6192
207.2334	0.605
207.4506	0.6607
207.6678	0.6319
207.885	0.6182
208.1022	0.6508
208.3194	0.7547
208.5365	0.5802
208.7537	0.6171
208.9708	0.5839
209.1879	0.6216
209.405	0.7635
209.6222	0.748
209.8392	0.6405
210.0563	0.6155
210.2734	0.6107
210.4905	0.5992
210.7075	0.6396
210.9245	0.6054
211.1416	0.6667
211.3586	0.5712
211.5756	0.5582
211.7926	0.6009
212.0096	0.5956
212.2265	0.5327
212.4435	0.5484
212.6604	0.5923
212.8774	0.6853
213.0943	0.5367
213.3112	0.5605
213.5281	0.4939
213.745	0.4873
213.9619	0.4914
214.1788	0.4673
214.3956	0.48
214.6125	0.5051
214.8293	0.447
215.0461	0.5219
215.2629	0.4245
215.4798	0.4556
215.6965	0.4287
215.9133	0.4689
216.1301	0.3801
216.3469	0.4262
216.5636	0.4379
216.7803	0.3971
216.9971	0.4106
217.2138	0.3758
217.4305	0.3516
217.6472	0.3326
217.8639	0.39
218.0805	0.3607
218.2972	0.3289
218.5138	0.3387
218.7305	0.314
218.9471	0.3314
219.1637	0.2813
219.3803	0.2878
219.5969	0.2956
219.8135	0.2403
220.0301	0.289
220.2466	0.3028
220.4632	0.287
220.6797	0.2492
220.8962	0.2349
221.1127	0.2455
221.3292	0.2495
221.5457	0.2582
221.7622	0.2405
221.9787	0.2691
222.1951	0.2505
222.4116	0.2741
222.628	0.2636
222.8444	0.2704
223.0608	0.2669
223.2772	0.2823
223.4936	0.279
223.71	0.2471
223.9264	0.2587
224.1427	0.2596
224.3591	0.2787
224.5754	0.2654
224.7917	0.2632
225.008	0.2867
225.2243	0.2687
225.4406	0.2879
225.6569	0.2937
225.8732	0.2647
226.0894	0.2788
226.3057	0.2593
226.5219	0.287
226.7381	0.2564
226.9543	0.2926
227.1705	0.3
227.3867	0.288
227.6029	0.2935
227.8191	0.2975
228.0352	0.2812
228.2513	0.3022
228.4675	0.3113
228.6836	0.3036
228.8997	0.2968
229.1158	0.3147
229.3319	0.3187
229.548	0.3176
229.764	0.3309
229.9801	0.3408
230.1961	0.3308
230.4121	0.3508
230.6282	0.3515
230.8442	0.324
231.0602	0.3508
231.2761	0.3441
231.4921	0.3457
231.7081	0.3415
231.924	0.3501
232.14	0.3633
232.3559	0.3354
232.5718	0.3779
232.7877	0.3565
233.0036	0.3319
233.2195	0.3676
233.4353	0.364
233.6512	0.3609
233.867	0.359
234.0829	0.3768
234.2987	0.3593
234.5145	0.3831
234.7303	0.3613
234.9461	0.3823
235.1619	0.3742
235.3776	0.3796
235.5934	0.3821
235.8091	0.377
236.0249	0.3722
236.2406	0.3894
236.4563	0.4004
236.672	0.4054
236.8877	0.4
237.1034	0.3986
237.319	0.3831
237.5347	0.3911
237.7503	0.3986
237.966	0.4085
238.1816	0.4128
238.3972	0.3874
238.6128	0.3779
238.8284	0.4225
239.0439	0.4058
239.2595	0.4066
239.475	0.4206
239.6906	0.3996
239.9061	0.4037
240.1216	0.414
240.3371	0.4092
240.5526	0.4002
240.7681	0.4124
240.9836	0.3807
241.199	0.4033
241.4145	0.3981
241.6299	0.3727
241.8453	0.3805
242.0607	0.3879
242.2761	0.3664
242.4915	0.3713
242.7069	0.3743
242.9223	0.3534
243.1376	0.3385
243.353	0.3357
243.5683	0.3544
243.7836	0.3533
243.9989	0.3413
244.2142	0.3072
244.4295	0.3073
244.6448	0.2978
244.86	0.2938
245.0753	0.2951
245.2905	0.2911
245.5057	0.2691
245.721	0.2642
245.9362	0.2687
246.1514	0.2807
246.3665	0.2694
246.5817	0.2674
246.7969	0.2531
247.012	0.2524
247.2271	0.2473
247.4423	0.2491
247.6574	0.2314
247.8725	0.2341
248.0876	0.2318
248.3026	0.2155
248.5177	0.2375
248.7328	0.2055
248.9478	0.2165
249.1628	0.2161
249.3779	0.2148
249.5929	0.2013
249.8079	0.2207
250.0228	0.2073
250.2378	0.193
250.4528	0.2064
250.6677	0.1842
250.8827	0.2039
251.0976	0.21
251.3125	0.1951
251.5274	0.1758
251.7423	0.1825
251.9572	0.1978
252.172	0.1707
252.3869	0.1895
252.6017	0.1773
252.8166	0.1676
253.0314	0.1592
253.2462	0.1729
253.461	0.1807
253.6758	0.1681
253.8906	0.1714
254.1053	0.1619
254.3201	0.1638
254.5348	0.1629
254.7496	0.1774
254.9643	0.173
255.179	0.1632
255.3937	0.1724
255.6083	0.162
255.823	0.163
256.0377	0.159
256.2523	0.1745
256.467	0.1493
256.6816	0.168
256.8962	0.167
257.1108	0.1646
257.3254	0.1726
257.54	0.1634
257.7545	0.1697
257.9691	0.1681
258.1836	0.1601
258.3981	0.1881
258.6127	0.1694
258.8272	0.155
259.0417	0.1576
259.2561	0.1671
259.4706	0.1664
259.6851	0.1669
259.8995	0.1618
260.114	0.1675
260.3284	0.1643
260.5428	0.1516
260.7572	0.1651
260.9716	0.1672
261.186	0.1596
261.4003	0.1659
261.6147	0.1774
261.829	0.1586
262.0433	0.1628
262.2577	0.1598
262.472	0.1634
262.6863	0.1587
262.9005	0.1602
263.1148	0.1705
263.3291	0.1477
263.5433	0.173
263.7576	0.1642
263.9718	0.1684
264.186	0.1654
264.4002	0.153
264.6144	0.1604
264.8286	0.1765
265.0427	0.16
265.2569	0.1638
265.471	0.1714
265.6851	0.1565
265.8993	0.1584
266.1134	0.1606
266.3275	0.1623
266.5415	0.1478
266.7556	0.1731
266.9697	0.1792
267.1837	0.1694
267.3978	0.1523
267.6118	0.1822
267.8258	0.1761
268.0398	0.1577
268.2538	0.1613
268.4677	0.1588
268.6817	0.1561
268.8957	0.1598
269.1096	0.1639
269.3235	0.1719
269.5374	0.1614
269.7514	0.1576
269.9652	0.1487
270.1791	0.1431
270.393	0.1525
270.6068	0.1592
270.8207	0.1492
271.0345	0.149
271.2483	0.1549
271.4622	0.1411
271.676	0.1484
271.8897	0.1498
272.1035	0.1412
272.3173	0.14
272.531	0.1542
272.7448	0.1516
272.9585	0.1379
273.1722	0.1587
273.3859	0.1582
273.5996	0.1412
273.8133	0.1459
274.0269	0.149
274.2406	0.1407
274.4542	0.1506
274.6679	0.1357
274.8815	0.1496
275.0951	0.1557
275.3087	0.1473
275.5223	0.1618
275.7358	0.1581
275.9494	0.1535
276.1629	0.1447
276.3765	0.1454
276.59	0.1484
276.8035	0.1575
277.017	0.1448
277.2305	0.1421
277.444	0.16
277.6574	0.1492
277.8709	0.1567
278.0843	0.14
278.2978	0.1448
278.5112	0.1469
278.7246	0.1525
278.938	0.1524
279.1513	0.1449
279.3647	0.158
279.5781	0.1401
279.7914	0.1496
280.0047	0.1625
280.2181	0.1571
280.4314	0.1529
280.6447	0.147
280.8579	0.1475
281.0712	0.1457
281.2845	0.1753
281.4977	0.1506
281.711	0.1405
281.9242	0.1436
282.1374	0.1579
282.3506	0.1406
282.5638	0.1613
282.7769	0.1584
282.9901	0.1553
283.2033	0.1742
283.4164	0.1584
283.6295	0.1488
283.8426	0.1492
284.0557	0.1513
284.2688	0.1796
284.4819	0.1592
284.695	0.1651
284.908	0.1666
285.1211	0.1615
285.3341	0.1646
285.5471	0.1682
285.7601	0.1545
285.9731	0.1676
286.1861	0.1515
286.3991	0.1585
286.612	0.1717
286.825	0.1558
287.0379	0.1534
287.2508	0.1486
287.4637	0.1658
287.6766	0.151
287.8895	0.1615
288.1024	0.1758
288.3152	0.1605
288.5281	0.167
288.7409	0.1616
288.9538	0.1622
289.1666	0.1625
289.3794	0.1659
289.5922	0.1529
289.8049	0.1655
290.0177	0.1655
290.2304	0.1545
290.4432	0.171
290.6559	0.1668
290.8686	0.1685
291.0813	0.163
291.294	0.1731
291.5067	0.1741
291.7194	0.1632
291.932	0.1665
292.1447	0.1732
292.3573	0.1526
292.5699	0.1684
292.7825	0.1683
292.9951	0.1599
293.2077	0.1707
293.4203	0.1632
293.6328	0.1461
293.8454	0.1596
294.0579	0.153
294.2704	0.1597
294.4829	0.1642
294.6954	0.1759
294.9079	0.1649
295.1204	0.1575
295.3328	0.161
295.5453	0.1664
295.7577	0.1727
295.9701	0.1455
296.1825	0.1668
296.3949	0.161
296.6073	0.1624
296.8197	0.1568
297.0321	0.1824
297.2444	0.1607
297.4567	0.1656
297.6691	0.1633
297.8814	0.1665
298.0937	0.1556
298.306	0.1681
298.5182	0.1608
298.7305	0.1624
298.9428	0.1606
299.155	0.1692
299.3672	0.1497
299.5794	0.1615
299.7916	0.1587
300.0038	0.164
300.216	0.1684
300.4282	0.1684
300.6403	0.1594
300.8525	0.1692
301.0646	0.1483
301.2767	0.1631
301.4888	0.1647
301.7009	0.1598
301.913	0.1555
302.125	0.1658
302.3371	0.165
302.5491	0.1719
302.7612	0.1645
302.9732	0.169
303.1852	0.1641
303.3972	0.161
303.6092	0.1584
303.8211	0.1479
304.0331	0.1504
304.245	0.1542
304.457	0.1511
304.6689	0.1455
304.8808	0.1601
305.0927	0.1545
305.3046	0.1488
305.5164	0.1551
305.7283	0.1479
305.9401	0.1529
306.152	0.1401
306.3638	0.1574
306.5756	0.1434
306.7874	0.1416
306.9992	0.1422
307.2109	0.1386
307.4227	0.1313
307.6344	0.1444
307.8462	0.1349
308.0579	0.1338
308.2696	0.1309
308.4813	0.1302
308.693	0.1429
308.9046	0.134
309.1163	0.136
309.328	0.1366
309.5396	0.1342
309.7512	0.1229
309.9628	0.1268
310.1744	0.123
310.386	0.1333
310.5976	0.1094
310.8091	0.1125
311.0207	0.1161
311.2322	0.1283
311.4437	0.1173
311.6552	0.1129
311.8667	0.1142
312.0782	0.1002
312.2897	0.1085
312.5012	0.1216
312.7126	0.1197
312.924	0.1118
313.1355	0.1093
313.3469	0.0945
313.5583	0.1091
313.7696	0.1182
313.981	0.1045
314.1924	0.1109
314.4037	0.0996
314.6151	0.1022
314.8264	0.1047
315.0377	0.1118
315.249	0.1011
315.4603	0.1144
315.6716	0.1012
315.8828	0.0929
316.0941	0.0946
316.3053	0.0916
316.5165	0.0982
316.7277	0.0974
316.9389	0.1006
317.1501	0.1006
317.3613	0.1073
317.5724	0.0705
317.7836	0.1032
317.9947	0.1032
318.2058	0.1043
318.417	0.0834
318.6281	0.0851
318.8391	0.0925
319.0502	0.0991
319.2613	0.0926
319.4723	0.1043
319.6834	0.1072
319.8944	0.0888
320.1054	0.0974
320.3164	0.0888
320.5274	0.098
320.7383	0.0967
320.9493	0.1024
321.1602	0.1111
321.3712	0.0868
321.5821	0.1032
321.793	0.1122
322.0039	0.1019
322.2148	0.0974
322.4257	0.0982
322.6365	0.1179
322.8474	0.0977
323.0582	0.0875
323.269	0.1043
323.4798	0.1157
323.6906	0.1028
323.9014	0.0897
324.1122	0.102
324.3229	0.0954
324.5337	0.1059
324.7444	0.0989
324.9551	0.1185
325.1658	0.108
325.3765	0.11
325.5872	0.1018
325.7979	0.0983
326.0085	0.1067
326.2192	0.1075
326.4298	0.1122
326.6404	0.0964
326.851	0.1045
327.0616	0.0949
327.2722	0.1063
327.4828	0.109
327.6933	0.1011
327.9039	0.1181
328.1144	0.1081
328.3249	0.1171
328.5354	0.0976
328.7459	0.1011
328.9564	0.0889
329.1669	0.1092
329.3773	0.1115
329.5878	0.1049
329.7982	0.1083
330.0086	0.1035
330.219	0.1033
330.4294	0.1179
330.6398	0.1044
330.8502	0.1039
331.0605	0.1091
331.2708	0.1009
331.4812	0.1128
331.6915	0.1043
331.9018	0.1075
332.1121	0.0931
332.3224	0.1194
332.5326	0.1121
332.7429	0.1096
332.9531	0.1221
333.1633	0.1042
333.3735	0.1038
333.5837	0.108
333.7939	0.101
334.0041	0.1133
334.2143	0.1062
334.4244	0.1182
334.6346	0.091
334.8447	0.1139
335.0548	0.1116
335.2649	0.0858
335.475	0.1191
335.685	0.1053
335.8951	0.1155
336.1051	0.1108
336.3152	0.1191
336.5252	0.1014
336.7352	0.1105
336.9452	0.1138
337.1552	0.1274
337.3652	0.1045
337.5751	0.1166
337.7851	0.1185
337.995	0.1105
338.2049	0.109
338.4148	0.116
338.6247	0.1189
338.8346	0.1087
339.0445	0.1074
339.2543	0.1077
339.4642	0.1189
339.674	0.1065
339.8838	0.1085
340.0936	0.1062
340.3034	0.1155
340.5132	0.111
340.7229	0.124
340.9327	0.1131
341.1424	0.1056
341.3522	0.129
341.5619	0.1129
341.7716	0.1212
341.9813	0.1328
342.1909	0.1155
342.4006	0.1283
342.6102	0.1224
342.8199	0.1208
343.0295	0.1208
343.2391	0.1156
343.4487	0.1244
343.6583	0.1235
343.8679	0.1365
344.0774	0.1205
344.287	0.1334
344.4965	0.1283
344.706	0.1199
344.9155	0.1262
345.125	0.1214
345.3345	0.1208
345.544	0.1291
345.7534	0.1187
345.9629	0.1158
346.1723	0.1235
346.3817	0.1257
346.5911	0.1225
346.8005	0.1325
347.0099	0.1292
347.2193	0.136
347.4286	0.1302
347.638	0.1385
347.8473	0.1337
348.0566	0.1431
348.2659	0.1344
348.4752	0.1388
348.6845	0.14
348.8937	0.1284
349.103	0.1508
349.3122	0.1248
349.5214	0.1412
349.7306	0.1378
349.9398	0.1435
350.149	0.1467
350.3582	0.1441
350.5674	0.1483
350.7765	0.1333
350.9856	0.1538
351.1948	0.1364
351.4039	0.1291
351.613	0.1318
351.822	0.1537
352.0311	0.1536
352.2402	0.155
352.4492	0.1452
352.6582	0.142
352.8672	0.1625
353.0762	0.1595
353.2852	0.1408
353.4942	0.1433
353.7032	0.1544
353.9121	0.1475
354.1211	0.1498
354.33	0.1628
354.5389	0.1628
354.7478	0.1471
354.9567	0.1519
355.1655	0.1362
355.3744	0.15
355.5833	0.152
355.7921	0.1698
356.0009	0.1538
356.2097	0.1726
356.4185	0.1675
356.6273	0.1704
356.8361	0.168
357.0448	0.1508
357.2536	0.1586
357.4623	0.1519
357.671	0.1704
357.8797	0.1531
358.0884	0.161
358.2971	0.1441
358.5057	0.1737
358.7144	0.1705
358.923	0.1637
359.1316	0.1796
359.3402	0.1711
359.5488	0.1571
359.7574	0.1626
359.966	0.1585
360.1746	0.1663
360.3831	0.1721
360.5916	0.1594
360.8002	0.1678
361.0087	0.1795
361.2172	0.1793
361.4256	0.1729
361.6341	0.1914
361.8426	0.1698
362.051	0.1594
362.2594	0.1862
362.4678	0.1738
362.6762	0.1981
362.8846	0.1951
363.093	0.1802
363.3014	0.1769
363.5097	0.1637
363.718	0.1931
363.9264	0.1968
364.1347	0.1744
364.343	0.1898
364.5513	0.2078
364.7595	0.1949
364.9678	0.2035
365.176	0.2087
365.3842	0.1888
365.5925	0.1945
365.8007	0.191
366.0089	0.1918
366.217	0.1777
366.4252	0.2067
366.6333	0.2078
366.8415	0.2139
367.0496	0.2016
367.2577	0.2203
367.4658	0.213
367.6739	0.2084
367.882	0.203
368.09	0.2024
368.2981	0.2175
368.5061	0.1984
368.7141	0.1911
368.9221	0.2071
369.1301	0.2103
369.3381	0.2068
369.5461	0.2062
369.754	0.2135
369.962	0.2101
370.1699	0.213
370.3778	0.2084
370.5857	0.195
370.7936	0.2262
371.0015	0.1975
371.2093	0.2286
371.4172	0.2234
371.625	0.2092
371.8328	0.2207
372.0406	0.219
372.2484	0.2199
372.4562	0.2187
372.664	0.22
372.8717	0.2272
373.0795	0.1984
373.2872	0.2188
373.4949	0.2214
373.7026	0.2275
373.9103	0.2153
374.118	0.222
374.3256	0.2312
374.5333	0.2138
374.7409	0.2291
374.9485	0.2361
375.1561	0.2253
375.3637	0.2314
375.5713	0.2267
375.7789	0.2391
375.9864	0.2354
376.194	0.2216
376.4015	0.2323
376.609	0.25
376.8165	0.231
377.024	0.2342
377.2315	0.2269
377.4389	0.2556
377.6464	0.2431
377.8538	0.2363
378.0612	0.2401
378.2686	0.2343
378.476	0.257
378.6834	0.2471
378.8908	0.253
379.0981	0.2432
379.3055	0.2519
379.5128	0.2422
379.7201	0.2552
379.9274	0.2329
380.1347	0.2431
380.342	0.2718
380.5492	0.2406
380.7565	0.2387
380.9637	0.2537
381.1709	0.2406
381.3781	0.2408
381.5853	0.2569
381.7925	0.2728
381.9997	0.254
382.2068	0.2715
382.4139	0.2565
382.6211	0.2499
382.8282	0.2476
383.0353	0.2476
383.2424	0.2508
383.4494	0.261
383.6565	0.2512
383.8635	0.2456
384.0706	0.2581
384.2776	0.2501
384.4846	0.2286
384.6916	0.2753
384.8986	0.253
385.1055	0.245
385.3125	0.2494
385.5194	0.2598
385.7263	0.2798
385.9333	0.2408
386.1402	0.2331
386.347	0.2529
386.5539	0.2399
386.7608	0.2565
386.9676	0.2321
387.1744	0.2451
387.3813	0.2322
387.5881	0.262
387.7948	0.2458
388.0016	0.2409
388.2084	0.2503
388.4151	0.2476
388.6219	0.2601
388.8286	0.2499
389.0353	0.2527
389.242	0.245
389.4487	0.2462
389.6553	0.2356
389.862	0.2304
390.0686	0.2414
390.2753	0.2256
390.4819	0.2412
390.6885	0.2272
390.8951	0.2293
391.1016	0.2397
391.3082	0.2424
391.5147	0.2378
391.7213	0.232
391.9278	0.2161
392.1343	0.2423
392.3408	0.2233
392.5473	0.2402
392.7537	0.2243
392.9602	0.237
393.1666	0.2304
393.373	0.2253
393.5794	0.2349
393.7858	0.2094
393.9922	0.2117
394.1986	0.2258
394.4049	0.2064
394.6113	0.2312
394.8176	0.2134
395.0239	0.2309
395.2302	0.211
395.4365	0.2189
395.6428	0.2254
395.8491	0.2024
396.0553	0.2039
396.2615	0.2035
396.4678	0.2179
396.674	0.2182
396.8802	0.2226
397.0863	0.2331
397.2925	0.2042
397.4987	0.2078
397.7048	0.2119
397.9109	0.2211
398.117	0.2137
398.3231	0.1947
398.5292	0.2129
398.7353	0.2154
398.9413	0.211
399.1474	0.2045
399.3534	0.2093
399.5594	0.1936
399.7654	0.2358
399.9714	0.234
400.1774	0.2004
400.3833	0.1994
400.5893	0.2046
400.7952	0.2156
401.0011	0.2111
401.207	0.2145
401.4129	0.2268
401.6188	0.225
401.8247	0.2012
402.0305	0.1992
402.2364	0.2194
402.4422	0.2203
402.648	0.2089
402.8538	0.2085
403.0596	0.1947
403.2654	0.2105
403.4711	0.2052
403.6768	0.2178
403.8826	0.2211
404.0883	0.2181
404.294	0.2081
404.4997	0.2056
404.7054	0.2092
404.911	0.1984
405.1167	0.2198
405.3223	0.227
405.5279	0.2108
405.7335	0.2277
405.9391	0.2064
406.1447	0.2122
406.3502	0.2102
406.5558	0.2121
406.7613	0.2162
406.9668	0.2007
407.1724	0.193
407.3778	0.2032
407.5833	0.2124
407.7888	0.2028
407.9942	0.2262
408.1997	0.1979
408.4051	0.1999
408.6105	0.2243
408.8159	0.2059
409.0213	0.2042
409.2267	0.2261
409.432	0.1922
409.6374	0.2199
409.8427	0.2016
410.048	0.213
410.2533	0.2235
410.4586	0.1963
410.6639	0.1873
410.8691	0.1958
411.0744	0.194
411.2796	0.1943
411.4848	0.1962
411.69	0.2005
411.8952	0.22
412.1004	0.1928
412.3056	0.2155
412.5107	0.2097
412.7158	0.2064
412.921	0.1902
413.1261	0.2103
413.3312	0.1939
413.5362	0.2027
413.7413	0.2034
413.9464	0.2072
414.1514	0.2134
414.3564	0.2
414.5614	0.1976
414.7664	0.201
414.9714	0.2115
415.1764	0.1928
415.3813	0.2178
415.5863	0.2126
415.7912	0.2013
415.9961	0.1863
416.201	0.1955
416.4059	0.1823
416.6108	0.1978
416.8156	0.2053
417.0205	0.1916
417.2253	0.1885
417.4301	0.1969
417.6349	0.1911
417.8397	0.1896
418.0445	0.1996
418.2492	0.198
418.454	0.2138
418.6587	0.198
418.8634	0.203
419.0681	0.1755
419.2728	0.1889
419.4775	0.1819
419.6822	0.1841
419.8868	0.1789
420.0915	0.196
420.2961	0.1767
420.5007	0.1968
420.7053	0.192
420.9099	0.1995
421.1144	0.1942
421.319	0.1693
421.5235	0.1879
421.728	0.1847
421.9325	0.1841
422.137	0.1859
422.3415	0.1854
422.546	0.1874
422.7504	0.1766
422.9549	0.1701
423.1593	0.2042
423.3637	0.1766
423.5681	0.1735
423.7725	0.1621
423.9769	0.1764
424.1812	0.1745
424.3856	0.1851
424.5899	0.1687
424.7942	0.1829
424.9985	0.1724
425.2028	0.1684
425.4071	0.1827
425.6113	0.1608
425.8156	0.1641
426.0198	0.1597
426.224	0.1676
426.4282	0.1565
426.6324	0.163
426.8366	0.1582
