Data from MonoPyChalIsomerACN10uM360nmA_Absorbance_13-57-29-104.txt Node
Date: Fri Jul 05 13:57:29 BST 2024
User: LASERRRRR
Spectrometer: FLMT03099
Trigger mode: 0
Integration Time (sec): 1.000000E-1
Scans to average: 1
Electric dark correction enabled: true
Nonlinearity correction enabled: false
Boxcar width: 0
XAxis mode: Wavelengths
Number of Pixels in Spectrum: 3648
>>>>>Begin Spectral Data<<<<<
179.3399	0.5829
179.5586	0.5829
179.7771	0.5829
179.9957	-0
180.2143	-0
180.4329	-0.121
180.6514	-0
180.8699	-0
181.0885	0.0314
181.307	0.1997
181.5255	-0.9942
181.744	-0.2354
181.9625	-0
182.181	-0
182.3994	-0
182.6179	-0
182.8363	-0.0589
183.0547	-0.2186
183.2732	-0.0238
183.4916	0.1453
183.71	0.5798
183.9284	-0.0377
184.1467	-0.15
184.3651	-0.1018
184.5835	0.0373
184.8018	0.0807
185.0201	0.1098
185.2385	0.0898
185.4568	0.2634
185.6751	0.1416
185.8934	0.3344
186.1117	-0.0463
186.3299	0.1255
186.5482	0.1227
186.7664	-0.1616
186.9847	-0.0599
187.2029	0.0197
187.4211	-0.0756
187.6393	1.0544
187.8575	-0.1146
188.0757	0.226
188.2939	0.0161
188.512	0.5799
188.7302	0.0236
188.9483	-0.1675
189.1665	0.1561
189.3846	-0.4314
189.6027	0.2244
189.8208	0.0833
190.0389	0.1313
190.257	0.0118
190.475	0.1657
190.6931	0.2454
190.9111	0.1187
191.1292	0.1119
191.3472	0.3873
191.5652	0.1315
191.7832	0.1175
192.0012	0.4067
192.2192	0.3754
192.4371	0.3783
192.6551	0.2685
192.873	0.314
193.091	0.3638
193.3089	0.5
193.5268	0.6685
193.7447	0.632
193.9626	0.4613
194.1805	0.5014
194.3984	0.7561
194.6162	0.6141
194.8341	0.4862
195.0519	0.5732
195.2697	0.661
195.4875	0.5836
195.7054	0.5222
195.9231	0.5298
196.1409	0.6881
196.3587	0.6569
196.5765	0.6013
196.7942	0.5703
197.012	0.4972
197.2297	0.5265
197.4474	0.6466
197.6651	0.3903
197.8828	0.567
198.1005	0.5214
198.3182	0.5528
198.5358	0.841
198.7535	0.6346
198.9711	0.5539
199.1888	0.656
199.4064	0.7672
199.624	0.6104
199.8416	0.6219
200.0592	0.4681
200.2767	0.7003
200.4943	0.8107
200.7119	0.839
200.9294	0.6484
201.1469	0.6022
201.3645	0.5913
201.582	0.6396
201.7995	0.8408
202.017	0.5519
202.2344	0.6179
202.4519	0.5414
202.6694	0.6258
202.8868	0.6559
203.1042	0.7103
203.3217	0.6218
203.5391	0.5939
203.7565	0.5683
203.9739	0.6515
204.1913	0.5269
204.4086	0.6174
204.626	0.7234
204.8433	0.6421
205.0607	0.5946
205.278	0.6955
205.4953	0.6212
205.7126	0.6431
205.9299	0.7139
206.1472	0.6581
206.3644	0.6217
206.5817	0.6283
206.7989	0.697
207.0162	0.6144
207.2334	0.6536
207.4506	0.5901
207.6678	0.6507
207.885	0.6773
208.1022	0.6593
208.3194	0.6759
208.5365	0.6633
208.7537	0.6099
208.9708	0.5735
209.1879	0.6097
209.405	0.6487
209.6222	0.5911
209.8392	0.586
210.0563	0.5618
210.2734	0.5403
210.4905	0.6192
210.7075	0.5845
210.9245	0.5318
211.1416	0.6146
211.3586	0.5561
211.5756	0.5823
211.7926	0.6319
212.0096	0.5794
212.2265	0.5461
212.4435	0.5854
212.6604	0.5505
212.8774	0.5612
213.0943	0.5804
213.3112	0.5808
213.5281	0.5098
213.745	0.4915
213.9619	0.4853
214.1788	0.4681
214.3956	0.4113
214.6125	0.425
214.8293	0.4154
215.0461	0.5099
215.2629	0.4265
215.4798	0.4933
215.6965	0.4104
215.9133	0.4496
216.1301	0.437
216.3469	0.4543
216.5636	0.4247
216.7803	0.3965
216.9971	0.3963
217.2138	0.3708
217.4305	0.3439
217.6472	0.3622
217.8639	0.3812
218.0805	0.3425
218.2972	0.3592
218.5138	0.3181
218.7305	0.3144
218.9471	0.3384
219.1637	0.2931
219.3803	0.2882
219.5969	0.2701
219.8135	0.2465
220.0301	0.2917
220.2466	0.2849
220.4632	0.2655
220.6797	0.2353
220.8962	0.2575
221.1127	0.2544
221.3292	0.2893
221.5457	0.2408
221.7622	0.2389
221.9787	0.2546
222.1951	0.227
222.4116	0.2505
222.628	0.2533
222.8444	0.2375
223.0608	0.2641
223.2772	0.2589
223.4936	0.2479
223.71	0.2575
223.9264	0.2755
224.1427	0.2664
224.3591	0.2588
224.5754	0.2791
224.7917	0.2632
225.008	0.2796
225.2243	0.2664
225.4406	0.2918
225.6569	0.2855
225.8732	0.2804
226.0894	0.2671
226.3057	0.2718
226.5219	0.2856
226.7381	0.2765
226.9543	0.2866
227.1705	0.2985
227.3867	0.2808
227.6029	0.3056
227.8191	0.295
228.0352	0.2888
228.2513	0.3191
228.4675	0.3022
228.6836	0.3188
228.8997	0.3013
229.1158	0.3289
229.3319	0.3251
229.548	0.3243
229.764	0.3367
229.9801	0.3267
230.1961	0.3138
230.4121	0.3343
230.6282	0.3166
230.8442	0.3156
231.0602	0.34
231.2761	0.3385
231.4921	0.3429
231.7081	0.3662
231.924	0.3375
232.14	0.3669
232.3559	0.3368
232.5718	0.3762
232.7877	0.3509
233.0036	0.345
233.2195	0.3539
233.4353	0.3541
233.6512	0.3588
233.867	0.3688
234.0829	0.3532
234.2987	0.3577
234.5145	0.3812
234.7303	0.3766
234.9461	0.3992
235.1619	0.3829
235.3776	0.3844
235.5934	0.3827
235.8091	0.3835
236.0249	0.3725
236.2406	0.385
236.4563	0.4088
236.672	0.3889
236.8877	0.3954
237.1034	0.4033
237.319	0.3973
237.5347	0.4032
237.7503	0.4116
237.966	0.4166
238.1816	0.4017
238.3972	0.3998
238.6128	0.3963
238.8284	0.4105
239.0439	0.4058
239.2595	0.398
239.475	0.402
239.6906	0.4175
239.9061	0.409
240.1216	0.4169
240.3371	0.4111
240.5526	0.3945
240.7681	0.4184
240.9836	0.4019
241.199	0.3952
241.4145	0.3883
241.6299	0.391
241.8453	0.3812
242.0607	0.3716
242.2761	0.3648
242.4915	0.3675
242.7069	0.3569
242.9223	0.3665
243.1376	0.3581
243.353	0.3453
243.5683	0.3494
243.7836	0.3338
243.9989	0.333
244.2142	0.3001
244.4295	0.3351
244.6448	0.3172
244.86	0.3179
245.0753	0.294
245.2905	0.288
245.5057	0.2954
245.721	0.2769
245.9362	0.2797
246.1514	0.2807
246.3665	0.2598
246.5817	0.2595
246.7969	0.2574
247.012	0.2485
247.2271	0.232
247.4423	0.2478
247.6574	0.247
247.8725	0.2397
248.0876	0.2198
248.3026	0.2325
248.5177	0.2114
248.7328	0.2158
248.9478	0.2122
249.1628	0.2048
249.3779	0.2189
249.5929	0.2046
249.8079	0.2239
250.0228	0.2099
250.2378	0.2092
250.4528	0.2007
250.6677	0.1968
250.8827	0.1908
251.0976	0.1995
251.3125	0.1894
251.5274	0.1763
251.7423	0.1937
251.9572	0.1867
252.172	0.1804
252.3869	0.1879
252.6017	0.1821
252.8166	0.1724
253.0314	0.1688
253.2462	0.1651
253.461	0.1854
253.6758	0.1767
253.8906	0.1745
254.1053	0.1679
254.3201	0.172
254.5348	0.1718
254.7496	0.1731
254.9643	0.1546
255.179	0.1755
255.3937	0.1685
255.6083	0.1729
255.823	0.1714
256.0377	0.1537
256.2523	0.1661
256.467	0.1556
256.6816	0.17
256.8962	0.1749
257.1108	0.1566
257.3254	0.1707
257.54	0.1666
257.7545	0.1741
257.9691	0.1747
258.1836	0.1724
258.3981	0.1754
258.6127	0.1746
258.8272	0.1707
259.0417	0.1604
259.2561	0.1726
259.4706	0.1631
259.6851	0.1731
259.8995	0.1687
260.114	0.1625
260.3284	0.1631
260.5428	0.1619
260.7572	0.1685
260.9716	0.1736
261.186	0.1569
261.4003	0.1669
261.6147	0.1784
261.829	0.1709
262.0433	0.1616
262.2577	0.1653
262.472	0.1637
262.6863	0.163
262.9005	0.1599
263.1148	0.1679
263.3291	0.1488
263.5433	0.1606
263.7576	0.1654
263.9718	0.1551
264.186	0.1664
264.4002	0.159
264.6144	0.163
264.8286	0.1707
265.0427	0.1702
265.2569	0.1549
265.471	0.1432
265.6851	0.1541
265.8993	0.1566
266.1134	0.1514
266.3275	0.1617
266.5415	0.1594
266.7556	0.1715
266.9697	0.159
267.1837	0.1594
267.3978	0.1517
267.6118	0.1616
267.8258	0.1762
268.0398	0.1552
268.2538	0.164
268.4677	0.1636
268.6817	0.1564
268.8957	0.1741
269.1096	0.1599
269.3235	0.1667
269.5374	0.1592
269.7514	0.157
269.9652	0.158
270.1791	0.1459
270.393	0.1446
270.6068	0.1526
270.8207	0.1442
271.0345	0.1474
271.2483	0.1579
271.4622	0.153
271.676	0.1504
271.8897	0.1396
272.1035	0.1416
272.3173	0.1424
272.531	0.151
272.7448	0.1329
272.9585	0.1408
273.1722	0.1448
273.3859	0.1569
273.5996	0.135
273.8133	0.1459
274.0269	0.1507
274.2406	0.1566
274.4542	0.1415
274.6679	0.1341
274.8815	0.1468
275.0951	0.1419
275.3087	0.1418
275.5223	0.1486
275.7358	0.1464
275.9494	0.1511
276.1629	0.1271
276.3765	0.1353
276.59	0.1568
276.8035	0.1451
277.017	0.1581
277.2305	0.1432
277.444	0.1621
277.6574	0.1286
277.8709	0.1445
278.0843	0.1424
278.2978	0.152
278.5112	0.1269
278.7246	0.1315
278.938	0.1405
279.1513	0.1466
279.3647	0.1563
279.5781	0.1543
279.7914	0.1553
280.0047	0.1576
280.2181	0.1497
280.4314	0.1477
280.6447	0.147
280.8579	0.1525
281.0712	0.1617
281.2845	0.1574
281.4977	0.1549
281.711	0.138
281.9242	0.1501
282.1374	0.1594
282.3506	0.1489
282.5638	0.1568
282.7769	0.1489
282.9901	0.1465
283.2033	0.1637
283.4164	0.156
283.6295	0.1402
283.8426	0.1525
284.0557	0.1528
284.2688	0.1642
284.4819	0.1593
284.695	0.1539
284.908	0.1565
285.1211	0.1583
285.3341	0.1504
285.5471	0.1652
285.7601	0.1668
285.9731	0.1557
286.1861	0.1409
286.3991	0.1665
286.612	0.178
286.825	0.1617
287.0379	0.1589
287.2508	0.1724
287.4637	0.1749
287.6766	0.1507
287.8895	0.1681
288.1024	0.1844
288.3152	0.1676
288.5281	0.1501
288.7409	0.1646
288.9538	0.1731
289.1666	0.1581
289.3794	0.1663
289.5922	0.1632
289.8049	0.1612
290.0177	0.1537
290.2304	0.1614
290.4432	0.162
290.6559	0.1676
290.8686	0.161
291.0813	0.1521
291.294	0.1718
291.5067	0.1712
291.7194	0.17
291.932	0.1822
292.1447	0.1615
292.3573	0.1394
292.5699	0.1719
292.7825	0.165
292.9951	0.1593
293.2077	0.1663
293.4203	0.163
293.6328	0.16
293.8454	0.1713
294.0579	0.1467
294.2704	0.1647
294.4829	0.1595
294.6954	0.1629
294.9079	0.1659
295.1204	0.161
295.3328	0.1577
295.5453	0.1544
295.7577	0.1579
295.9701	0.1638
296.1825	0.1649
296.3949	0.1506
296.6073	0.1499
296.8197	0.16
297.0321	0.1774
297.2444	0.1632
297.4567	0.1657
297.6691	0.1645
297.8814	0.151
298.0937	0.1587
298.306	0.1715
298.5182	0.1578
298.7305	0.1601
298.9428	0.1578
299.155	0.1611
299.3672	0.1558
299.5794	0.1462
299.7916	0.1557
300.0038	0.1716
300.216	0.1648
300.4282	0.1579
300.6403	0.1556
300.8525	0.168
301.0646	0.1526
301.2767	0.1599
301.4888	0.1537
301.7009	0.1615
301.913	0.1578
302.125	0.1541
302.3371	0.1512
302.5491	0.1616
302.7612	0.1728
302.9732	0.1569
303.1852	0.1598
303.3972	0.1586
303.6092	0.1575
303.8211	0.1444
304.0331	0.1542
304.245	0.1533
304.457	0.1442
304.6689	0.1464
304.8808	0.1594
305.0927	0.152
305.3046	0.154
305.5164	0.1645
305.7283	0.1509
305.9401	0.1487
306.152	0.147
306.3638	0.1375
306.5756	0.1451
306.7874	0.144
306.9992	0.1464
307.2109	0.1425
307.4227	0.127
307.6344	0.1394
307.8462	0.1315
308.0579	0.1342
308.2696	0.129
308.4813	0.1314
308.693	0.1307
308.9046	0.1428
309.1163	0.1266
309.328	0.1232
309.5396	0.1109
309.7512	0.1185
309.9628	0.1268
310.1744	0.1232
310.386	0.1256
310.5976	0.1217
310.8091	0.1113
311.0207	0.1076
311.2322	0.1254
311.4437	0.1153
311.6552	0.1093
311.8667	0.109
312.0782	0.0959
312.2897	0.1072
312.5012	0.1155
312.7126	0.1063
312.924	0.113
313.1355	0.1144
313.3469	0.1078
313.5583	0.1097
313.7696	0.1052
313.981	0.1182
314.1924	0.0994
314.4037	0.1064
314.6151	0.1067
314.8264	0.0903
315.0377	0.1
315.249	0.103
315.4603	0.1061
315.6716	0.1051
315.8828	0.1003
316.0941	0.1006
316.3053	0.0983
316.5165	0.099
316.7277	0.09
316.9389	0.1078
317.1501	0.0943
317.3613	0.0974
317.5724	0.0949
317.7836	0.1037
317.9947	0.0988
318.2058	0.0996
318.417	0.083
318.6281	0.0903
318.8391	0.0946
319.0502	0.0958
319.2613	0.0971
319.4723	0.1038
319.6834	0.104
319.8944	0.0885
320.1054	0.0954
320.3164	0.0961
320.5274	0.0952
320.7383	0.101
320.9493	0.1015
321.1602	0.1091
321.3712	0.077
321.5821	0.0962
321.793	0.1015
322.0039	0.1083
322.2148	0.0959
322.4257	0.1019
322.6365	0.1042
322.8474	0.107
323.0582	0.0902
323.269	0.1003
323.4798	0.1048
323.6906	0.102
323.9014	0.1048
324.1122	0.1149
324.3229	0.0974
324.5337	0.1013
324.7444	0.1001
324.9551	0.1143
325.1658	0.0977
325.3765	0.1035
325.5872	0.1037
325.7979	0.1018
326.0085	0.1083
326.2192	0.0982
326.4298	0.112
326.6404	0.0997
326.851	0.0852
327.0616	0.0935
327.2722	0.0973
327.4828	0.1065
327.6933	0.1002
327.9039	0.11
328.1144	0.1188
328.3249	0.1101
328.5354	0.1089
328.7459	0.093
328.9564	0.0987
329.1669	0.1136
329.3773	0.1102
329.5878	0.1118
329.7982	0.1011
330.0086	0.0946
330.219	0.1075
330.4294	0.1037
330.6398	0.111
330.8502	0.0973
331.0605	0.1113
331.2708	0.1099
331.4812	0.1031
331.6915	0.1112
331.9018	0.1125
332.1121	0.1092
332.3224	0.1045
332.5326	0.1127
332.7429	0.108
332.9531	0.1173
333.1633	0.1114
333.3735	0.1115
333.5837	0.0973
333.7939	0.0967
334.0041	0.1209
334.2143	0.1061
334.4244	0.1017
334.6346	0.0968
334.8447	0.1271
335.0548	0.1059
335.2649	0.1056
335.475	0.1136
335.685	0.1048
335.8951	0.1215
336.1051	0.1206
336.3152	0.116
336.5252	0.1108
336.7352	0.1159
336.9452	0.1127
337.1552	0.119
337.3652	0.1036
337.5751	0.12
337.7851	0.1154
337.995	0.1024
338.2049	0.115
338.4148	0.1141
338.6247	0.1178
338.8346	0.1147
339.0445	0.1008
339.2543	0.1201
339.4642	0.1186
339.674	0.115
339.8838	0.1213
340.0936	0.1292
340.3034	0.1314
340.5132	0.1353
340.7229	0.1112
340.9327	0.1214
341.1424	0.1164
341.3522	0.1284
341.5619	0.1234
341.7716	0.1225
341.9813	0.1235
342.1909	0.113
342.4006	0.1157
342.6102	0.125
342.8199	0.1317
343.0295	0.1174
343.2391	0.1278
343.4487	0.1391
343.6583	0.1215
343.8679	0.1238
344.0774	0.1209
344.287	0.1191
344.4965	0.1331
344.706	0.1221
344.9155	0.1252
345.125	0.1225
345.3345	0.1245
345.544	0.1269
345.7534	0.1306
345.9629	0.1271
346.1723	0.1237
346.3817	0.1192
346.5911	0.1294
346.8005	0.15
347.0099	0.1281
347.2193	0.1395
347.4286	0.1387
347.638	0.1427
347.8473	0.1324
348.0566	0.1409
348.2659	0.1407
348.4752	0.1281
348.6845	0.129
348.8937	0.132
349.103	0.1362
349.3122	0.1323
349.5214	0.1309
349.7306	0.1419
349.9398	0.1275
350.149	0.1226
350.3582	0.1281
350.5674	0.1471
350.7765	0.1393
350.9856	0.1383
351.1948	0.1376
351.4039	0.1268
351.613	0.1304
351.822	0.1368
352.0311	0.1394
352.2402	0.1507
352.4492	0.1549
352.6582	0.1563
352.8672	0.1455
353.0762	0.1521
353.2852	0.1349
353.4942	0.1382
353.7032	0.1583
353.9121	0.1407
354.1211	0.1545
354.33	0.1461
354.5389	0.139
354.7478	0.1474
354.9567	0.1489
355.1655	0.1428
355.3744	0.1638
355.5833	0.1543
355.7921	0.1682
356.0009	0.1453
356.2097	0.1647
356.4185	0.1735
356.6273	0.155
356.8361	0.1628
357.0448	0.1499
357.2536	0.1509
357.4623	0.146
357.671	0.1678
357.8797	0.1628
358.0884	0.1594
358.2971	0.1507
358.5057	0.1708
358.7144	0.1641
358.923	0.157
359.1316	0.1588
359.3402	0.1687
359.5488	0.1658
359.7574	0.163
359.966	0.1689
360.1746	0.1706
360.3831	0.1667
360.5916	0.1532
360.8002	0.158
361.0087	0.1785
361.2172	0.18
361.4256	0.1814
361.6341	0.1896
361.8426	0.188
362.051	0.1795
362.2594	0.168
362.4678	0.1843
362.6762	0.1896
362.8846	0.1795
363.093	0.178
363.3014	0.1796
363.5097	0.1639
363.718	0.18
363.9264	0.1863
364.1347	0.1807
364.343	0.1931
364.5513	0.2104
364.7595	0.1981
364.9678	0.1906
365.176	0.1776
365.3842	0.1733
365.5925	0.1879
365.8007	0.1925
366.0089	0.1821
366.217	0.1937
366.4252	0.2009
366.6333	0.2163
366.8415	0.2021
367.0496	0.1878
367.2577	0.212
367.4658	0.2083
367.6739	0.2006
367.882	0.2242
368.09	0.2065
368.2981	0.2108
368.5061	0.2063
368.7141	0.203
368.9221	0.2107
369.1301	0.2188
369.3381	0.2003
369.5461	0.2024
369.754	0.2085
369.962	0.2257
370.1699	0.2048
370.3778	0.2051
370.5857	0.2076
370.7936	0.2093
371.0015	0.2004
371.2093	0.204
371.4172	0.2303
371.625	0.2088
371.8328	0.2077
372.0406	0.2051
372.2484	0.2222
372.4562	0.2018
372.664	0.2234
372.8717	0.2355
373.0795	0.1842
373.2872	0.2153
373.4949	0.2222
373.7026	0.2167
373.9103	0.2256
374.118	0.2261
374.3256	0.2226
374.5333	0.1993
374.7409	0.2136
374.9485	0.243
375.1561	0.2409
375.3637	0.2263
375.5713	0.2371
375.7789	0.2359
375.9864	0.2251
376.194	0.2105
376.4015	0.2312
376.609	0.2269
376.8165	0.2384
377.024	0.2174
377.2315	0.2179
377.4389	0.2379
377.6464	0.2396
377.8538	0.2331
378.0612	0.2318
378.2686	0.2454
378.476	0.2626
378.6834	0.235
378.8908	0.2468
379.0981	0.2371
379.3055	0.2504
379.5128	0.2293
379.7201	0.2634
379.9274	0.2366
380.1347	0.2245
380.342	0.2579
380.5492	0.2343
380.7565	0.2387
380.9637	0.2455
381.1709	0.2446
381.3781	0.2516
381.5853	0.2401
381.7925	0.2265
381.9997	0.2718
382.2068	0.2701
382.4139	0.247
382.6211	0.2294
382.8282	0.2544
383.0353	0.2486
383.2424	0.2484
383.4494	0.2656
383.6565	0.2453
383.8635	0.2369
384.0706	0.2415
384.2776	0.2501
384.4846	0.2349
384.6916	0.2553
384.8986	0.2329
385.1055	0.2485
385.3125	0.2564
385.5194	0.2294
385.7263	0.2501
385.9333	0.2384
386.1402	0.2629
386.347	0.2457
386.5539	0.2435
386.7608	0.2563
386.9676	0.2391
387.1744	0.2522
387.3813	0.242
387.5881	0.2502
387.7948	0.2345
388.0016	0.2266
388.2084	0.2291
388.4151	0.2335
388.6219	0.228
388.8286	0.2345
389.0353	0.2558
389.242	0.2486
389.4487	0.2258
389.6553	0.2332
389.862	0.2137
390.0686	0.2193
390.2753	0.2243
390.4819	0.2419
390.6885	0.2346
390.8951	0.2258
391.1016	0.2281
391.3082	0.228
391.5147	0.2348
391.7213	0.2313
391.9278	0.2163
392.1343	0.2231
392.3408	0.2231
392.5473	0.2242
392.7537	0.2245
392.9602	0.2215
393.1666	0.2265
393.373	0.2206
393.5794	0.2187
393.7858	0.214
393.9922	0.2031
394.1986	0.2282
394.4049	0.2203
394.6113	0.2151
394.8176	0.2111
395.0239	0.2097
395.2302	0.2188
395.4365	0.2064
395.6428	0.2118
395.8491	0.2138
396.0553	0.2233
396.2615	0.2112
396.4678	0.1951
396.674	0.1992
396.8802	0.2118
397.0863	0.2267
397.2925	0.2095
397.4987	0.204
397.7048	0.1909
397.9109	0.2105
398.117	0.1891
398.3231	0.2077
398.5292	0.2156
398.7353	0.2043
398.9413	0.2024
399.1474	0.2031
399.3534	0.2049
399.5594	0.2003
399.7654	0.2154
399.9714	0.2261
400.1774	0.2093
400.3833	0.1957
400.5893	0.2108
400.7952	0.1964
401.0011	0.2029
401.207	0.2222
401.4129	0.2074
401.6188	0.2105
401.8247	0.2136
402.0305	0.1965
402.2364	0.2035
402.4422	0.208
402.648	0.2136
402.8538	0.2279
403.0596	0.2095
403.2654	0.2041
403.4711	0.198
403.6768	0.2063
403.8826	0.2042
404.0883	0.2099
404.294	0.2159
404.4997	0.2225
404.7054	0.2087
404.911	0.1905
405.1167	0.2047
405.3223	0.2242
405.5279	0.2165
405.7335	0.2144
405.9391	0.2082
406.1447	0.1953
406.3502	0.2281
406.5558	0.205
406.7613	0.209
406.9668	0.2044
407.1724	0.1982
407.3778	0.1963
407.5833	0.1978
407.7888	0.1795
407.9942	0.2169
408.1997	0.2094
408.4051	0.1949
408.6105	0.2006
408.8159	0.2008
409.0213	0.195
409.2267	0.2097
409.432	0.1824
409.6374	0.2092
409.8427	0.196
410.048	0.2143
410.2533	0.2285
410.4586	0.1997
410.6639	0.2066
410.8691	0.1852
411.0744	0.2088
411.2796	0.2
411.4848	0.1914
411.69	0.1952
411.8952	0.222
412.1004	0.1765
412.3056	0.2103
412.5107	0.2129
412.7158	0.1965
412.921	0.2182
413.1261	0.2032
413.3312	0.1841
413.5362	0.2015
413.7413	0.1916
413.9464	0.1903
414.1514	0.2047
414.3564	0.1937
414.5614	0.1869
414.7664	0.2143
414.9714	0.1876
415.1764	0.209
415.3813	0.2105
415.5863	0.1997
415.7912	0.1889
415.9961	0.1975
416.201	0.1842
416.4059	0.2073
416.6108	0.1971
416.8156	0.1845
417.0205	0.1914
417.2253	0.1826
417.4301	0.1881
417.6349	0.1794
417.8397	0.1808
418.0445	0.1937
418.2492	0.1933
418.454	0.1723
418.6587	0.2004
418.8634	0.1874
419.0681	0.1699
419.2728	0.1867
419.4775	0.1965
419.6822	0.1858
419.8868	0.1622
420.0915	0.1909
420.2961	0.1726
420.5007	0.1751
420.7053	0.1916
420.9099	0.1855
421.1144	0.177
421.319	0.1701
421.5235	0.1855
421.728	0.1769
421.9325	0.1888
422.137	0.1776
422.3415	0.1668
422.546	0.1688
422.7504	0.1788
422.9549	0.1849
423.1593	0.1944
423.3637	0.1737
423.5681	0.1761
423.7725	0.1689
423.9769	0.1627
424.1812	0.1604
424.3856	0.1721
424.5899	0.1703
424.7942	0.1671
424.9985	0.1715
425.2028	0.1724
425.4071	0.1731
425.6113	0.1424
425.8156	0.1633
426.0198	0.1724
426.224	0.1577
426.4282	0.1546
426.6324	0.1598
426.8366	0.1598
