Data from MonoPyChalIsomerACN10uM360nmA_Absorbance_13-57-26-004.txt Node
Date: Fri Jul 05 13:57:26 BST 2024
User: LASERRRRR
Spectrometer: FLMT03099
Trigger mode: 0
Integration Time (sec): 1.000000E-1
Scans to average: 1
Electric dark correction enabled: true
Nonlinearity correction enabled: false
Boxcar width: 0
XAxis mode: Wavelengths
Number of Pixels in Spectrum: 3648
>>>>>Begin Spectral Data<<<<<
179.3399	-0.3481
179.5586	-0.3481
179.7771	-0.3481
179.9957	-0
180.2143	-0
180.4329	0.0131
180.6514	-0
180.8699	-0
181.0885	-0.1545
181.307	0.424
181.5255	-0.9825
181.744	-0
181.9625	-0
182.181	-0
182.3994	-0
182.6179	-0
182.8363	-0.079
183.0547	0.1341
183.2732	-0.0282
183.4916	-0.0471
183.71	-0.0889
183.9284	-0.0011
184.1467	-0.1021
184.3651	-0.0505
184.5835	0.0034
184.8018	0.4941
185.0201	0.1087
185.2385	-0.1395
185.4568	0.0871
185.6751	0.3147
185.8934	0.3838
186.1117	-0.073
186.3299	0.0532
186.5482	0.2361
186.7664	0.1311
186.9847	0.0419
187.2029	-0.0382
187.4211	0.1062
187.6393	0.1408
187.8575	-0.1375
188.0757	0.3609
188.2939	0.1047
188.512	0.1272
188.7302	0.0612
188.9483	-0.0079
189.1665	0.0757
189.3846	0.08
189.6027	0.3344
189.8208	0.161
190.0389	0.1114
190.257	0.0562
190.475	0.1947
190.6931	0.191
190.9111	1.643
191.1292	0.0772
191.3472	0.5991
191.5652	0.236
191.7832	0.1883
192.0012	0.5246
192.2192	0.2897
192.4371	1.0245
192.6551	0.3038
192.873	0.6413
193.091	0.4468
193.3089	0.6702
193.5268	0.5026
193.7447	0.5272
193.9626	0.6394
194.1805	0.692
194.3984	0.7699
194.6162	0.5582
194.8341	0.4675
195.0519	0.5142
195.2697	0.5256
195.4875	0.9559
195.7054	0.6472
195.9231	0.6214
196.1409	0.4961
196.3587	0.785
196.5765	0.6585
196.7942	0.527
197.012	0.5998
197.2297	0.5823
197.4474	0.5864
197.6651	0.4872
197.8828	0.5779
198.1005	0.5585
198.3182	0.5584
198.5358	0.7869
198.7535	0.6875
198.9711	0.5439
199.1888	0.5755
199.4064	0.8158
199.624	0.5873
199.8416	0.6067
200.0592	0.7352
200.2767	0.6305
200.4943	0.54
200.7119	0.8252
200.9294	0.6901
201.1469	0.5848
201.3645	0.6361
201.582	0.6364
201.7995	0.7426
202.017	0.612
202.2344	0.6128
202.4519	0.6657
202.6694	0.5694
202.8868	0.605
203.1042	0.5924
203.3217	0.7253
203.5391	0.7211
203.7565	0.5427
203.9739	0.7201
204.1913	0.6315
204.4086	0.615
204.626	0.6654
204.8433	0.6163
205.0607	0.6782
205.278	0.7176
205.4953	0.631
205.7126	0.6591
205.9299	0.7508
206.1472	0.6465
206.3644	0.6655
206.5817	0.7045
206.7989	0.6587
207.0162	0.6928
207.2334	0.6702
207.4506	0.6285
207.6678	0.6234
207.885	0.6656
208.1022	0.6642
208.3194	0.6773
208.5365	0.6378
208.7537	0.5984
208.9708	0.5519
209.1879	0.7208
209.405	0.7856
209.6222	0.7476
209.8392	0.6282
210.0563	0.6632
210.2734	0.698
210.4905	0.6095
210.7075	0.6061
210.9245	0.5827
211.1416	0.6649
211.3586	0.6016
211.5756	0.5614
211.7926	0.6067
212.0096	0.6147
212.2265	0.6273
212.4435	0.5472
212.6604	0.5725
212.8774	0.6098
213.0943	0.5771
213.3112	0.5401
213.5281	0.5069
213.745	0.5335
213.9619	0.5506
214.1788	0.4728
214.3956	0.4583
214.6125	0.4964
214.8293	0.4235
215.0461	0.514
215.2629	0.4555
215.4798	0.4857
215.6965	0.4365
215.9133	0.4537
216.1301	0.4175
216.3469	0.47
216.5636	0.4277
216.7803	0.4013
216.9971	0.3933
217.2138	0.4051
217.4305	0.363
217.6472	0.3585
217.8639	0.4136
218.0805	0.3676
218.2972	0.2991
218.5138	0.323
218.7305	0.3201
218.9471	0.3259
219.1637	0.3124
219.3803	0.2732
219.5969	0.3003
219.8135	0.2677
220.0301	0.2722
220.2466	0.3015
220.4632	0.2684
220.6797	0.2625
220.8962	0.2423
221.1127	0.2791
221.3292	0.2783
221.5457	0.2606
221.7622	0.2317
221.9787	0.2624
222.1951	0.24
222.4116	0.2586
222.628	0.2667
222.8444	0.268
223.0608	0.2678
223.2772	0.2573
223.4936	0.269
223.71	0.2681
223.9264	0.2783
224.1427	0.2522
224.3591	0.2553
224.5754	0.2863
224.7917	0.2706
225.008	0.2569
225.2243	0.2343
225.4406	0.2819
225.6569	0.2661
225.8732	0.2549
226.0894	0.2659
226.3057	0.2735
226.5219	0.2924
226.7381	0.2908
226.9543	0.3071
227.1705	0.2869
227.3867	0.2938
227.6029	0.3174
227.8191	0.2955
228.0352	0.3246
228.2513	0.327
228.4675	0.2919
228.6836	0.3036
228.8997	0.3021
229.1158	0.3055
229.3319	0.3125
229.548	0.3251
229.764	0.321
229.9801	0.3393
230.1961	0.326
230.4121	0.3566
230.6282	0.3173
230.8442	0.3334
231.0602	0.3496
231.2761	0.3468
231.4921	0.3403
231.7081	0.355
231.924	0.3418
232.14	0.3548
232.3559	0.3504
232.5718	0.3596
232.7877	0.3774
233.0036	0.3568
233.2195	0.3681
233.4353	0.3551
233.6512	0.3617
233.867	0.3652
234.0829	0.3558
234.2987	0.3667
234.5145	0.3839
234.7303	0.3899
234.9461	0.4005
235.1619	0.3837
235.3776	0.3771
235.5934	0.3868
235.8091	0.3808
236.0249	0.3648
236.2406	0.3987
236.4563	0.3945
236.672	0.3926
236.8877	0.4138
237.1034	0.3885
237.319	0.4032
237.5347	0.4132
237.7503	0.4002
237.966	0.4063
238.1816	0.4155
238.3972	0.4236
238.6128	0.3981
238.8284	0.4056
239.0439	0.4247
239.2595	0.3993
239.475	0.4046
239.6906	0.4045
239.9061	0.4031
240.1216	0.3974
240.3371	0.4201
240.5526	0.3988
240.7681	0.4199
240.9836	0.3801
241.199	0.3939
241.4145	0.39
241.6299	0.4035
241.8453	0.3795
242.0607	0.3878
242.2761	0.3716
242.4915	0.3599
242.7069	0.3693
242.9223	0.3618
243.1376	0.3456
243.353	0.3367
243.5683	0.3452
243.7836	0.3419
243.9989	0.33
244.2142	0.3224
244.4295	0.325
244.6448	0.2993
244.86	0.3033
245.0753	0.2801
245.2905	0.2902
245.5057	0.2796
245.721	0.2795
245.9362	0.2697
246.1514	0.2794
246.3665	0.2591
246.5817	0.2478
246.7969	0.2617
247.012	0.249
247.2271	0.2484
247.4423	0.2471
247.6574	0.242
247.8725	0.2366
248.0876	0.2482
248.3026	0.2268
248.5177	0.2176
248.7328	0.2225
248.9478	0.2016
249.1628	0.2168
249.3779	0.211
249.5929	0.2093
249.8079	0.2198
250.0228	0.2071
250.2378	0.2027
250.4528	0.2081
250.6677	0.1905
250.8827	0.2018
251.0976	0.1914
251.3125	0.1827
251.5274	0.176
251.7423	0.1787
251.9572	0.1869
252.172	0.1826
252.3869	0.1769
252.6017	0.1814
252.8166	0.1728
253.0314	0.1777
253.2462	0.1735
253.461	0.1693
253.6758	0.17
253.8906	0.1753
254.1053	0.1636
254.3201	0.1714
254.5348	0.1829
254.7496	0.1723
254.9643	0.1699
255.179	0.1778
255.3937	0.1696
255.6083	0.1756
255.823	0.1751
256.0377	0.1664
256.2523	0.1684
256.467	0.1578
256.6816	0.1776
256.8962	0.1596
257.1108	0.1699
257.3254	0.1798
257.54	0.156
257.7545	0.1663
257.9691	0.1708
258.1836	0.158
258.3981	0.1758
258.6127	0.1818
258.8272	0.1624
259.0417	0.1653
259.2561	0.1613
259.4706	0.1734
259.6851	0.148
259.8995	0.1654
260.114	0.1696
260.3284	0.1692
260.5428	0.1627
260.7572	0.1723
260.9716	0.1635
261.186	0.165
261.4003	0.1612
261.6147	0.1763
261.829	0.1684
262.0433	0.1561
262.2577	0.163
262.472	0.1733
262.6863	0.1583
262.9005	0.1692
263.1148	0.1651
263.3291	0.1449
263.5433	0.1625
263.7576	0.1599
263.9718	0.1727
264.186	0.1696
264.4002	0.1657
264.6144	0.1648
264.8286	0.1646
265.0427	0.1663
265.2569	0.1578
265.471	0.1491
265.6851	0.1524
265.8993	0.1469
266.1134	0.1669
266.3275	0.1556
266.5415	0.1539
266.7556	0.1608
266.9697	0.1702
267.1837	0.1672
267.3978	0.1527
267.6118	0.1655
267.8258	0.1738
268.0398	0.1494
268.2538	0.1747
268.4677	0.159
268.6817	0.159
268.8957	0.1602
269.1096	0.1543
269.3235	0.1636
269.5374	0.1581
269.7514	0.1482
269.9652	0.1589
270.1791	0.1452
270.393	0.1549
270.6068	0.154
270.8207	0.143
271.0345	0.1456
271.2483	0.1641
271.4622	0.1463
271.676	0.151
271.8897	0.1304
272.1035	0.1289
272.3173	0.1381
272.531	0.1494
272.7448	0.1363
272.9585	0.1333
273.1722	0.1483
273.3859	0.1514
273.5996	0.1402
273.8133	0.1484
274.0269	0.1379
274.2406	0.1338
274.4542	0.1448
274.6679	0.1393
274.8815	0.1406
275.0951	0.1475
275.3087	0.1598
275.5223	0.1522
275.7358	0.1422
275.9494	0.1437
276.1629	0.1379
276.3765	0.1403
276.59	0.1463
276.8035	0.146
277.017	0.1461
277.2305	0.1402
277.444	0.1569
277.6574	0.1462
277.8709	0.1537
278.0843	0.1357
278.2978	0.1382
278.5112	0.1471
278.7246	0.1492
278.938	0.1438
279.1513	0.1562
279.3647	0.1491
279.5781	0.1459
279.7914	0.1476
280.0047	0.1538
280.2181	0.1469
280.4314	0.1657
280.6447	0.152
280.8579	0.1522
281.0712	0.1659
281.2845	0.1589
281.4977	0.1599
281.711	0.1442
281.9242	0.1483
282.1374	0.1544
282.3506	0.1558
282.5638	0.1588
282.7769	0.1503
282.9901	0.1628
283.2033	0.1628
283.4164	0.1689
283.6295	0.1441
283.8426	0.1529
284.0557	0.1537
284.2688	0.1658
284.4819	0.1614
284.695	0.1484
284.908	0.1654
285.1211	0.1678
285.3341	0.1623
285.5471	0.1629
285.7601	0.1686
285.9731	0.1525
286.1861	0.1501
286.3991	0.1644
286.612	0.1661
286.825	0.1596
287.0379	0.1673
287.2508	0.1612
287.4637	0.1658
287.6766	0.1616
287.8895	0.1634
288.1024	0.174
288.3152	0.1639
288.5281	0.16
288.7409	0.169
288.9538	0.165
289.1666	0.1533
289.3794	0.1654
289.5922	0.159
289.8049	0.154
290.0177	0.1622
290.2304	0.1666
290.4432	0.168
290.6559	0.169
290.8686	0.1642
291.0813	0.1721
291.294	0.1711
291.5067	0.181
291.7194	0.1646
291.932	0.1771
292.1447	0.1673
292.3573	0.1628
292.5699	0.1732
292.7825	0.1754
292.9951	0.1614
293.2077	0.1572
293.4203	0.1682
293.6328	0.1582
293.8454	0.1728
294.0579	0.1658
294.2704	0.1658
294.4829	0.1566
294.6954	0.18
294.9079	0.1711
295.1204	0.1694
295.3328	0.1679
295.5453	0.1725
295.7577	0.1619
295.9701	0.1596
296.1825	0.16
296.3949	0.165
296.6073	0.1635
296.8197	0.1604
297.0321	0.1706
297.2444	0.1641
297.4567	0.162
297.6691	0.1699
297.8814	0.1579
298.0937	0.1543
298.306	0.1724
298.5182	0.1604
298.7305	0.1687
298.9428	0.1567
299.155	0.1797
299.3672	0.1629
299.5794	0.156
299.7916	0.1689
300.0038	0.1697
300.216	0.1653
300.4282	0.1613
300.6403	0.1561
300.8525	0.1786
301.0646	0.1645
301.2767	0.166
301.4888	0.1601
301.7009	0.1716
301.913	0.1734
302.125	0.1745
302.3371	0.1632
302.5491	0.1646
302.7612	0.1732
302.9732	0.1635
303.1852	0.1756
303.3972	0.164
303.6092	0.1629
303.8211	0.1534
304.0331	0.1657
304.245	0.1537
304.457	0.1567
304.6689	0.1563
304.8808	0.1677
305.0927	0.15
305.3046	0.1602
305.5164	0.1657
305.7283	0.1467
305.9401	0.153
306.152	0.1523
306.3638	0.1533
306.5756	0.15
306.7874	0.1496
306.9992	0.1569
307.2109	0.1342
307.4227	0.1239
307.6344	0.149
307.8462	0.1375
308.0579	0.1386
308.2696	0.1398
308.4813	0.1366
308.693	0.1298
308.9046	0.15
309.1163	0.1291
309.328	0.1372
309.5396	0.1223
309.7512	0.1271
309.9628	0.126
310.1744	0.1321
310.386	0.1248
310.5976	0.1255
310.8091	0.1277
311.0207	0.1141
311.2322	0.1168
311.4437	0.1142
311.6552	0.1156
311.8667	0.1133
312.0782	0.0928
312.2897	0.1027
312.5012	0.1211
312.7126	0.1074
312.924	0.099
313.1355	0.1089
313.3469	0.1028
313.5583	0.1152
313.7696	0.1022
313.981	0.1099
314.1924	0.0991
314.4037	0.094
314.6151	0.1074
314.8264	0.0977
315.0377	0.1037
315.249	0.1092
315.4603	0.1054
315.6716	0.0979
315.8828	0.0961
316.0941	0.0991
316.3053	0.0995
316.5165	0.0921
316.7277	0.0896
316.9389	0.1007
317.1501	0.0999
317.3613	0.096
317.5724	0.0869
317.7836	0.097
317.9947	0.0954
318.2058	0.097
318.417	0.0898
318.6281	0.0882
318.8391	0.0914
319.0502	0.1032
319.2613	0.0976
319.4723	0.1081
319.6834	0.107
319.8944	0.0934
320.1054	0.0978
320.3164	0.1
320.5274	0.0948
320.7383	0.0919
320.9493	0.1149
321.1602	0.109
321.3712	0.0871
321.5821	0.1051
321.793	0.1007
322.0039	0.0983
322.2148	0.0947
322.4257	0.0868
322.6365	0.1051
322.8474	0.0943
323.0582	0.0976
323.269	0.0986
323.4798	0.1082
323.6906	0.1055
323.9014	0.1013
324.1122	0.1049
324.3229	0.1047
324.5337	0.0956
324.7444	0.1006
324.9551	0.1278
325.1658	0.1094
325.3765	0.1059
325.5872	0.1009
325.7979	0.0993
326.0085	0.0961
326.2192	0.108
326.4298	0.1124
326.6404	0.0992
326.851	0.0885
327.0616	0.1017
327.2722	0.0983
327.4828	0.1118
327.6933	0.1018
327.9039	0.0984
328.1144	0.1102
328.3249	0.1164
328.5354	0.0933
328.7459	0.1036
328.9564	0.0948
329.1669	0.0989
329.3773	0.0985
329.5878	0.108
329.7982	0.0984
330.0086	0.1001
330.219	0.1167
330.4294	0.0925
330.6398	0.1047
330.8502	0.0988
331.0605	0.1076
331.2708	0.1002
331.4812	0.1095
331.6915	0.1041
331.9018	0.094
332.1121	0.1
332.3224	0.0999
332.5326	0.1091
332.7429	0.1055
332.9531	0.1247
333.1633	0.1039
333.3735	0.1012
333.5837	0.1081
333.7939	0.1093
334.0041	0.1119
334.2143	0.106
334.4244	0.106
334.6346	0.0946
334.8447	0.1189
335.0548	0.0964
335.2649	0.1033
335.475	0.1181
335.685	0.0985
335.8951	0.1277
336.1051	0.1083
336.3152	0.1186
336.5252	0.1005
336.7352	0.1093
336.9452	0.1244
337.1552	0.1008
337.3652	0.1099
337.5751	0.1076
337.7851	0.1124
337.995	0.0959
338.2049	0.106
338.4148	0.119
338.6247	0.1173
338.8346	0.1119
339.0445	0.1146
339.2543	0.0988
339.4642	0.1168
339.674	0.0996
339.8838	0.0989
340.0936	0.1233
340.3034	0.1235
340.5132	0.1215
340.7229	0.1191
340.9327	0.1161
341.1424	0.1095
341.3522	0.1279
341.5619	0.1324
341.7716	0.116
341.9813	0.1087
342.1909	0.1115
342.4006	0.1346
342.6102	0.1236
342.8199	0.1234
343.0295	0.1219
343.2391	0.1159
343.4487	0.1263
343.6583	0.1288
343.8679	0.1234
344.0774	0.1187
344.287	0.1256
344.4965	0.1274
344.706	0.1257
344.9155	0.1278
345.125	0.125
345.3345	0.1301
345.544	0.1243
345.7534	0.1253
345.9629	0.1165
346.1723	0.123
346.3817	0.1281
346.5911	0.1372
346.8005	0.13
347.0099	0.132
347.2193	0.135
347.4286	0.1291
347.638	0.1326
347.8473	0.14
348.0566	0.1406
348.2659	0.1416
348.4752	0.1355
348.6845	0.1327
348.8937	0.1301
349.103	0.1449
349.3122	0.1187
349.5214	0.1248
349.7306	0.1433
349.9398	0.1532
350.149	0.1502
350.3582	0.1281
350.5674	0.1531
350.7765	0.131
350.9856	0.1447
351.1948	0.1435
351.4039	0.1256
351.613	0.1431
351.822	0.148
352.0311	0.1447
352.2402	0.1439
352.4492	0.1521
352.6582	0.1513
352.8672	0.1419
353.0762	0.1573
353.2852	0.1445
353.4942	0.148
353.7032	0.1409
353.9121	0.1543
354.1211	0.1585
354.33	0.1422
354.5389	0.159
354.7478	0.1427
354.9567	0.1511
355.1655	0.142
355.3744	0.1644
355.5833	0.1509
355.7921	0.1551
356.0009	0.1603
356.2097	0.1758
356.4185	0.1653
356.6273	0.1568
356.8361	0.1618
357.0448	0.1663
357.2536	0.1465
357.4623	0.1548
357.671	0.1474
357.8797	0.1702
358.0884	0.1518
358.2971	0.1763
358.5057	0.1653
358.7144	0.1775
358.923	0.1667
359.1316	0.1751
359.3402	0.1673
359.5488	0.1611
359.7574	0.1413
359.966	0.1822
360.1746	0.1686
360.3831	0.1742
360.5916	0.1683
360.8002	0.1546
361.0087	0.1749
361.2172	0.1688
361.4256	0.1841
361.6341	0.1933
361.8426	0.1759
362.051	0.1774
362.2594	0.1765
362.4678	0.1724
362.6762	0.2061
362.8846	0.1933
363.093	0.1868
363.3014	0.1855
363.5097	0.1703
363.718	0.1957
363.9264	0.1857
364.1347	0.1846
364.343	0.1988
364.5513	0.1991
364.7595	0.1993
364.9678	0.1848
365.176	0.2024
365.3842	0.2002
365.5925	0.1906
365.8007	0.2052
366.0089	0.1967
366.217	0.1743
366.4252	0.1941
366.6333	0.2049
366.8415	0.1934
367.0496	0.1885
367.2577	0.2114
367.4658	0.2199
367.6739	0.2148
367.882	0.2139
368.09	0.2139
368.2981	0.2137
368.5061	0.1989
368.7141	0.2199
368.9221	0.222
369.1301	0.2178
369.3381	0.2031
369.5461	0.2172
369.754	0.2145
369.962	0.2113
370.1699	0.2181
370.3778	0.2252
370.5857	0.2084
370.7936	0.2385
371.0015	0.2199
371.2093	0.2169
371.4172	0.2326
371.625	0.233
371.8328	0.2039
372.0406	0.2225
372.2484	0.2189
372.4562	0.2423
372.664	0.232
372.8717	0.2435
373.0795	0.1998
373.2872	0.2302
373.4949	0.2285
373.7026	0.2167
373.9103	0.2287
374.118	0.2112
374.3256	0.2263
374.5333	0.2441
374.7409	0.2249
374.9485	0.2537
375.1561	0.2433
375.3637	0.2354
375.5713	0.2334
375.7789	0.2472
375.9864	0.2325
376.194	0.2344
376.4015	0.2444
376.609	0.2381
376.8165	0.2401
377.024	0.2268
377.2315	0.2258
377.4389	0.2346
377.6464	0.2488
377.8538	0.2271
378.0612	0.2486
378.2686	0.2603
378.476	0.2591
378.6834	0.2401
378.8908	0.2464
379.0981	0.234
379.3055	0.261
379.5128	0.2627
379.7201	0.2342
379.9274	0.2474
380.1347	0.2486
380.342	0.2671
380.5492	0.2424
380.7565	0.2688
380.9637	0.2398
381.1709	0.2397
381.3781	0.2428
381.5853	0.2687
381.7925	0.2518
381.9997	0.2702
382.2068	0.2576
382.4139	0.2614
382.6211	0.2541
382.8282	0.2512
383.0353	0.2623
383.2424	0.2467
383.4494	0.2623
383.6565	0.2421
383.8635	0.2547
384.0706	0.2657
384.2776	0.2696
384.4846	0.2574
384.6916	0.2579
384.8986	0.2557
385.1055	0.2622
385.3125	0.2747
385.5194	0.2396
385.7263	0.2559
385.9333	0.2765
386.1402	0.2576
386.347	0.2671
386.5539	0.2512
386.7608	0.2662
386.9676	0.2505
387.1744	0.2604
387.3813	0.2601
387.5881	0.2651
387.7948	0.2362
388.0016	0.239
388.2084	0.2681
388.4151	0.249
388.6219	0.2591
388.8286	0.2552
389.0353	0.2749
389.242	0.2668
389.4487	0.2476
389.6553	0.2491
389.862	0.2402
390.0686	0.2396
390.2753	0.2799
390.4819	0.2464
390.6885	0.2386
390.8951	0.2511
391.1016	0.2625
391.3082	0.2414
391.5147	0.2509
391.7213	0.2418
391.9278	0.2469
392.1343	0.234
392.3408	0.2558
392.5473	0.2336
392.7537	0.242
392.9602	0.2491
393.1666	0.2308
393.373	0.2448
393.5794	0.2351
393.7858	0.2338
393.9922	0.2306
394.1986	0.2395
394.4049	0.2482
394.6113	0.2247
394.8176	0.2314
395.0239	0.2294
395.2302	0.2157
395.4365	0.2065
395.6428	0.2254
395.8491	0.2145
396.0553	0.2176
396.2615	0.2276
396.4678	0.2217
396.674	0.2107
396.8802	0.2299
397.0863	0.2371
397.2925	0.2191
397.4987	0.2213
397.7048	0.2096
397.9109	0.2246
398.117	0.2269
398.3231	0.205
398.5292	0.2304
398.7353	0.2219
398.9413	0.206
399.1474	0.2217
399.3534	0.2196
399.5594	0.2236
399.7654	0.2233
399.9714	0.2365
400.1774	0.2302
400.3833	0.2031
400.5893	0.228
400.7952	0.2241
401.0011	0.2187
401.207	0.2294
401.4129	0.2196
401.6188	0.2242
401.8247	0.2192
402.0305	0.2094
402.2364	0.2141
402.4422	0.2438
402.648	0.2189
402.8538	0.2423
403.0596	0.1993
403.2654	0.2222
403.4711	0.2139
403.6768	0.2178
403.8826	0.2282
404.0883	0.2078
404.294	0.2306
404.4997	0.2248
404.7054	0.2219
404.911	0.2175
405.1167	0.2083
405.3223	0.2294
405.5279	0.2308
405.7335	0.2143
405.9391	0.2185
406.1447	0.2114
406.3502	0.2295
406.5558	0.2123
406.7613	0.2172
406.9668	0.1958
407.1724	0.2068
407.3778	0.1975
407.5833	0.2099
407.7888	0.2135
407.9942	0.2616
408.1997	0.2265
408.4051	0.2071
408.6105	0.2233
408.8159	0.2091
409.0213	0.2204
409.2267	0.2456
409.432	0.2155
409.6374	0.2033
409.8427	0.2217
410.048	0.2288
410.2533	0.2203
410.4586	0.2141
410.6639	0.2053
410.8691	0.2096
411.0744	0.2207
411.2796	0.2055
411.4848	0.2143
411.69	0.2235
411.8952	0.2292
412.1004	0.2183
412.3056	0.2148
412.5107	0.2053
412.7158	0.2087
412.921	0.2191
413.1261	0.2159
413.3312	0.2347
413.5362	0.2163
413.7413	0.2152
413.9464	0.2242
414.1514	0.2161
414.3564	0.2088
414.5614	0.1944
414.7664	0.2117
414.9714	0.2021
415.1764	0.1964
415.3813	0.2191
415.5863	0.2136
415.7912	0.2199
415.9961	0.2164
416.201	0.2094
416.4059	0.2241
416.6108	0.2096
416.8156	0.2077
417.0205	0.1928
417.2253	0.1923
417.4301	0.2203
417.6349	0.2138
417.8397	0.2104
418.0445	0.2175
418.2492	0.2195
418.454	0.2
418.6587	0.2212
418.8634	0.2055
419.0681	0.2023
419.2728	0.1945
419.4775	0.1992
419.6822	0.1913
419.8868	0.1722
420.0915	0.1888
420.2961	0.1827
420.5007	0.1925
420.7053	0.1983
420.9099	0.1876
421.1144	0.2043
421.319	0.1942
421.5235	0.2016
421.728	0.1923
421.9325	0.1919
422.137	0.2062
422.3415	0.1895
422.546	0.1973
422.7504	0.1827
422.9549	0.189
423.1593	0.1996
423.3637	0.192
423.5681	0.1906
423.7725	0.1695
423.9769	0.1797
424.1812	0.1743
424.3856	0.1879
424.5899	0.1801
424.7942	0.1989
424.9985	0.1844
425.2028	0.1881
425.4071	0.201
425.6113	0.1746
425.8156	0.1837
426.0198	0.1859
426.224	0.1853
426.4282	0.1769
426.6324	0.1774
426.8366	0.1695
