Data from MonoPyChalIsomerACN10uM360nmA_Absorbance_13-57-26-404.txt Node
Date: Fri Jul 05 13:57:26 BST 2024
User: LASERRRRR
Spectrometer: FLMT03099
Trigger mode: 0
Integration Time (sec): 1.000000E-1
Scans to average: 1
Electric dark correction enabled: true
Nonlinearity correction enabled: false
Boxcar width: 0
XAxis mode: Wavelengths
Number of Pixels in Spectrum: 3648
>>>>>Begin Spectral Data<<<<<
179.3399	0.5569
179.5586	0.5569
179.7771	0.5569
179.9957	0.2661
180.2143	-0
180.4329	0.0423
180.6514	0.3065
180.8699	0.1924
181.0885	-0.1801
181.307	0.142
181.5255	0.5798
181.744	-0.4246
181.9625	-0
182.181	-0.8354
182.3994	0.6658
182.6179	-0
182.8363	0.3485
183.0547	-0.1566
183.2732	0.0054
183.4916	0.1479
183.71	0.0599
183.9284	0.1325
184.1467	-0.073
184.3651	-0.0848
184.5835	0.0648
184.8018	-0.0417
185.0201	-0.0358
185.2385	-0.0902
185.4568	0.3536
185.6751	0.0919
185.8934	0.0567
186.1117	0.0405
186.3299	-0.0632
186.5482	0.1963
186.7664	-0.0481
186.9847	-0.0075
187.2029	0.2168
187.4211	0.1887
187.6393	0.0524
187.8575	-0.1562
188.0757	0.3715
188.2939	0.1692
188.512	-0.1574
188.7302	0.0933
188.9483	0.0021
189.1665	0.0852
189.3846	-0.2133
189.6027	0.188
189.8208	0.0518
190.0389	0.1701
190.257	0.0582
190.475	0.0044
190.6931	0.1991
190.9111	0.6472
191.1292	0.1063
191.3472	0.2942
191.5652	0.5427
191.7832	0.3241
192.0012	0.8028
192.2192	0.4024
192.4371	0.5769
192.6551	0.4485
192.873	0.3843
193.091	0.4646
193.3089	0.428
193.5268	0.5004
193.7447	0.8902
193.9626	0.4259
194.1805	0.4853
194.3984	0.8896
194.6162	0.547
194.8341	0.5648
195.0519	0.5545
195.2697	0.8088
195.4875	0.5504
195.7054	0.4705
195.9231	0.4349
196.1409	0.6255
196.3587	0.5858
196.5765	0.5782
196.7942	0.6152
197.012	0.584
197.2297	0.5733
197.4474	0.5769
197.6651	0.5489
197.8828	0.6035
198.1005	0.6019
198.3182	0.4619
198.5358	0.9896
198.7535	0.5792
198.9711	0.6264
199.1888	0.5394
199.4064	0.8432
199.624	0.6572
199.8416	0.5998
200.0592	0.6682
200.2767	0.7337
200.4943	0.6333
200.7119	0.7113
200.9294	0.6411
201.1469	0.572
201.3645	0.5291
201.582	0.5427
201.7995	0.6772
202.017	0.6214
202.2344	0.5779
202.4519	0.6753
202.6694	0.5556
202.8868	0.5474
203.1042	0.7833
203.3217	0.5908
203.5391	0.6504
203.7565	0.5672
203.9739	0.6459
204.1913	0.5751
204.4086	0.6182
204.626	0.7369
204.8433	0.6409
205.0607	0.5362
205.278	0.7243
205.4953	0.6619
205.7126	0.6645
205.9299	0.7819
206.1472	0.6866
206.3644	0.5959
206.5817	0.6345
206.7989	0.7058
207.0162	0.677
207.2334	0.7721
207.4506	0.6703
207.6678	0.6326
207.885	0.6686
208.1022	0.6549
208.3194	0.7097
208.5365	0.7001
208.7537	0.5787
208.9708	0.5664
209.1879	0.6299
209.405	0.6809
209.6222	0.7488
209.8392	0.6567
210.0563	0.6059
210.2734	0.7058
210.4905	0.6171
210.7075	0.5999
210.9245	0.5743
211.1416	0.701
211.3586	0.6695
211.5756	0.5643
211.7926	0.6135
212.0096	0.6421
212.2265	0.6107
212.4435	0.5437
212.6604	0.578
212.8774	0.5831
213.0943	0.5767
213.3112	0.5521
213.5281	0.5137
213.745	0.5349
213.9619	0.5382
214.1788	0.4629
214.3956	0.4564
214.6125	0.4714
214.8293	0.4211
215.0461	0.4494
215.2629	0.468
215.4798	0.4566
215.6965	0.4201
215.9133	0.4478
216.1301	0.436
216.3469	0.4278
216.5636	0.3938
216.7803	0.3967
216.9971	0.4043
217.2138	0.3882
217.4305	0.3824
217.6472	0.3568
217.8639	0.3985
218.0805	0.3604
218.2972	0.3277
218.5138	0.3251
218.7305	0.3299
218.9471	0.3118
219.1637	0.3003
219.3803	0.2959
219.5969	0.2759
219.8135	0.251
220.0301	0.2699
220.2466	0.2431
220.4632	0.2679
220.6797	0.2324
220.8962	0.2441
221.1127	0.2664
221.3292	0.2493
221.5457	0.2559
221.7622	0.228
221.9787	0.2653
222.1951	0.2387
222.4116	0.2601
222.628	0.2631
222.8444	0.264
223.0608	0.2595
223.2772	0.2685
223.4936	0.2733
223.71	0.2397
223.9264	0.2842
224.1427	0.2634
224.3591	0.2645
224.5754	0.251
224.7917	0.2961
225.008	0.2599
225.2243	0.2654
225.4406	0.289
225.6569	0.2703
225.8732	0.255
226.0894	0.276
226.3057	0.2758
226.5219	0.2897
226.7381	0.269
226.9543	0.2982
227.1705	0.2934
227.3867	0.2957
227.6029	0.3176
227.8191	0.3158
228.0352	0.3227
228.2513	0.3193
228.4675	0.3236
228.6836	0.304
228.8997	0.2964
229.1158	0.3264
229.3319	0.3152
229.548	0.2968
229.764	0.3271
229.9801	0.3156
230.1961	0.3275
230.4121	0.3389
230.6282	0.3603
230.8442	0.3228
231.0602	0.3695
231.2761	0.3414
231.4921	0.3449
231.7081	0.3586
231.924	0.3514
232.14	0.3474
232.3559	0.3531
232.5718	0.3589
232.7877	0.3717
233.0036	0.3553
233.2195	0.3663
233.4353	0.3467
233.6512	0.3688
233.867	0.3504
234.0829	0.3791
234.2987	0.3786
234.5145	0.3816
234.7303	0.3972
234.9461	0.4033
235.1619	0.3808
235.3776	0.3928
235.5934	0.3955
235.8091	0.3763
236.0249	0.3878
236.2406	0.3869
236.4563	0.3928
236.672	0.3896
236.8877	0.3958
237.1034	0.3938
237.319	0.3961
237.5347	0.4082
237.7503	0.4067
237.966	0.4028
238.1816	0.4266
238.3972	0.4158
238.6128	0.3953
238.8284	0.4021
239.0439	0.4157
239.2595	0.4149
239.475	0.4269
239.6906	0.4133
239.9061	0.4104
240.1216	0.4053
240.3371	0.4173
240.5526	0.3928
240.7681	0.4174
240.9836	0.3859
241.199	0.4052
241.4145	0.3934
241.6299	0.3881
241.8453	0.3773
242.0607	0.3785
242.2761	0.3602
242.4915	0.3693
242.7069	0.3696
242.9223	0.3698
243.1376	0.3475
243.353	0.3423
243.5683	0.3374
243.7836	0.3286
243.9989	0.3301
244.2142	0.3012
244.4295	0.3223
244.6448	0.3171
244.86	0.3036
245.0753	0.2785
245.2905	0.2936
245.5057	0.2882
245.721	0.2721
245.9362	0.276
246.1514	0.2747
246.3665	0.2602
246.5817	0.2568
246.7969	0.2566
247.012	0.24
247.2271	0.2458
247.4423	0.2492
247.6574	0.2539
247.8725	0.232
248.0876	0.2244
248.3026	0.2252
248.5177	0.2227
248.7328	0.2094
248.9478	0.1922
249.1628	0.2098
249.3779	0.2219
249.5929	0.2042
249.8079	0.2185
250.0228	0.2037
250.2378	0.1921
250.4528	0.2089
250.6677	0.1751
250.8827	0.1956
251.0976	0.1889
251.3125	0.2004
251.5274	0.1779
251.7423	0.1898
251.9572	0.1783
252.172	0.1827
252.3869	0.1715
252.6017	0.1809
252.8166	0.1771
253.0314	0.1668
253.2462	0.1726
253.461	0.1682
253.6758	0.1744
253.8906	0.178
254.1053	0.1766
254.3201	0.1731
254.5348	0.1878
254.7496	0.1859
254.9643	0.1625
255.179	0.1759
255.3937	0.1698
255.6083	0.1759
255.823	0.1762
256.0377	0.1649
256.2523	0.1758
256.467	0.1647
256.6816	0.1674
256.8962	0.1706
257.1108	0.1649
257.3254	0.1669
257.54	0.1561
257.7545	0.17
257.9691	0.1686
258.1836	0.1714
258.3981	0.1749
258.6127	0.1776
258.8272	0.1544
259.0417	0.1655
259.2561	0.17
259.4706	0.1635
259.6851	0.1667
259.8995	0.1568
260.114	0.168
260.3284	0.1651
260.5428	0.151
260.7572	0.1719
260.9716	0.1666
261.186	0.1633
261.4003	0.1611
261.6147	0.1595
261.829	0.1515
262.0433	0.1522
262.2577	0.1541
262.472	0.172
262.6863	0.1599
262.9005	0.1605
263.1148	0.1717
263.3291	0.149
263.5433	0.1736
263.7576	0.1686
263.9718	0.1716
264.186	0.1585
264.4002	0.1606
264.6144	0.1513
264.8286	0.1785
265.0427	0.1588
265.2569	0.1655
265.471	0.1588
265.6851	0.1612
265.8993	0.1629
266.1134	0.1561
266.3275	0.1602
266.5415	0.1617
266.7556	0.1612
266.9697	0.1544
267.1837	0.1709
267.3978	0.1588
267.6118	0.1692
267.8258	0.1674
268.0398	0.1444
268.2538	0.1621
268.4677	0.1556
268.6817	0.1532
268.8957	0.1642
269.1096	0.1518
269.3235	0.1544
269.5374	0.1515
269.7514	0.153
269.9652	0.1551
270.1791	0.1639
270.393	0.1486
270.6068	0.1555
270.8207	0.1457
271.0345	0.1329
271.2483	0.1471
271.4622	0.1438
271.676	0.1568
271.8897	0.1399
272.1035	0.1489
272.3173	0.1399
272.531	0.1526
272.7448	0.1458
272.9585	0.1457
273.1722	0.1489
273.3859	0.1533
273.5996	0.1329
273.8133	0.1474
274.0269	0.1471
274.2406	0.14
274.4542	0.1482
274.6679	0.1389
274.8815	0.1367
275.0951	0.1475
275.3087	0.1564
275.5223	0.1438
275.7358	0.1462
275.9494	0.1444
276.1629	0.1333
276.3765	0.1434
276.59	0.1525
276.8035	0.1431
277.017	0.1485
277.2305	0.1403
277.444	0.1506
277.6574	0.1492
277.8709	0.15
278.0843	0.1355
278.2978	0.143
278.5112	0.1434
278.7246	0.1473
278.938	0.1452
279.1513	0.1503
279.3647	0.1679
279.5781	0.147
279.7914	0.1655
280.0047	0.1555
280.2181	0.1486
280.4314	0.1496
280.6447	0.1507
280.8579	0.1523
281.0712	0.1538
281.2845	0.1601
281.4977	0.147
281.711	0.1496
281.9242	0.1516
282.1374	0.1637
282.3506	0.1512
282.5638	0.1543
282.7769	0.1592
282.9901	0.1572
283.2033	0.1543
283.4164	0.1519
283.6295	0.1567
283.8426	0.1468
284.0557	0.1694
284.2688	0.169
284.4819	0.1557
284.695	0.1681
284.908	0.1624
285.1211	0.1496
285.3341	0.1603
285.5471	0.1655
285.7601	0.1595
285.9731	0.1489
286.1861	0.1572
286.3991	0.1571
286.612	0.1656
286.825	0.1586
287.0379	0.1581
287.2508	0.1571
287.4637	0.1673
287.6766	0.1539
287.8895	0.1635
288.1024	0.1923
288.3152	0.1703
288.5281	0.1552
288.7409	0.1703
288.9538	0.1624
289.1666	0.1702
289.3794	0.1702
289.5922	0.1617
289.8049	0.1695
290.0177	0.166
290.2304	0.1688
290.4432	0.1647
290.6559	0.1545
290.8686	0.1772
291.0813	0.1708
291.294	0.1751
291.5067	0.1734
291.7194	0.1722
291.932	0.1752
292.1447	0.1661
292.3573	0.1536
292.5699	0.1655
292.7825	0.1624
292.9951	0.1761
293.2077	0.1583
293.4203	0.179
293.6328	0.1516
293.8454	0.174
294.0579	0.1727
294.2704	0.1603
294.4829	0.1709
294.6954	0.1764
294.9079	0.1719
295.1204	0.1705
295.3328	0.174
295.5453	0.1642
295.7577	0.1634
295.9701	0.1585
296.1825	0.1622
296.3949	0.1693
296.6073	0.1576
296.8197	0.1627
297.0321	0.1829
297.2444	0.1548
297.4567	0.1712
297.6691	0.1795
297.8814	0.1631
298.0937	0.1693
298.306	0.1704
298.5182	0.1539
298.7305	0.1783
298.9428	0.1691
299.155	0.176
299.3672	0.1618
299.5794	0.1622
299.7916	0.1686
300.0038	0.1724
300.216	0.1661
300.4282	0.178
300.6403	0.1448
300.8525	0.1766
301.0646	0.1638
301.2767	0.1714
301.4888	0.1714
301.7009	0.1728
301.913	0.1497
302.125	0.1663
302.3371	0.1584
302.5491	0.1612
302.7612	0.1704
302.9732	0.1683
303.1852	0.1669
303.3972	0.16
303.6092	0.169
303.8211	0.1558
304.0331	0.1567
304.245	0.1362
304.457	0.1541
304.6689	0.1556
304.8808	0.1689
305.0927	0.1558
305.3046	0.1531
305.5164	0.1522
305.7283	0.1513
305.9401	0.1459
306.152	0.1421
306.3638	0.1526
306.5756	0.1437
306.7874	0.1435
306.9992	0.1445
307.2109	0.1434
307.4227	0.1258
307.6344	0.1462
307.8462	0.1408
308.0579	0.1375
308.2696	0.142
308.4813	0.1358
308.693	0.1255
308.9046	0.1398
309.1163	0.1313
309.328	0.1269
309.5396	0.1229
309.7512	0.1256
309.9628	0.1213
310.1744	0.1239
310.386	0.1276
310.5976	0.1212
310.8091	0.1214
311.0207	0.1163
311.2322	0.1166
311.4437	0.1144
311.6552	0.1234
311.8667	0.1152
312.0782	0.1007
312.2897	0.0986
312.5012	0.1076
312.7126	0.109
312.924	0.1083
313.1355	0.1146
313.3469	0.1137
313.5583	0.1123
313.7696	0.1188
313.981	0.0973
314.1924	0.0946
314.4037	0.1012
314.6151	0.0996
314.8264	0.0961
315.0377	0.0909
315.249	0.1011
315.4603	0.1102
315.6716	0.1053
315.8828	0.0898
316.0941	0.1033
316.3053	0.0953
316.5165	0.0949
316.7277	0.0983
316.9389	0.1003
317.1501	0.1056
317.3613	0.0974
317.5724	0.0938
317.7836	0.106
317.9947	0.0977
318.2058	0.0995
318.417	0.0865
318.6281	0.0894
318.8391	0.0933
319.0502	0.0858
319.2613	0.104
319.4723	0.0992
319.6834	0.1127
319.8944	0.0975
320.1054	0.1049
320.3164	0.1061
320.5274	0.0924
320.7383	0.0923
320.9493	0.0919
321.1602	0.1024
321.3712	0.0838
321.5821	0.0974
321.793	0.0995
322.0039	0.0992
322.2148	0.0956
322.4257	0.0945
322.6365	0.1124
322.8474	0.109
323.0582	0.0967
323.269	0.1087
323.4798	0.1065
323.6906	0.1118
323.9014	0.0995
324.1122	0.0961
324.3229	0.0883
324.5337	0.0932
324.7444	0.0904
324.9551	0.1268
325.1658	0.1066
325.3765	0.1142
325.5872	0.1062
325.7979	0.1026
326.0085	0.1082
326.2192	0.107
326.4298	0.0999
326.6404	0.0969
326.851	0.0896
327.0616	0.0989
327.2722	0.1191
327.4828	0.0997
327.6933	0.0924
327.9039	0.1025
328.1144	0.1059
328.3249	0.1066
328.5354	0.097
328.7459	0.1012
328.9564	0.0894
329.1669	0.1025
329.3773	0.1086
329.5878	0.1025
329.7982	0.102
330.0086	0.1084
330.219	0.1025
330.4294	0.1022
330.6398	0.1065
330.8502	0.0881
331.0605	0.1046
331.2708	0.105
331.4812	0.1041
331.6915	0.1105
331.9018	0.1106
332.1121	0.1051
332.3224	0.1081
332.5326	0.1045
332.7429	0.1007
332.9531	0.1145
333.1633	0.1118
333.3735	0.1048
333.5837	0.1055
333.7939	0.1066
334.0041	0.1132
334.2143	0.1214
334.4244	0.1078
334.6346	0.0874
334.8447	0.1302
335.0548	0.1049
335.2649	0.1054
335.475	0.1086
335.685	0.1046
335.8951	0.1137
336.1051	0.1117
336.3152	0.1194
336.5252	0.1011
336.7352	0.1106
336.9452	0.1218
337.1552	0.1057
337.3652	0.1014
337.5751	0.1093
337.7851	0.107
337.995	0.0967
338.2049	0.114
338.4148	0.11
338.6247	0.1087
338.8346	0.11
339.0445	0.1076
339.2543	0.0991
339.4642	0.1135
339.674	0.0999
339.8838	0.1223
340.0936	0.1205
340.3034	0.1159
340.5132	0.1239
340.7229	0.1215
340.9327	0.1089
341.1424	0.1185
341.3522	0.1304
341.5619	0.1232
341.7716	0.1085
341.9813	0.1222
342.1909	0.1155
342.4006	0.1169
342.6102	0.1242
342.8199	0.1238
343.0295	0.1276
343.2391	0.1168
343.4487	0.1321
343.6583	0.1148
343.8679	0.1178
344.0774	0.1218
344.287	0.1243
344.4965	0.1192
344.706	0.1235
344.9155	0.1243
345.125	0.1158
345.3345	0.1293
345.544	0.1148
345.7534	0.1279
345.9629	0.1224
346.1723	0.1212
346.3817	0.1206
346.5911	0.1276
346.8005	0.1292
347.0099	0.1235
347.2193	0.132
347.4286	0.1301
347.638	0.1292
347.8473	0.1446
348.0566	0.1369
348.2659	0.1357
348.4752	0.1314
348.6845	0.1249
348.8937	0.1357
349.103	0.1372
349.3122	0.1333
349.5214	0.1213
349.7306	0.1367
349.9398	0.1359
350.149	0.1358
350.3582	0.1361
350.5674	0.1451
350.7765	0.1302
350.9856	0.1359
351.1948	0.1309
351.4039	0.1291
351.613	0.1417
351.822	0.1421
352.0311	0.1391
352.2402	0.1403
352.4492	0.1425
352.6582	0.1499
352.8672	0.1376
353.0762	0.1454
353.2852	0.1442
353.4942	0.1349
353.7032	0.1505
353.9121	0.1549
354.1211	0.1575
354.33	0.1617
354.5389	0.1431
354.7478	0.1339
354.9567	0.1486
355.1655	0.15
355.3744	0.1578
355.5833	0.1479
355.7921	0.1596
356.0009	0.169
356.2097	0.1701
356.4185	0.1751
356.6273	0.163
356.8361	0.1634
357.0448	0.1549
357.2536	0.1521
357.4623	0.1649
357.671	0.1677
357.8797	0.1653
358.0884	0.1655
358.2971	0.1565
358.5057	0.1696
358.7144	0.1811
358.923	0.1744
359.1316	0.1644
359.3402	0.1619
359.5488	0.1664
359.7574	0.1587
359.966	0.1556
360.1746	0.1724
360.3831	0.1737
360.5916	0.1783
360.8002	0.1721
361.0087	0.1812
361.2172	0.1671
361.4256	0.182
361.6341	0.1982
361.8426	0.1818
362.051	0.1897
362.2594	0.1791
362.4678	0.184
362.6762	0.1994
362.8846	0.1895
363.093	0.1768
363.3014	0.1895
363.5097	0.1694
363.718	0.1954
363.9264	0.1936
364.1347	0.1807
364.343	0.1941
364.5513	0.1906
364.7595	0.2006
364.9678	0.2014
365.176	0.197
365.3842	0.1965
365.5925	0.1854
365.8007	0.1832
366.0089	0.1918
366.217	0.1913
366.4252	0.19
366.6333	0.2202
366.8415	0.2012
367.0496	0.1917
367.2577	0.205
367.4658	0.2129
367.6739	0.2174
367.882	0.2105
368.09	0.2153
368.2981	0.2094
368.5061	0.2009
368.7141	0.222
368.9221	0.2313
369.1301	0.2053
369.3381	0.2013
369.5461	0.2032
369.754	0.2177
369.962	0.213
370.1699	0.2132
370.3778	0.2265
370.5857	0.1959
370.7936	0.2008
371.0015	0.2165
371.2093	0.2327
371.4172	0.2345
371.625	0.2159
371.8328	0.2127
372.0406	0.2273
372.2484	0.2235
372.4562	0.2204
372.664	0.2317
372.8717	0.2432
373.0795	0.2029
373.2872	0.2224
373.4949	0.2125
373.7026	0.2324
373.9103	0.236
374.118	0.2275
374.3256	0.2371
374.5333	0.2228
374.7409	0.2167
374.9485	0.2338
375.1561	0.2415
375.3637	0.243
375.5713	0.2402
375.7789	0.2382
375.9864	0.2351
376.194	0.2335
376.4015	0.2521
376.609	0.2454
376.8165	0.2475
377.024	0.2405
377.2315	0.2468
377.4389	0.2492
377.6464	0.2531
377.8538	0.2388
378.0612	0.2402
378.2686	0.2394
378.476	0.2498
378.6834	0.2487
378.8908	0.2432
379.0981	0.2491
379.3055	0.2653
379.5128	0.2331
379.7201	0.2464
379.9274	0.2443
380.1347	0.2576
380.342	0.2575
380.5492	0.2463
380.7565	0.2524
380.9637	0.254
381.1709	0.2494
381.3781	0.2418
381.5853	0.2698
381.7925	0.2556
381.9997	0.2572
382.2068	0.262
382.4139	0.2593
382.6211	0.2573
382.8282	0.2583
383.0353	0.2705
383.2424	0.2603
383.4494	0.2666
383.6565	0.2588
383.8635	0.264
384.0706	0.2644
384.2776	0.2719
384.4846	0.2622
384.6916	0.2744
384.8986	0.2405
385.1055	0.2571
385.3125	0.2716
385.5194	0.2589
385.7263	0.2754
385.9333	0.2632
386.1402	0.2698
386.347	0.2458
386.5539	0.2589
386.7608	0.2602
386.9676	0.2459
387.1744	0.2608
387.3813	0.2462
387.5881	0.2648
387.7948	0.2648
388.0016	0.2636
388.2084	0.247
388.4151	0.2354
388.6219	0.2578
388.8286	0.2483
389.0353	0.2559
389.242	0.2465
389.4487	0.2357
389.6553	0.2452
389.862	0.2309
390.0686	0.2513
390.2753	0.2574
390.4819	0.2532
390.6885	0.2447
390.8951	0.239
391.1016	0.2275
391.3082	0.2457
391.5147	0.2308
391.7213	0.2296
391.9278	0.2222
392.1343	0.2297
392.3408	0.244
392.5473	0.2459
392.7537	0.2456
392.9602	0.2354
393.1666	0.2332
393.373	0.2228
393.5794	0.2348
393.7858	0.2197
393.9922	0.2163
394.1986	0.2285
394.4049	0.2436
394.6113	0.2235
394.8176	0.2177
395.0239	0.2134
395.2302	0.2182
395.4365	0.2287
395.6428	0.2167
395.8491	0.2178
396.0553	0.2084
396.2615	0.2188
396.4678	0.2265
396.674	0.1998
396.8802	0.2146
397.0863	0.2178
397.2925	0.2152
397.4987	0.2068
397.7048	0.2076
397.9109	0.2263
398.117	0.198
398.3231	0.2055
398.5292	0.2391
398.7353	0.2267
398.9413	0.207
399.1474	0.2206
399.3534	0.2107
399.5594	0.1953
399.7654	0.2343
399.9714	0.2236
400.1774	0.2303
400.3833	0.221
400.5893	0.2129
400.7952	0.2141
401.0011	0.2207
401.207	0.2293
401.4129	0.2306
401.6188	0.2344
401.8247	0.234
402.0305	0.2171
402.2364	0.216
402.4422	0.2389
402.648	0.2171
402.8538	0.2285
403.0596	0.2098
403.2654	0.2142
403.4711	0.2103
403.6768	0.2191
403.8826	0.227
404.0883	0.2192
404.294	0.2149
404.4997	0.208
404.7054	0.2137
404.911	0.2003
405.1167	0.2231
405.3223	0.2246
405.5279	0.212
405.7335	0.225
405.9391	0.22
406.1447	0.2039
406.3502	0.2421
406.5558	0.2098
406.7613	0.2262
406.9668	0.2113
407.1724	0.2204
407.3778	0.2135
407.5833	0.2163
407.7888	0.2005
407.9942	0.2179
408.1997	0.2028
408.4051	0.2138
408.6105	0.2177
408.8159	0.2048
409.0213	0.2093
409.2267	0.2331
409.432	0.2005
409.6374	0.2122
409.8427	0.2005
410.048	0.228
410.2533	0.2086
410.4586	0.2078
410.6639	0.2111
410.8691	0.2112
411.0744	0.2124
411.2796	0.2103
411.4848	0.2211
411.69	0.2029
411.8952	0.239
412.1004	0.1936
412.3056	0.2135
412.5107	0.2078
412.7158	0.2364
412.921	0.1919
413.1261	0.2266
413.3312	0.2059
413.5362	0.2179
413.7413	0.2052
413.9464	0.2051
414.1514	0.2262
414.3564	0.2092
414.5614	0.2092
414.7664	0.2136
414.9714	0.2251
415.1764	0.2164
415.3813	0.2229
415.5863	0.211
415.7912	0.2052
415.9961	0.2061
416.201	0.2088
416.4059	0.228
416.6108	0.2084
416.8156	0.2124
417.0205	0.2004
417.2253	0.1927
417.4301	0.2047
417.6349	0.2086
417.8397	0.1732
418.0445	0.2044
418.2492	0.2123
418.454	0.2164
418.6587	0.2164
418.8634	0.2066
419.0681	0.1829
419.2728	0.1944
419.4775	0.189
419.6822	0.191
419.8868	0.1693
420.0915	0.203
420.2961	0.1829
420.5007	0.1894
420.7053	0.197
420.9099	0.2055
421.1144	0.1955
421.319	0.1891
421.5235	0.2005
421.728	0.1975
421.9325	0.2039
422.137	0.1926
422.3415	0.189
422.546	0.1873
422.7504	0.1932
422.9549	0.1911
423.1593	0.1879
423.3637	0.1917
423.5681	0.1835
423.7725	0.1725
423.9769	0.1871
424.1812	0.1631
424.3856	0.1754
424.5899	0.1768
424.7942	0.1762
424.9985	0.1725
425.2028	0.1845
425.4071	0.1927
425.6113	0.1708
425.8156	0.1873
426.0198	0.1827
426.224	0.1613
