Data from MonoPyChalIsomerACN10uM360nmA_Absorbance_13-57-26-104.txt Node
Date: Fri Jul 05 13:57:26 BST 2024
User: LASERRRRR
Spectrometer: FLMT03099
Trigger mode: 0
Integration Time (sec): 1.000000E-1
Scans to average: 1
Electric dark correction enabled: true
Nonlinearity correction enabled: false
Boxcar width: 0
XAxis mode: Wavelengths
Number of Pixels in Spectrum: 3648
>>>>>Begin Spectral Data<<<<<
179.3399	0.3708
179.5586	0.3708
179.7771	0.3708
179.9957	0.3286
180.2143	-0.1469
180.4329	0.1967
180.6514	0.6496
180.8699	-0
181.0885	-0.3034
181.307	0.0454
181.5255	-1.1122
181.744	-0.4206
181.9625	0.1563
182.181	-0
182.3994	-0
182.6179	-0.1622
182.8363	-0.0939
183.0547	-0.2833
183.2732	0.1768
183.4916	0.2516
183.71	0.0917
183.9284	0.2373
184.1467	-0.0828
184.3651	0.0733
184.5835	-0.0464
184.8018	0.3503
185.0201	0.0929
185.2385	0.0914
185.4568	0.6028
185.6751	0.4958
185.8934	0.4456
186.1117	0.146
186.3299	0.0387
186.5482	0.1302
186.7664	-0.1009
186.9847	0.0147
187.2029	0.0488
187.4211	0.0654
187.6393	0.4233
187.8575	-0.14
188.0757	0.2681
188.2939	0.1272
188.512	-0.2301
188.7302	-0.0106
188.9483	0.1708
189.1665	0.1234
189.3846	-0.2657
189.6027	0.2497
189.8208	0.2904
190.0389	0.2292
190.257	0.5116
190.475	0.148
190.6931	0.1881
190.9111	0.1595
191.1292	0.373
191.3472	0.5946
191.5652	0.2033
191.7832	0.1047
192.0012	0.6525
192.2192	0.4622
192.4371	0.5238
192.6551	0.7663
192.873	0.5836
193.091	0.3048
193.3089	0.7397
193.5268	0.7654
193.7447	0.6442
193.9626	0.7696
194.1805	0.5407
194.3984	0.736
194.6162	0.7758
194.8341	0.5685
195.0519	0.5742
195.2697	0.7608
195.4875	0.6131
195.7054	0.8276
195.9231	0.5237
196.1409	0.5223
196.3587	0.5773
196.5765	0.64
196.7942	0.6672
197.012	0.906
197.2297	0.6193
197.4474	0.6664
197.6651	0.5026
197.8828	0.6583
198.1005	0.7028
198.3182	0.7119
198.5358	0.6696
198.7535	0.5876
198.9711	0.6008
199.1888	0.5872
199.4064	0.6869
199.624	0.6566
199.8416	0.7233
200.0592	0.5879
200.2767	0.7557
200.4943	0.6734
200.7119	0.673
200.9294	0.6186
201.1469	0.6845
201.3645	0.6371
201.582	0.6136
201.7995	0.5572
202.017	0.6371
202.2344	0.5402
202.4519	0.7111
202.6694	0.6443
202.8868	0.6517
203.1042	0.7197
203.3217	0.745
203.5391	0.678
203.7565	0.5897
203.9739	0.5982
204.1913	0.6822
204.4086	0.5977
204.626	0.693
204.8433	0.715
205.0607	0.6444
205.278	0.6865
205.4953	0.6257
205.7126	0.7548
205.9299	0.6607
206.1472	0.6254
206.3644	0.5642
206.5817	0.6491
206.7989	0.6935
207.0162	0.6006
207.2334	0.6188
207.4506	0.7249
207.6678	0.6324
207.885	0.6836
208.1022	0.6755
208.3194	0.6471
208.5365	0.6418
208.7537	0.7207
208.9708	0.5309
209.1879	0.6468
209.405	0.7067
209.6222	0.7322
209.8392	0.6693
210.0563	0.6203
210.2734	0.6069
210.4905	0.6643
210.7075	0.5603
210.9245	0.5997
211.1416	0.6733
211.3586	0.6798
211.5756	0.5475
211.7926	0.5836
212.0096	0.5511
212.2265	0.5093
212.4435	0.5868
212.6604	0.6708
212.8774	0.5657
213.0943	0.5977
213.3112	0.5927
213.5281	0.5737
213.745	0.4487
213.9619	0.5087
214.1788	0.5022
214.3956	0.4657
214.6125	0.5061
214.8293	0.4385
215.0461	0.4635
215.2629	0.4737
215.4798	0.483
215.6965	0.4206
215.9133	0.4526
216.1301	0.4153
216.3469	0.4458
216.5636	0.4458
216.7803	0.425
216.9971	0.4163
217.2138	0.3823
217.4305	0.3862
217.6472	0.3424
217.8639	0.3792
218.0805	0.354
218.2972	0.3365
218.5138	0.3124
218.7305	0.3216
218.9471	0.2882
219.1637	0.3291
219.3803	0.2713
219.5969	0.2913
219.8135	0.269
220.0301	0.3154
220.2466	0.2944
220.4632	0.2794
220.6797	0.2547
220.8962	0.2414
221.1127	0.2873
221.3292	0.2629
221.5457	0.2375
221.7622	0.2315
221.9787	0.2692
222.1951	0.256
222.4116	0.2815
222.628	0.2713
222.8444	0.2652
223.0608	0.2523
223.2772	0.2461
223.4936	0.266
223.71	0.2563
223.9264	0.2737
224.1427	0.2656
224.3591	0.2539
224.5754	0.2733
224.7917	0.2731
225.008	0.2646
225.2243	0.2824
225.4406	0.3004
225.6569	0.2832
225.8732	0.2673
226.0894	0.2648
226.3057	0.2518
226.5219	0.2983
226.7381	0.2856
226.9543	0.2958
227.1705	0.3056
227.3867	0.2948
227.6029	0.304
227.8191	0.3163
228.0352	0.296
228.2513	0.3033
228.4675	0.329
228.6836	0.3028
228.8997	0.3153
229.1158	0.3211
229.3319	0.3165
229.548	0.3229
229.764	0.3116
229.9801	0.3377
230.1961	0.3416
230.4121	0.3494
230.6282	0.3457
230.8442	0.323
231.0602	0.3622
231.2761	0.3621
231.4921	0.352
231.7081	0.3446
231.924	0.346
232.14	0.3625
232.3559	0.3405
232.5718	0.391
232.7877	0.3907
233.0036	0.339
233.2195	0.3516
233.4353	0.3691
233.6512	0.3682
233.867	0.3825
234.0829	0.3746
234.2987	0.3841
234.5145	0.3974
234.7303	0.3764
234.9461	0.3909
235.1619	0.3932
235.3776	0.385
235.5934	0.3755
235.8091	0.3682
236.0249	0.3649
236.2406	0.3892
236.4563	0.3903
236.672	0.4052
236.8877	0.4077
237.1034	0.4014
237.319	0.3979
237.5347	0.4158
237.7503	0.3917
237.966	0.4128
238.1816	0.4072
238.3972	0.385
238.6128	0.4246
238.8284	0.4082
239.0439	0.4202
239.2595	0.402
239.475	0.4243
239.6906	0.4079
239.9061	0.4129
240.1216	0.3968
240.3371	0.4248
240.5526	0.4073
240.7681	0.4301
240.9836	0.3911
241.199	0.4046
241.4145	0.3686
241.6299	0.388
241.8453	0.3896
242.0607	0.384
242.2761	0.3467
242.4915	0.3669
242.7069	0.3438
242.9223	0.3786
243.1376	0.344
243.353	0.3453
243.5683	0.3442
243.7836	0.3302
243.9989	0.3366
244.2142	0.3229
244.4295	0.2967
244.6448	0.3146
244.86	0.2888
245.0753	0.2883
245.2905	0.2759
245.5057	0.2915
245.721	0.2651
245.9362	0.2649
246.1514	0.2744
246.3665	0.2658
246.5817	0.2576
246.7969	0.2419
247.012	0.2347
247.2271	0.2429
247.4423	0.2445
247.6574	0.2398
247.8725	0.2446
248.0876	0.2267
248.3026	0.2171
248.5177	0.2278
248.7328	0.2212
248.9478	0.2096
249.1628	0.2186
249.3779	0.2234
249.5929	0.1976
249.8079	0.2284
250.0228	0.204
250.2378	0.2032
250.4528	0.2082
250.6677	0.177
250.8827	0.1934
251.0976	0.1984
251.3125	0.1925
251.5274	0.1669
251.7423	0.192
251.9572	0.1894
252.172	0.1861
252.3869	0.1935
252.6017	0.172
252.8166	0.1788
253.0314	0.1612
253.2462	0.1708
253.461	0.1983
253.6758	0.1701
253.8906	0.1836
254.1053	0.1616
254.3201	0.1797
254.5348	0.1831
254.7496	0.1893
254.9643	0.171
255.179	0.1585
255.3937	0.1581
255.6083	0.1784
255.823	0.1674
256.0377	0.1631
256.2523	0.1685
256.467	0.1485
256.6816	0.1696
256.8962	0.1702
257.1108	0.1679
257.3254	0.1775
257.54	0.1646
257.7545	0.1677
257.9691	0.1801
258.1836	0.1647
258.3981	0.1704
258.6127	0.1599
258.8272	0.1573
259.0417	0.1652
259.2561	0.1584
259.4706	0.1733
259.6851	0.1618
259.8995	0.1623
260.114	0.1412
260.3284	0.1572
260.5428	0.147
260.7572	0.17
260.9716	0.1727
261.186	0.1617
261.4003	0.1676
261.6147	0.1663
261.829	0.1609
262.0433	0.1616
262.2577	0.1561
262.472	0.1682
262.6863	0.1584
262.9005	0.1737
263.1148	0.1657
263.3291	0.1514
263.5433	0.1594
263.7576	0.1679
263.9718	0.1673
264.186	0.159
264.4002	0.1682
264.6144	0.1633
264.8286	0.1719
265.0427	0.1576
265.2569	0.167
265.471	0.1482
265.6851	0.1532
265.8993	0.1568
266.1134	0.1537
266.3275	0.1618
266.5415	0.1534
266.7556	0.171
266.9697	0.1641
267.1837	0.1578
267.3978	0.1662
267.6118	0.1712
267.8258	0.1818
268.0398	0.1543
268.2538	0.1716
268.4677	0.1647
268.6817	0.1614
268.8957	0.1605
269.1096	0.1492
269.3235	0.1655
269.5374	0.1575
269.7514	0.1408
269.9652	0.1565
270.1791	0.1346
270.393	0.1463
270.6068	0.1589
270.8207	0.1419
271.0345	0.1467
271.2483	0.1504
271.4622	0.1551
271.676	0.1471
271.8897	0.1454
272.1035	0.1477
272.3173	0.1409
272.531	0.1409
272.7448	0.1389
272.9585	0.138
273.1722	0.1499
273.3859	0.1503
273.5996	0.1284
273.8133	0.1463
274.0269	0.1388
274.2406	0.1368
274.4542	0.1358
274.6679	0.1347
274.8815	0.1459
275.0951	0.1475
275.3087	0.1511
275.5223	0.1491
275.7358	0.1509
275.9494	0.1486
276.1629	0.1327
276.3765	0.1373
276.59	0.146
276.8035	0.1491
277.017	0.1403
277.2305	0.1435
277.444	0.1472
277.6574	0.1389
277.8709	0.1415
278.0843	0.1343
278.2978	0.1498
278.5112	0.1459
278.7246	0.148
278.938	0.1512
279.1513	0.1516
279.3647	0.1578
279.5781	0.1375
279.7914	0.1432
280.0047	0.1517
280.2181	0.1557
280.4314	0.1564
280.6447	0.1578
280.8579	0.1471
281.0712	0.1621
281.2845	0.1561
281.4977	0.1512
281.711	0.1449
281.9242	0.1522
282.1374	0.1559
282.3506	0.1465
282.5638	0.1537
282.7769	0.1699
282.9901	0.1509
283.2033	0.1554
283.4164	0.1611
283.6295	0.1441
283.8426	0.1528
284.0557	0.1584
284.2688	0.1594
284.4819	0.1599
284.695	0.1536
284.908	0.1567
285.1211	0.1383
285.3341	0.1569
285.5471	0.1669
285.7601	0.1637
285.9731	0.1432
286.1861	0.1501
286.3991	0.1657
286.612	0.1603
286.825	0.1614
287.0379	0.1709
287.2508	0.1702
287.4637	0.1706
287.6766	0.1593
287.8895	0.172
288.1024	0.1832
288.3152	0.1719
288.5281	0.1534
288.7409	0.1651
288.9538	0.1607
289.1666	0.1691
289.3794	0.1631
289.5922	0.1654
289.8049	0.1747
290.0177	0.1584
290.2304	0.1609
290.4432	0.1696
290.6559	0.1686
290.8686	0.1805
291.0813	0.173
291.294	0.1701
291.5067	0.1768
291.7194	0.1602
291.932	0.1744
292.1447	0.1595
292.3573	0.1687
292.5699	0.1566
292.7825	0.1812
292.9951	0.1739
293.2077	0.1653
293.4203	0.1673
293.6328	0.1555
293.8454	0.183
294.0579	0.1707
294.2704	0.1697
294.4829	0.1555
294.6954	0.1738
294.9079	0.1596
295.1204	0.1684
295.3328	0.1721
295.5453	0.1703
295.7577	0.1773
295.9701	0.1594
296.1825	0.1649
296.3949	0.1626
296.6073	0.1691
296.8197	0.1622
297.0321	0.1698
297.2444	0.1607
297.4567	0.1622
297.6691	0.163
297.8814	0.1647
298.0937	0.1572
298.306	0.1668
298.5182	0.164
298.7305	0.1712
298.9428	0.1542
299.155	0.1708
299.3672	0.1529
299.5794	0.148
299.7916	0.1738
300.0038	0.1746
300.216	0.1582
300.4282	0.1713
300.6403	0.171
300.8525	0.1626
301.0646	0.1634
301.2767	0.175
301.4888	0.1625
301.7009	0.1616
301.913	0.156
302.125	0.1684
302.3371	0.1542
302.5491	0.1642
302.7612	0.1732
302.9732	0.1629
303.1852	0.1671
303.3972	0.153
303.6092	0.1519
303.8211	0.149
304.0331	0.1526
304.245	0.1642
304.457	0.1544
304.6689	0.1522
304.8808	0.1774
305.0927	0.1507
305.3046	0.1536
305.5164	0.1658
305.7283	0.149
305.9401	0.1501
306.152	0.1493
306.3638	0.156
306.5756	0.1456
306.7874	0.1535
306.9992	0.1601
307.2109	0.1496
307.4227	0.1374
307.6344	0.1468
307.8462	0.143
308.0579	0.1475
308.2696	0.133
308.4813	0.1315
308.693	0.1269
308.9046	0.1331
309.1163	0.1247
309.328	0.1244
309.5396	0.125
309.7512	0.1169
309.9628	0.131
310.1744	0.1313
310.386	0.1218
310.5976	0.1198
310.8091	0.1135
311.0207	0.1204
311.2322	0.1194
311.4437	0.1144
311.6552	0.1045
311.8667	0.1201
312.0782	0.0931
312.2897	0.1048
312.5012	0.1092
312.7126	0.0977
312.924	0.1072
313.1355	0.1153
313.3469	0.1047
313.5583	0.1037
313.7696	0.1072
313.981	0.1115
314.1924	0.1
314.4037	0.1037
314.6151	0.1077
314.8264	0.0956
315.0377	0.0995
315.249	0.1105
315.4603	0.1092
315.6716	0.1061
315.8828	0.0914
316.0941	0.0982
316.3053	0.0955
316.5165	0.0974
316.7277	0.0977
316.9389	0.107
317.1501	0.0893
317.3613	0.1039
317.5724	0.091
317.7836	0.1
317.9947	0.0984
318.2058	0.0961
318.417	0.0846
318.6281	0.0819
318.8391	0.1068
319.0502	0.0997
319.2613	0.1038
319.4723	0.1053
319.6834	0.1037
319.8944	0.0945
320.1054	0.1037
320.3164	0.1012
320.5274	0.0882
320.7383	0.0954
320.9493	0.0961
321.1602	0.1031
321.3712	0.0894
321.5821	0.0992
321.793	0.1037
322.0039	0.099
322.2148	0.1051
322.4257	0.0975
322.6365	0.1016
322.8474	0.1047
323.0582	0.0896
323.269	0.0933
323.4798	0.1116
323.6906	0.0929
323.9014	0.0954
324.1122	0.0979
324.3229	0.0982
324.5337	0.0903
324.7444	0.1007
324.9551	0.119
325.1658	0.1058
325.3765	0.1001
325.5872	0.1048
325.7979	0.0913
326.0085	0.1115
326.2192	0.1102
326.4298	0.0982
326.6404	0.0897
326.851	0.0956
327.0616	0.0934
327.2722	0.1033
327.4828	0.1116
327.6933	0.1078
327.9039	0.1078
328.1144	0.1095
328.3249	0.1109
328.5354	0.0912
328.7459	0.0959
328.9564	0.0976
329.1669	0.1031
329.3773	0.1099
329.5878	0.1038
329.7982	0.1051
330.0086	0.1054
330.219	0.1138
330.4294	0.1049
330.6398	0.1039
330.8502	0.093
331.0605	0.1154
331.2708	0.1099
331.4812	0.1091
331.6915	0.1075
331.9018	0.1024
332.1121	0.1028
332.3224	0.103
332.5326	0.1163
332.7429	0.1063
332.9531	0.1169
333.1633	0.1062
333.3735	0.11
333.5837	0.101
333.7939	0.1023
334.0041	0.1213
334.2143	0.1185
334.4244	0.0975
334.6346	0.0891
334.8447	0.1199
335.0548	0.1066
335.2649	0.1013
335.475	0.1151
335.685	0.1106
335.8951	0.1075
336.1051	0.1113
336.3152	0.1225
336.5252	0.1027
336.7352	0.1097
336.9452	0.1045
337.1552	0.1114
337.3652	0.1014
337.5751	0.1214
337.7851	0.1216
337.995	0.1066
338.2049	0.1129
338.4148	0.1105
338.6247	0.1093
338.8346	0.1053
339.0445	0.1094
339.2543	0.1047
339.4642	0.1146
339.674	0.0987
339.8838	0.1157
340.0936	0.117
340.3034	0.1225
340.5132	0.1112
340.7229	0.1213
340.9327	0.1131
341.1424	0.1052
341.3522	0.1221
341.5619	0.1239
341.7716	0.122
341.9813	0.1157
342.1909	0.12
342.4006	0.138
342.6102	0.1256
342.8199	0.1276
343.0295	0.1232
343.2391	0.1166
343.4487	0.1329
343.6583	0.1192
343.8679	0.1276
344.0774	0.1292
344.287	0.132
344.4965	0.1226
344.706	0.1236
344.9155	0.1194
345.125	0.1287
345.3345	0.1266
345.544	0.1146
345.7534	0.1266
345.9629	0.1187
346.1723	0.1219
346.3817	0.1194
346.5911	0.1209
346.8005	0.1408
347.0099	0.1302
347.2193	0.128
347.4286	0.1219
347.638	0.1394
347.8473	0.119
348.0566	0.139
348.2659	0.1414
348.4752	0.1435
348.6845	0.1317
348.8937	0.1241
349.103	0.1475
349.3122	0.1298
349.5214	0.129
349.7306	0.1372
349.9398	0.1343
350.149	0.1378
350.3582	0.1341
350.5674	0.1425
350.7765	0.1382
350.9856	0.1385
351.1948	0.1416
351.4039	0.1306
351.613	0.1348
351.822	0.1508
352.0311	0.1588
352.2402	0.1328
352.4492	0.1494
352.6582	0.1474
352.8672	0.1483
353.0762	0.147
353.2852	0.1562
353.4942	0.1477
353.7032	0.157
353.9121	0.1505
354.1211	0.1674
354.33	0.1422
354.5389	0.1452
354.7478	0.1429
354.9567	0.1536
355.1655	0.1413
355.3744	0.1646
355.5833	0.1619
355.7921	0.1773
356.0009	0.1532
356.2097	0.178
356.4185	0.1681
356.6273	0.1664
356.8361	0.1569
357.0448	0.159
357.2536	0.1737
357.4623	0.1605
357.671	0.167
357.8797	0.1643
358.0884	0.163
358.2971	0.166
358.5057	0.1759
358.7144	0.1786
358.923	0.166
359.1316	0.1807
359.3402	0.1745
359.5488	0.1583
359.7574	0.1538
359.966	0.1731
360.1746	0.1677
360.3831	0.1701
360.5916	0.1726
360.8002	0.1832
361.0087	0.1896
361.2172	0.1774
361.4256	0.1716
361.6341	0.1909
361.8426	0.1866
362.051	0.1792
362.2594	0.1769
362.4678	0.1772
362.6762	0.1972
362.8846	0.1792
363.093	0.1828
363.3014	0.1838
363.5097	0.1851
363.718	0.1828
363.9264	0.1756
364.1347	0.1852
364.343	0.2069
364.5513	0.1859
364.7595	0.2128
364.9678	0.1955
365.176	0.1844
365.3842	0.202
365.5925	0.1985
365.8007	0.2074
366.0089	0.1994
366.217	0.1862
366.4252	0.2127
366.6333	0.2121
366.8415	0.2126
367.0496	0.1922
367.2577	0.2046
367.4658	0.2138
367.6739	0.2138
367.882	0.2214
368.09	0.2061
368.2981	0.2116
368.5061	0.1996
368.7141	0.2165
368.9221	0.2139
369.1301	0.2159
369.3381	0.2133
369.5461	0.2224
369.754	0.2159
369.962	0.2338
370.1699	0.2178
370.3778	0.2163
370.5857	0.2179
370.7936	0.2198
371.0015	0.2224
371.2093	0.2276
371.4172	0.2293
371.625	0.2042
371.8328	0.2166
372.0406	0.2233
372.2484	0.2257
372.4562	0.2274
372.664	0.2239
372.8717	0.2302
373.0795	0.2129
373.2872	0.235
373.4949	0.2247
373.7026	0.2443
373.9103	0.2377
374.118	0.2384
374.3256	0.2281
374.5333	0.223
374.7409	0.2254
374.9485	0.2461
375.1561	0.2348
375.3637	0.2425
375.5713	0.2549
375.7789	0.2237
375.9864	0.2402
376.194	0.2237
376.4015	0.2406
376.609	0.2697
376.8165	0.2391
377.024	0.2392
377.2315	0.2294
377.4389	0.246
377.6464	0.2407
377.8538	0.2416
378.0612	0.2436
378.2686	0.2582
378.476	0.2686
378.6834	0.2533
378.8908	0.2554
379.0981	0.2586
379.3055	0.2562
379.5128	0.2536
379.7201	0.2503
379.9274	0.2525
380.1347	0.2633
380.342	0.2649
380.5492	0.2414
380.7565	0.2639
380.9637	0.251
381.1709	0.2599
381.3781	0.2551
381.5853	0.27
381.7925	0.2604
381.9997	0.2621
382.2068	0.264
382.4139	0.2679
382.6211	0.2486
382.8282	0.2477
383.0353	0.257
383.2424	0.2576
383.4494	0.2684
383.6565	0.2663
383.8635	0.2532
384.0706	0.2572
384.2776	0.2749
384.4846	0.2624
384.6916	0.2662
384.8986	0.268
385.1055	0.2564
385.3125	0.2733
385.5194	0.2393
385.7263	0.2717
385.9333	0.2639
386.1402	0.2545
386.347	0.2536
386.5539	0.2428
386.7608	0.2595
386.9676	0.2359
387.1744	0.2627
387.3813	0.2379
387.5881	0.2564
387.7948	0.258
388.0016	0.2527
388.2084	0.257
388.4151	0.2451
388.6219	0.275
388.8286	0.2697
389.0353	0.2718
389.242	0.2644
389.4487	0.2494
389.6553	0.2435
389.862	0.2365
390.0686	0.2578
390.2753	0.2614
390.4819	0.2543
390.6885	0.2411
390.8951	0.2599
391.1016	0.2243
391.3082	0.2594
391.5147	0.2596
391.7213	0.2557
391.9278	0.2336
392.1343	0.2269
392.3408	0.2415
392.5473	0.2326
392.7537	0.2188
392.9602	0.2224
393.1666	0.2374
393.373	0.2417
393.5794	0.2474
393.7858	0.233
393.9922	0.2243
394.1986	0.2518
394.4049	0.24
394.6113	0.2224
394.8176	0.217
395.0239	0.2361
395.2302	0.2158
395.4365	0.2136
395.6428	0.2308
395.8491	0.2327
396.0553	0.2088
396.2615	0.2282
396.4678	0.217
396.674	0.2018
396.8802	0.2213
397.0863	0.2367
397.2925	0.2043
397.4987	0.2089
397.7048	0.2294
397.9109	0.2252
398.117	0.2117
398.3231	0.2011
398.5292	0.2022
398.7353	0.2351
398.9413	0.2173
399.1474	0.2102
399.3534	0.213
399.5594	0.2014
399.7654	0.2234
399.9714	0.2435
400.1774	0.2163
400.3833	0.21
400.5893	0.2187
400.7952	0.2272
401.0011	0.2255
401.207	0.2202
401.4129	0.2084
401.6188	0.2229
401.8247	0.2109
402.0305	0.2322
402.2364	0.2033
402.4422	0.2343
402.648	0.2127
402.8538	0.2468
403.0596	0.2281
403.2654	0.2317
403.4711	0.2234
403.6768	0.2136
403.8826	0.2375
404.0883	0.2333
404.294	0.2298
404.4997	0.2232
404.7054	0.2161
404.911	0.2108
405.1167	0.2137
405.3223	0.2298
405.5279	0.2093
405.7335	0.2367
405.9391	0.2148
406.1447	0.2272
406.3502	0.2253
406.5558	0.2043
406.7613	0.218
406.9668	0.2326
407.1724	0.2239
407.3778	0.2127
407.5833	0.2081
407.7888	0.2214
407.9942	0.2066
408.1997	0.2271
408.4051	0.2235
408.6105	0.2167
408.8159	0.2094
409.0213	0.2169
409.2267	0.2291
409.432	0.2004
409.6374	0.2105
409.8427	0.216
410.048	0.2233
410.2533	0.2114
410.4586	0.2257
410.6639	0.2108
410.8691	0.2234
411.0744	0.2036
411.2796	0.2072
411.4848	0.22
411.69	0.2251
411.8952	0.2408
412.1004	0.2049
412.3056	0.2249
412.5107	0.2137
412.7158	0.2337
412.921	0.2173
413.1261	0.2011
413.3312	0.1972
413.5362	0.2023
413.7413	0.2006
413.9464	0.2122
414.1514	0.2106
414.3564	0.2137
414.5614	0.1977
414.7664	0.2205
414.9714	0.2133
415.1764	0.2138
415.3813	0.2216
415.5863	0.1998
415.7912	0.2092
415.9961	0.2135
416.201	0.1972
416.4059	0.2227
416.6108	0.1787
416.8156	0.2324
417.0205	0.2013
417.2253	0.2096
417.4301	0.2156
417.6349	0.2147
417.8397	0.2048
418.0445	0.1938
418.2492	0.2279
418.454	0.2025
418.6587	0.2161
418.8634	0.198
419.0681	0.1861
419.2728	0.1893
419.4775	0.2018
419.6822	0.2109
419.8868	0.1704
420.0915	0.1966
420.2961	0.1915
420.5007	0.1921
420.7053	0.1961
420.9099	0.1986
421.1144	0.1941
421.319	0.1905
421.5235	0.2071
421.728	0.2026
421.9325	0.1964
422.137	0.2085
422.3415	0.1864
422.546	0.201
422.7504	0.2023
422.9549	0.1972
423.1593	0.1903
423.3637	0.1975
423.5681	0.1849
423.7725	0.1803
423.9769	0.169
424.1812	0.1932
424.3856	0.1694
424.5899	0.1893
424.7942	0.1793
424.9985	0.2061
425.2028	0.1678
425.4071	0.2099
425.6113	0.1731
425.8156	0.1768
426.0198	0.1797
426.224	0.1702
426.4282	0.1798
