Data from MonoPyChalIsomerACN10uM440nmA_Absorbance_15-27-15-494.txt Node
Date: Fri Jul 05 15:27:15 BST 2024
User: LASERRRRR
Spectrometer: FLMT03099
Trigger mode: 0
Integration Time (sec): 1.000000E-1
Scans to average: 1
Electric dark correction enabled: true
Nonlinearity correction enabled: false
Boxcar width: 0
XAxis mode: Wavelengths
Number of Pixels in Spectrum: 3648
>>>>>Begin Spectral Data<<<<<
179.3399	-0.4804
179.5586	-0.4804
179.7771	-0.4804
179.9957	0.4711
180.2143	-0
180.4329	-0.2111
180.6514	-0
180.8699	0.2413
181.0885	0.358
181.307	0.3477
181.5255	-0.7527
181.744	-0.0156
181.9625	-0
182.181	0.0532
182.3994	-0
182.6179	-0
182.8363	0.0097
183.0547	-0.4155
183.2732	-0.0829
183.4916	0.3025
183.71	-0.0677
183.9284	0.1752
184.1467	0.0124
184.3651	0.0109
184.5835	0.1575
184.8018	0.0189
185.0201	0.1446
185.2385	-0.065
185.4568	0.2493
185.6751	0.7649
185.8934	0.2913
186.1117	0.024
186.3299	-0.0135
186.5482	0.1685
186.7664	0.0853
186.9847	-0.1146
187.2029	0.0209
187.4211	0.0731
187.6393	0.1023
187.8575	0.1661
188.0757	0.1355
188.2939	0.1458
188.512	-0
188.7302	0.0512
188.9483	0.11
189.1665	-0.0201
189.3846	-0.1284
189.6027	0.3162
189.8208	0.239
190.0389	0.0667
190.257	0.3141
190.475	0.2131
190.6931	0.5157
190.9111	0.3576
191.1292	0.1425
191.3472	0.5238
191.5652	0.2065
191.7832	0.1625
192.0012	0.4934
192.2192	0.2589
192.4371	0.4564
192.6551	0.7107
192.873	0.4451
193.091	0.3692
193.3089	0.8038
193.5268	0.9146
193.7447	0.6231
193.9626	0.4721
194.1805	1.0344
194.3984	0.8594
194.6162	0.6794
194.8341	0.7107
195.0519	0.4912
195.2697	0.6871
195.4875	0.6335
195.7054	0.5377
195.9231	0.5985
196.1409	0.7119
196.3587	0.7637
196.5765	0.704
196.7942	0.7067
197.012	0.457
197.2297	0.6812
197.4474	0.7935
197.6651	0.6183
197.8828	0.5971
198.1005	0.6201
198.3182	0.7211
198.5358	0.8225
198.7535	0.5909
198.9711	0.4788
199.1888	0.5847
199.4064	0.8087
199.624	0.5526
199.8416	0.6259
200.0592	0.5967
200.2767	0.7224
200.4943	0.6443
200.7119	0.8922
200.9294	0.8032
201.1469	0.6365
201.3645	0.5615
201.582	0.5381
201.7995	0.7906
202.017	0.6629
202.2344	0.6023
202.4519	0.7354
202.6694	0.6524
202.8868	0.695
203.1042	0.8003
203.3217	0.7646
203.5391	0.6653
203.7565	0.6059
203.9739	0.5831
204.1913	0.6125
204.4086	0.6349
204.626	0.6665
204.8433	0.623
205.0607	0.6862
205.278	0.6479
205.4953	0.6683
205.7126	0.6601
205.9299	0.8318
206.1472	0.7337
206.3644	0.6223
206.5817	0.7438
206.7989	0.6937
207.0162	0.6805
207.2334	0.7133
207.4506	0.6864
207.6678	0.6934
207.885	0.714
208.1022	0.6958
208.3194	0.6568
208.5365	0.6502
208.7537	0.6463
208.9708	0.5804
209.1879	0.6871
209.405	0.8057
209.6222	0.797
209.8392	0.6646
210.0563	0.6189
210.2734	0.6904
210.4905	0.6322
210.7075	0.6746
210.9245	0.5856
211.1416	0.6447
211.3586	0.6393
211.5756	0.6285
211.7926	0.6037
212.0096	0.5696
212.2265	0.6254
212.4435	0.5949
212.6604	0.6349
212.8774	0.6115
213.0943	0.5956
213.3112	0.5579
213.5281	0.5625
213.745	0.5395
213.9619	0.5707
214.1788	0.5023
214.3956	0.4472
214.6125	0.5279
214.8293	0.4783
215.0461	0.4523
215.2629	0.4745
215.4798	0.5036
215.6965	0.4303
215.9133	0.4422
216.1301	0.459
216.3469	0.4634
216.5636	0.4037
216.7803	0.3918
216.9971	0.4576
217.2138	0.3881
217.4305	0.4012
217.6472	0.341
217.8639	0.3885
218.0805	0.3361
218.2972	0.3244
218.5138	0.3178
218.7305	0.3257
218.9471	0.3022
219.1637	0.2839
219.3803	0.2786
219.5969	0.2687
219.8135	0.2748
220.0301	0.2964
220.2466	0.2788
220.4632	0.2347
220.6797	0.2497
220.8962	0.218
221.1127	0.2681
221.3292	0.2633
221.5457	0.2406
221.7622	0.2354
221.9787	0.2508
222.1951	0.2301
222.4116	0.2535
222.628	0.2583
222.8444	0.2611
223.0608	0.2664
223.2772	0.2526
223.4936	0.2537
223.71	0.2554
223.9264	0.2763
224.1427	0.244
224.3591	0.246
224.5754	0.261
224.7917	0.2756
225.008	0.2447
225.2243	0.2503
225.4406	0.28
225.6569	0.2654
225.8732	0.2653
226.0894	0.256
226.3057	0.2748
226.5219	0.2776
226.7381	0.2842
226.9543	0.2861
227.1705	0.2862
227.3867	0.28
227.6029	0.2891
227.8191	0.2818
228.0352	0.2872
228.2513	0.3217
228.4675	0.302
228.6836	0.3065
228.8997	0.293
229.1158	0.3202
229.3319	0.2985
229.548	0.316
229.764	0.3191
229.9801	0.3331
230.1961	0.325
230.4121	0.3375
230.6282	0.3348
230.8442	0.3227
231.0602	0.3509
231.2761	0.3411
231.4921	0.3475
231.7081	0.3446
231.924	0.3494
232.14	0.3587
232.3559	0.3472
232.5718	0.3577
232.7877	0.3462
233.0036	0.3456
233.2195	0.35
233.4353	0.3545
233.6512	0.3497
233.867	0.3522
234.0829	0.3625
234.2987	0.3704
234.5145	0.3727
234.7303	0.3691
234.9461	0.3852
235.1619	0.3841
235.3776	0.3743
235.5934	0.4072
235.8091	0.382
236.0249	0.3686
236.2406	0.3822
236.4563	0.3857
236.672	0.3677
236.8877	0.3894
237.1034	0.3976
237.319	0.3767
237.5347	0.4052
237.7503	0.399
237.966	0.4099
238.1816	0.4215
238.3972	0.4012
238.6128	0.3896
238.8284	0.4052
239.0439	0.4106
239.2595	0.4028
239.475	0.4218
239.6906	0.4032
239.9061	0.3862
240.1216	0.413
240.3371	0.4051
240.5526	0.3979
240.7681	0.4164
240.9836	0.3861
241.199	0.4161
241.4145	0.4003
241.6299	0.3843
241.8453	0.4025
242.0607	0.3819
242.2761	0.3522
242.4915	0.3671
242.7069	0.3801
242.9223	0.3537
243.1376	0.3367
243.353	0.3551
243.5683	0.3531
243.7836	0.3168
243.9989	0.3266
244.2142	0.3087
244.4295	0.3215
244.6448	0.3166
244.86	0.2959
245.0753	0.2847
245.2905	0.2989
245.5057	0.2898
245.721	0.2785
245.9362	0.2505
246.1514	0.2796
246.3665	0.2545
246.5817	0.2523
246.7969	0.2522
247.012	0.2286
247.2271	0.2501
247.4423	0.2441
247.6574	0.2395
247.8725	0.2441
248.0876	0.2233
248.3026	0.2168
248.5177	0.2184
248.7328	0.2209
248.9478	0.2101
249.1628	0.2149
249.3779	0.2228
249.5929	0.2025
249.8079	0.2176
250.0228	0.2087
250.2378	0.2101
250.4528	0.2
250.6677	0.1954
250.8827	0.1953
251.0976	0.2025
251.3125	0.1986
251.5274	0.1769
251.7423	0.1765
251.9572	0.1947
252.172	0.1676
252.3869	0.1834
252.6017	0.1711
252.8166	0.173
253.0314	0.1766
253.2462	0.1736
253.461	0.1751
253.6758	0.1629
253.8906	0.1842
254.1053	0.1704
254.3201	0.1722
254.5348	0.1868
254.7496	0.1755
254.9643	0.1591
255.179	0.1696
255.3937	0.1638
255.6083	0.1699
255.823	0.1803
256.0377	0.161
256.2523	0.1736
256.467	0.1566
256.6816	0.1721
256.8962	0.1635
257.1108	0.1607
257.3254	0.1572
257.54	0.165
257.7545	0.1707
257.9691	0.1694
258.1836	0.1695
258.3981	0.1804
258.6127	0.1769
258.8272	0.168
259.0417	0.1619
259.2561	0.168
259.4706	0.175
259.6851	0.1705
259.8995	0.1614
260.114	0.1495
260.3284	0.1592
260.5428	0.1552
260.7572	0.1626
260.9716	0.1691
261.186	0.1626
261.4003	0.171
261.6147	0.167
261.829	0.1671
262.0433	0.16
262.2577	0.1639
262.472	0.1724
262.6863	0.162
262.9005	0.1679
263.1148	0.1688
263.3291	0.1501
263.5433	0.1696
263.7576	0.1616
263.9718	0.175
264.186	0.1594
264.4002	0.1579
264.6144	0.16
264.8286	0.1686
265.0427	0.1575
265.2569	0.1692
265.471	0.1612
265.6851	0.1628
265.8993	0.1564
266.1134	0.1604
266.3275	0.1614
266.5415	0.1568
266.7556	0.1795
266.9697	0.1685
267.1837	0.173
267.3978	0.1596
267.6118	0.1752
267.8258	0.1683
268.0398	0.1645
268.2538	0.1728
268.4677	0.1493
268.6817	0.1614
268.8957	0.1635
269.1096	0.1638
269.3235	0.1663
269.5374	0.1599
269.7514	0.1603
269.9652	0.1463
270.1791	0.1512
270.393	0.1544
270.6068	0.1632
270.8207	0.1471
271.0345	0.1562
271.2483	0.1597
271.4622	0.1369
271.676	0.1529
271.8897	0.1515
272.1035	0.1404
272.3173	0.1431
272.531	0.1484
272.7448	0.142
272.9585	0.1397
273.1722	0.1458
273.3859	0.162
273.5996	0.1435
273.8133	0.1521
274.0269	0.1423
274.2406	0.1425
274.4542	0.1471
274.6679	0.1431
274.8815	0.1605
275.0951	0.1531
275.3087	0.1476
275.5223	0.1561
275.7358	0.1424
275.9494	0.1538
276.1629	0.1316
276.3765	0.1472
276.59	0.1464
276.8035	0.1502
277.017	0.1414
277.2305	0.1372
277.444	0.1559
277.6574	0.1532
277.8709	0.1404
278.0843	0.1449
278.2978	0.1422
278.5112	0.1339
278.7246	0.1571
278.938	0.1586
279.1513	0.157
279.3647	0.1668
279.5781	0.1424
279.7914	0.1557
280.0047	0.1617
280.2181	0.1456
280.4314	0.1592
280.6447	0.1588
280.8579	0.1599
281.0712	0.1541
281.2845	0.159
281.4977	0.1575
281.711	0.1496
281.9242	0.152
282.1374	0.1544
282.3506	0.1442
282.5638	0.1631
282.7769	0.1622
282.9901	0.138
283.2033	0.164
283.4164	0.1676
283.6295	0.1441
283.8426	0.1596
284.0557	0.1554
284.2688	0.1652
284.4819	0.1705
284.695	0.1644
284.908	0.1557
285.1211	0.1553
285.3341	0.158
285.5471	0.1673
285.7601	0.1462
285.9731	0.1504
286.1861	0.1467
286.3991	0.1656
286.612	0.1736
286.825	0.1602
287.0379	0.1636
287.2508	0.1511
287.4637	0.1653
287.6766	0.1429
287.8895	0.1773
288.1024	0.1868
288.3152	0.1798
288.5281	0.1472
288.7409	0.1695
288.9538	0.162
289.1666	0.1741
289.3794	0.1575
289.5922	0.1664
289.8049	0.1707
290.0177	0.1624
290.2304	0.1648
290.4432	0.1728
290.6559	0.1539
290.8686	0.1694
291.0813	0.1638
291.294	0.166
291.5067	0.1682
291.7194	0.1598
291.932	0.1771
292.1447	0.1582
292.3573	0.1465
292.5699	0.1621
292.7825	0.1775
292.9951	0.1628
293.2077	0.1586
293.4203	0.1616
293.6328	0.1525
293.8454	0.1628
294.0579	0.1697
294.2704	0.1577
294.4829	0.1505
294.6954	0.1752
294.9079	0.1523
295.1204	0.1581
295.3328	0.1604
295.5453	0.1694
295.7577	0.1682
295.9701	0.1448
296.1825	0.1644
296.3949	0.1561
296.6073	0.1668
296.8197	0.1516
297.0321	0.1658
297.2444	0.1502
297.4567	0.1707
297.6691	0.1593
297.8814	0.1609
298.0937	0.1566
298.306	0.1707
298.5182	0.157
298.7305	0.1721
298.9428	0.1572
299.155	0.1562
299.3672	0.1647
299.5794	0.1518
299.7916	0.1568
300.0038	0.1645
300.216	0.1671
300.4282	0.179
300.6403	0.1552
300.8525	0.1647
301.0646	0.15
301.2767	0.1694
301.4888	0.1593
301.7009	0.1553
301.913	0.1628
302.125	0.1644
302.3371	0.1465
302.5491	0.1563
302.7612	0.1806
302.9732	0.1731
303.1852	0.164
303.3972	0.156
303.6092	0.162
303.8211	0.1491
304.0331	0.1459
304.245	0.1459
304.457	0.151
304.6689	0.1494
304.8808	0.1663
305.0927	0.1467
305.3046	0.1539
305.5164	0.1626
305.7283	0.1538
305.9401	0.1545
306.152	0.1412
306.3638	0.1542
306.5756	0.1451
306.7874	0.1536
306.9992	0.1442
307.2109	0.1435
307.4227	0.1198
307.6344	0.134
307.8462	0.1366
308.0579	0.1311
308.2696	0.1318
308.4813	0.1239
308.693	0.1318
308.9046	0.1305
309.1163	0.1268
309.328	0.1272
309.5396	0.12
309.7512	0.1253
309.9628	0.1186
310.1744	0.1194
310.386	0.124
310.5976	0.1252
310.8091	0.1235
311.0207	0.1169
311.2322	0.1237
311.4437	0.1082
311.6552	0.1136
311.8667	0.1231
312.0782	0.0934
312.2897	0.1029
312.5012	0.1079
312.7126	0.1108
312.924	0.106
313.1355	0.1206
313.3469	0.1123
313.5583	0.1112
313.7696	0.1131
313.981	0.1099
314.1924	0.0993
314.4037	0.1104
314.6151	0.1088
314.8264	0.0982
315.0377	0.1001
315.249	0.0977
315.4603	0.1055
315.6716	0.0966
315.8828	0.096
316.0941	0.1049
316.3053	0.0983
316.5165	0.095
316.7277	0.0901
316.9389	0.1094
317.1501	0.0957
317.3613	0.103
317.5724	0.0963
317.7836	0.1071
317.9947	0.099
318.2058	0.1036
318.417	0.1098
318.6281	0.087
318.8391	0.0976
319.0502	0.0914
319.2613	0.1003
319.4723	0.0997
319.6834	0.1065
319.8944	0.0975
320.1054	0.094
320.3164	0.1072
320.5274	0.0985
320.7383	0.0884
320.9493	0.1008
321.1602	0.1193
321.3712	0.0792
321.5821	0.1086
321.793	0.1022
322.0039	0.1003
322.2148	0.0967
322.4257	0.097
322.6365	0.1191
322.8474	0.105
323.0582	0.1025
323.269	0.1033
323.4798	0.112
323.6906	0.0998
323.9014	0.107
324.1122	0.1007
324.3229	0.1042
324.5337	0.1109
324.7444	0.1006
324.9551	0.119
325.1658	0.1151
325.3765	0.102
325.5872	0.1035
325.7979	0.098
326.0085	0.1042
326.2192	0.1031
326.4298	0.104
326.6404	0.0876
326.851	0.1028
327.0616	0.0958
327.2722	0.1023
327.4828	0.1078
327.6933	0.1051
327.9039	0.1087
328.1144	0.1175
328.3249	0.1033
328.5354	0.1048
328.7459	0.1074
328.9564	0.1029
329.1669	0.1003
329.3773	0.1048
329.5878	0.1075
329.7982	0.1084
330.0086	0.1095
330.219	0.1013
330.4294	0.1025
330.6398	0.1036
330.8502	0.1077
331.0605	0.1128
331.2708	0.1043
331.4812	0.1039
331.6915	0.1115
331.9018	0.1173
332.1121	0.1023
332.3224	0.1029
332.5326	0.1099
332.7429	0.1117
332.9531	0.1117
333.1633	0.1141
333.3735	0.1201
333.5837	0.1116
333.7939	0.1092
334.0041	0.1137
334.2143	0.112
334.4244	0.1152
334.6346	0.093
334.8447	0.1247
335.0548	0.1105
335.2649	0.0991
335.475	0.1288
335.685	0.1167
335.8951	0.116
336.1051	0.1104
336.3152	0.1122
336.5252	0.1048
336.7352	0.1116
336.9452	0.1205
337.1552	0.1157
337.3652	0.1114
337.5751	0.1111
337.7851	0.1148
337.995	0.1177
338.2049	0.1203
338.4148	0.1207
338.6247	0.1187
338.8346	0.1069
339.0445	0.1176
339.2543	0.1109
339.4642	0.1151
339.674	0.1115
339.8838	0.119
340.0936	0.1086
340.3034	0.121
340.5132	0.1226
340.7229	0.1244
340.9327	0.1202
341.1424	0.1191
341.3522	0.1215
341.5619	0.131
341.7716	0.1259
341.9813	0.1194
342.1909	0.126
342.4006	0.1319
342.6102	0.1271
342.8199	0.1196
343.0295	0.1327
343.2391	0.1329
343.4487	0.1168
343.6583	0.1243
343.8679	0.1243
344.0774	0.1256
344.287	0.1268
344.4965	0.1218
344.706	0.1371
344.9155	0.1256
345.125	0.1212
345.3345	0.1377
345.544	0.1376
345.7534	0.1212
345.9629	0.1314
346.1723	0.1348
346.3817	0.1303
346.5911	0.124
346.8005	0.1392
347.0099	0.1297
347.2193	0.1418
347.4286	0.1258
347.638	0.1292
347.8473	0.125
348.0566	0.1483
348.2659	0.1423
348.4752	0.1271
348.6845	0.1301
348.8937	0.1379
349.103	0.1369
349.3122	0.1243
349.5214	0.1366
349.7306	0.1317
349.9398	0.1452
350.149	0.1345
350.3582	0.1324
350.5674	0.1546
350.7765	0.1388
350.9856	0.1484
351.1948	0.1347
351.4039	0.1217
351.613	0.1409
351.822	0.1485
352.0311	0.1284
352.2402	0.153
352.4492	0.1536
352.6582	0.1446
352.8672	0.1533
353.0762	0.1553
353.2852	0.1478
353.4942	0.1423
353.7032	0.1505
353.9121	0.1572
354.1211	0.1469
354.33	0.1558
354.5389	0.1568
354.7478	0.1521
354.9567	0.1628
355.1655	0.1559
355.3744	0.1545
355.5833	0.1547
355.7921	0.173
356.0009	0.1708
356.2097	0.1764
356.4185	0.1658
356.6273	0.1554
356.8361	0.1666
357.0448	0.1609
357.2536	0.1482
357.4623	0.1646
357.671	0.1637
357.8797	0.1563
358.0884	0.1629
358.2971	0.1596
358.5057	0.1687
358.7144	0.1745
358.923	0.1691
359.1316	0.1695
359.3402	0.1693
359.5488	0.1859
359.7574	0.1628
359.966	0.1816
360.1746	0.1813
360.3831	0.176
360.5916	0.1685
360.8002	0.1671
361.0087	0.1951
361.2172	0.1858
361.4256	0.1683
361.6341	0.1972
361.8426	0.1756
362.051	0.1874
362.2594	0.1838
362.4678	0.1753
362.6762	0.2039
362.8846	0.197
363.093	0.1634
363.3014	0.196
363.5097	0.1748
363.718	0.1846
363.9264	0.1963
364.1347	0.1771
364.343	0.1985
364.5513	0.2141
364.7595	0.2028
364.9678	0.1869
365.176	0.1962
365.3842	0.1929
365.5925	0.1957
365.8007	0.208
366.0089	0.1876
366.217	0.1905
366.4252	0.2057
366.6333	0.2167
366.8415	0.1994
367.0496	0.1823
367.2577	0.2217
367.4658	0.2168
367.6739	0.206
367.882	0.1992
368.09	0.2036
368.2981	0.2336
368.5061	0.1927
368.7141	0.213
368.9221	0.1988
369.1301	0.1987
369.3381	0.2034
369.5461	0.2082
369.754	0.2005
369.962	0.2162
370.1699	0.2105
370.3778	0.2221
370.5857	0.202
370.7936	0.2109
371.0015	0.2159
371.2093	0.2409
371.4172	0.2295
371.625	0.2116
371.8328	0.209
372.0406	0.2252
372.2484	0.2016
372.4562	0.2233
372.664	0.2194
372.8717	0.2404
373.0795	0.1931
373.2872	0.2185
373.4949	0.2249
373.7026	0.2407
373.9103	0.2444
374.118	0.2345
374.3256	0.2328
374.5333	0.2193
374.7409	0.2218
374.9485	0.2336
375.1561	0.2174
375.3637	0.2321
375.5713	0.237
375.7789	0.2343
375.9864	0.2278
376.194	0.2328
376.4015	0.243
376.609	0.2252
376.8165	0.2508
377.024	0.2279
377.2315	0.2165
377.4389	0.2273
377.6464	0.2549
377.8538	0.2346
378.0612	0.2279
378.2686	0.2535
378.476	0.2516
378.6834	0.2288
378.8908	0.251
379.0981	0.2329
379.3055	0.2407
379.5128	0.2335
379.7201	0.2393
379.9274	0.2288
380.1347	0.2454
380.342	0.2627
380.5492	0.2254
380.7565	0.2332
380.9637	0.2517
381.1709	0.2427
381.3781	0.242
381.5853	0.2426
381.7925	0.2396
381.9997	0.2395
382.2068	0.2531
382.4139	0.2512
382.6211	0.2402
382.8282	0.2422
383.0353	0.2441
383.2424	0.2506
383.4494	0.2708
383.6565	0.2602
383.8635	0.2713
384.0706	0.2518
384.2776	0.2545
384.4846	0.2549
384.6916	0.2444
384.8986	0.2429
385.1055	0.2621
385.3125	0.2502
385.5194	0.2348
385.7263	0.2432
385.9333	0.2507
386.1402	0.2543
386.347	0.2523
386.5539	0.2445
386.7608	0.2602
386.9676	0.2387
387.1744	0.244
387.3813	0.2402
387.5881	0.2413
387.7948	0.2354
388.0016	0.2378
388.2084	0.2251
388.4151	0.2447
388.6219	0.2601
388.8286	0.2379
389.0353	0.277
389.242	0.2398
389.4487	0.2339
389.6553	0.2352
389.862	0.2305
390.0686	0.2449
390.2753	0.2542
390.4819	0.2472
390.6885	0.2382
390.8951	0.2552
391.1016	0.2228
391.3082	0.2333
391.5147	0.2406
391.7213	0.2391
391.9278	0.2396
392.1343	0.2213
392.3408	0.2308
392.5473	0.2375
392.7537	0.2234
392.9602	0.2273
393.1666	0.2208
393.373	0.2253
393.5794	0.2282
393.7858	0.2238
393.9922	0.2218
394.1986	0.2285
394.4049	0.221
394.6113	0.225
394.8176	0.2109
395.0239	0.2357
395.2302	0.2106
395.4365	0.219
395.6428	0.2324
395.8491	0.2148
396.0553	0.2137
396.2615	0.2363
396.4678	0.2079
396.674	0.1908
396.8802	0.2184
397.0863	0.22
397.2925	0.21
397.4987	0.211
397.7048	0.189
397.9109	0.2092
398.117	0.2136
398.3231	0.2058
398.5292	0.2147
398.7353	0.2321
398.9413	0.2031
399.1474	0.212
399.3534	0.209
399.5594	0.1983
399.7654	0.2277
399.9714	0.2053
400.1774	0.1975
400.3833	0.2109
400.5893	0.2214
400.7952	0.2024
401.0011	0.1971
401.207	0.21
401.4129	0.2207
401.6188	0.2143
401.8247	0.21
402.0305	0.1916
402.2364	0.2
402.4422	0.2294
402.648	0.2125
402.8538	0.2057
403.0596	0.1934
403.2654	0.2069
403.4711	0.2164
403.6768	0.2073
403.8826	0.2155
404.0883	0.215
404.294	0.2119
404.4997	0.2023
404.7054	0.2166
404.911	0.2038
405.1167	0.2054
405.3223	0.2203
405.5279	0.2207
405.7335	0.2113
405.9391	0.2267
406.1447	0.1968
406.3502	0.2297
406.5558	0.191
406.7613	0.2088
406.9668	0.2184
407.1724	0.2194
407.3778	0.2013
407.5833	0.211
407.7888	0.1951
407.9942	0.2203
408.1997	0.2086
408.4051	0.2195
408.6105	0.2004
408.8159	0.1925
409.0213	0.1953
409.2267	0.2316
409.432	0.2109
409.6374	0.2165
409.8427	0.2126
410.048	0.2067
410.2533	0.2079
410.4586	0.2036
410.6639	0.1928
410.8691	0.2021
411.0744	0.1987
411.2796	0.1947
411.4848	0.1963
411.69	0.1906
411.8952	0.2191
412.1004	0.1911
412.3056	0.2004
412.5107	0.1902
412.7158	0.225
412.921	0.1965
413.1261	0.1963
413.3312	0.2054
413.5362	0.1905
413.7413	0.1979
413.9464	0.1963
414.1514	0.2109
414.3564	0.1878
414.5614	0.1877
414.7664	0.204
414.9714	0.1972
415.1764	0.2053
415.3813	0.2004
415.5863	0.1935
415.7912	0.2064
415.9961	0.2223
416.201	0.1991
416.4059	0.2128
416.6108	0.1857
416.8156	0.2014
417.0205	0.2028
417.2253	0.186
417.4301	0.2125
417.6349	0.2058
417.8397	0.1887
418.0445	0.2067
418.2492	0.1891
418.454	0.2028
418.6587	0.1974
418.8634	0.187
419.0681	0.1765
419.2728	0.1793
419.4775	0.1998
419.6822	0.1875
419.8868	0.1875
420.0915	0.191
420.2961	0.1787
420.5007	0.1865
420.7053	0.197
420.9099	0.1856
421.1144	0.1906
421.319	0.1757
421.5235	0.1905
421.728	0.188
421.9325	0.1872
422.137	0.1965
422.3415	0.1739
422.546	0.1997
422.7504	0.1677
422.9549	0.1898
423.1593	0.1743
423.3637	0.2086
423.5681	0.1682
423.7725	0.1748
423.9769	0.1794
424.1812	0.154
424.3856	0.1733
424.5899	0.1837
424.7942	0.1764
424.9985	0.1843
425.2028	0.1673
425.4071	0.1943
425.6113	0.1486
425.8156	0.1657
426.0198	0.1682
426.224	0.1369
426.4282	0.1531
426.6324	0.1576
426.8366	0.1777
