Data from MonoPyChalIsomerACN10uM440nmA_Absorbance_15-27-14-398.txt Node
Date: Fri Jul 05 15:27:14 BST 2024
User: LASERRRRR
Spectrometer: FLMT03099
Trigger mode: 0
Integration Time (sec): 1.000000E-1
Scans to average: 1
Electric dark correction enabled: true
Nonlinearity correction enabled: false
Boxcar width: 0
XAxis mode: Wavelengths
Number of Pixels in Spectrum: 3648
>>>>>Begin Spectral Data<<<<<
179.3399	0.2361
179.5586	0.2361
179.7771	0.2361
179.9957	0.7757
180.2143	-0
180.4329	-0.3152
180.6514	1.6039
180.8699	-0
181.0885	-0.0304
181.307	0.1403
181.5255	-0.1015
181.744	-0.8375
181.9625	-0.5064
182.181	-0
182.3994	0.6236
182.6179	-0
182.8363	-0.0617
183.0547	-0.0122
183.2732	-0.1151
183.4916	0.0677
183.71	0.0683
183.9284	-0.1099
184.1467	-0.1452
184.3651	-0.0776
184.5835	0.0745
184.8018	0.0622
185.0201	0.1373
185.2385	0.0272
185.4568	0.3735
185.6751	-0.0105
185.8934	0.3967
186.1117	0.1566
186.3299	-0.0242
186.5482	0.0237
186.7664	-0.1574
186.9847	-0.1287
187.2029	-0.0059
187.4211	0.0803
187.6393	-0.0147
187.8575	0.2209
188.0757	0.2421
188.2939	0.0701
188.512	-0.1355
188.7302	0.0573
188.9483	0.0627
189.1665	0.1075
189.3846	-0.2793
189.6027	0.1819
189.8208	0.1506
190.0389	0.0338
190.257	0.0509
190.475	0.0529
190.6931	0.2034
190.9111	0.4362
191.1292	0.226
191.3472	0.3428
191.5652	0.2639
191.7832	0.211
192.0012	0.2643
192.2192	0.3225
192.4371	0.4406
192.6551	0.6598
192.873	0.3802
193.091	0.5174
193.3089	0.3211
193.5268	0.5155
193.7447	0.5875
193.9626	0.6512
194.1805	0.4121
194.3984	0.6825
194.6162	0.4946
194.8341	0.5383
195.0519	0.7587
195.2697	0.8074
195.4875	0.6434
195.7054	0.5126
195.9231	0.4877
196.1409	0.6022
196.3587	0.5159
196.5765	0.8489
196.7942	0.6145
197.012	0.6355
197.2297	0.6276
197.4474	0.5724
197.6651	0.4746
197.8828	0.6514
198.1005	0.5871
198.3182	0.5914
198.5358	0.9957
198.7535	0.5054
198.9711	0.5039
199.1888	0.7797
199.4064	0.8525
199.624	0.6351
199.8416	0.6079
200.0592	0.7489
200.2767	0.6406
200.4943	0.6441
200.7119	0.8313
200.9294	0.6322
201.1469	0.6756
201.3645	0.523
201.582	0.5959
201.7995	0.6861
202.017	0.6866
202.2344	0.6306
202.4519	0.7351
202.6694	0.6683
202.8868	0.5889
203.1042	0.8072
203.3217	0.7235
203.5391	0.6191
203.7565	0.5161
203.9739	0.6499
204.1913	0.595
204.4086	0.6872
204.626	0.7265
204.8433	0.6133
205.0607	0.6064
205.278	0.6121
205.4953	0.6118
205.7126	0.6456
205.9299	0.9177
206.1472	0.7092
206.3644	0.6427
206.5817	0.7678
206.7989	0.7347
207.0162	0.6278
207.2334	0.6432
207.4506	0.6594
207.6678	0.6357
207.885	0.6427
208.1022	0.7824
208.3194	0.7058
208.5365	0.6569
208.7537	0.7008
208.9708	0.6436
209.1879	0.6087
209.405	0.6878
209.6222	0.7184
209.8392	0.698
210.0563	0.6494
210.2734	0.6069
210.4905	0.6643
210.7075	0.6208
210.9245	0.6439
211.1416	0.6892
211.3586	0.6124
211.5756	0.603
211.7926	0.6284
212.0096	0.5842
212.2265	0.5756
212.4435	0.5477
212.6604	0.632
212.8774	0.5625
213.0943	0.6132
213.3112	0.5759
213.5281	0.5504
213.745	0.4925
213.9619	0.5189
214.1788	0.5144
214.3956	0.4826
214.6125	0.4779
214.8293	0.4636
215.0461	0.427
215.2629	0.4723
215.4798	0.4649
215.6965	0.444
215.9133	0.4735
216.1301	0.419
216.3469	0.4485
216.5636	0.4343
216.7803	0.3858
216.9971	0.4332
217.2138	0.3642
217.4305	0.359
217.6472	0.381
217.8639	0.3723
218.0805	0.3396
218.2972	0.3313
218.5138	0.3232
218.7305	0.3418
218.9471	0.3202
219.1637	0.2877
219.3803	0.2912
219.5969	0.2831
219.8135	0.2473
220.0301	0.2615
220.2466	0.2682
220.4632	0.2686
220.6797	0.259
220.8962	0.232
221.1127	0.2569
221.3292	0.2326
221.5457	0.2349
221.7622	0.2393
221.9787	0.2366
222.1951	0.2408
222.4116	0.2544
222.628	0.2592
222.8444	0.2373
223.0608	0.2462
223.2772	0.2541
223.4936	0.2274
223.71	0.2557
223.9264	0.2756
224.1427	0.2756
224.3591	0.2533
224.5754	0.2612
224.7917	0.2491
225.008	0.2564
225.2243	0.2445
225.4406	0.2704
225.6569	0.2758
225.8732	0.2732
226.0894	0.256
226.3057	0.2549
226.5219	0.2937
226.7381	0.2678
226.9543	0.2735
227.1705	0.2988
227.3867	0.2786
227.6029	0.2976
227.8191	0.289
228.0352	0.2875
228.2513	0.3212
228.4675	0.299
228.6836	0.3064
228.8997	0.2916
229.1158	0.2905
229.3319	0.3062
229.548	0.2944
229.764	0.3011
229.9801	0.3055
230.1961	0.3346
230.4121	0.3369
230.6282	0.3213
230.8442	0.3173
231.0602	0.3449
231.2761	0.3569
231.4921	0.3335
231.7081	0.3487
231.924	0.3416
232.14	0.3423
232.3559	0.3488
232.5718	0.3505
232.7877	0.3582
233.0036	0.3529
233.2195	0.3449
233.4353	0.3496
233.6512	0.3699
233.867	0.3678
234.0829	0.3622
234.2987	0.3492
234.5145	0.3648
234.7303	0.385
234.9461	0.3773
235.1619	0.3697
235.3776	0.3737
235.5934	0.3884
235.8091	0.3714
236.0249	0.3615
236.2406	0.3788
236.4563	0.39
236.672	0.3944
236.8877	0.4012
237.1034	0.391
237.319	0.3958
237.5347	0.4108
237.7503	0.3855
237.966	0.4035
238.1816	0.417
238.3972	0.4177
238.6128	0.3927
238.8284	0.3994
239.0439	0.3968
239.2595	0.4033
239.475	0.3997
239.6906	0.4117
239.9061	0.3957
240.1216	0.3988
240.3371	0.4038
240.5526	0.3829
240.7681	0.42
240.9836	0.3879
241.199	0.4006
241.4145	0.3869
241.6299	0.3749
241.8453	0.375
242.0607	0.3865
242.2761	0.3592
242.4915	0.3716
242.7069	0.3687
242.9223	0.3619
243.1376	0.3347
243.353	0.342
243.5683	0.3507
243.7836	0.325
243.9989	0.3251
244.2142	0.3036
244.4295	0.3129
244.6448	0.2942
244.86	0.31
245.0753	0.2775
245.2905	0.2864
245.5057	0.2756
245.721	0.2691
245.9362	0.2696
246.1514	0.2688
246.3665	0.2624
246.5817	0.2711
246.7969	0.2561
247.012	0.2479
247.2271	0.238
247.4423	0.2493
247.6574	0.2479
247.8725	0.2311
248.0876	0.2236
248.3026	0.2201
248.5177	0.2245
248.7328	0.2163
248.9478	0.2164
249.1628	0.2069
249.3779	0.2216
249.5929	0.2028
249.8079	0.2128
250.0228	0.1964
250.2378	0.207
250.4528	0.1969
250.6677	0.1948
250.8827	0.1937
251.0976	0.1858
251.3125	0.1907
251.5274	0.169
251.7423	0.1687
251.9572	0.1864
252.172	0.1855
252.3869	0.1835
252.6017	0.1745
252.8166	0.1709
253.0314	0.1723
253.2462	0.1622
253.461	0.1847
253.6758	0.1716
253.8906	0.1773
254.1053	0.1712
254.3201	0.1673
254.5348	0.1657
254.7496	0.1797
254.9643	0.1631
255.179	0.1653
255.3937	0.1577
255.6083	0.1794
255.823	0.1773
256.0377	0.1652
256.2523	0.172
256.467	0.154
256.6816	0.1669
256.8962	0.1702
257.1108	0.1604
257.3254	0.1718
257.54	0.159
257.7545	0.1595
257.9691	0.1669
258.1836	0.1627
258.3981	0.1762
258.6127	0.1746
258.8272	0.1585
259.0417	0.1683
259.2561	0.1558
259.4706	0.1666
259.6851	0.1728
259.8995	0.147
260.114	0.1545
260.3284	0.1558
260.5428	0.1498
260.7572	0.1692
260.9716	0.1653
261.186	0.1534
261.4003	0.1487
261.6147	0.1662
261.829	0.1732
262.0433	0.158
262.2577	0.1577
262.472	0.1672
262.6863	0.1597
262.9005	0.1578
263.1148	0.1584
263.3291	0.1484
263.5433	0.1621
263.7576	0.1676
263.9718	0.1625
264.186	0.1549
264.4002	0.1505
264.6144	0.1523
264.8286	0.173
265.0427	0.1711
265.2569	0.1604
265.471	0.1604
265.6851	0.1626
265.8993	0.1603
266.1134	0.1652
266.3275	0.1537
266.5415	0.1624
266.7556	0.1548
266.9697	0.1606
267.1837	0.1667
267.3978	0.156
267.6118	0.1657
267.8258	0.1699
268.0398	0.1537
268.2538	0.1606
268.4677	0.1697
268.6817	0.1588
268.8957	0.1634
269.1096	0.162
269.3235	0.161
269.5374	0.1565
269.7514	0.1494
269.9652	0.1588
270.1791	0.1541
270.393	0.1412
270.6068	0.1395
270.8207	0.1379
271.0345	0.1523
271.2483	0.1577
271.4622	0.1505
271.676	0.156
271.8897	0.1514
272.1035	0.1532
272.3173	0.1334
272.531	0.1425
272.7448	0.1404
272.9585	0.1403
273.1722	0.139
273.3859	0.1452
273.5996	0.1424
273.8133	0.1515
274.0269	0.1348
274.2406	0.1477
274.4542	0.1358
274.6679	0.1408
274.8815	0.1412
275.0951	0.1364
275.3087	0.1488
275.5223	0.151
275.7358	0.1412
275.9494	0.1553
276.1629	0.1355
276.3765	0.1453
276.59	0.144
276.8035	0.1398
277.017	0.1557
277.2305	0.1373
277.444	0.1517
277.6574	0.1377
277.8709	0.1395
278.0843	0.1389
278.2978	0.1424
278.5112	0.1418
278.7246	0.1458
278.938	0.1483
279.1513	0.1558
279.3647	0.1639
279.5781	0.1477
279.7914	0.1467
280.0047	0.1584
280.2181	0.1516
280.4314	0.1575
280.6447	0.1585
280.8579	0.1535
281.0712	0.1614
281.2845	0.1561
281.4977	0.1473
281.711	0.1371
281.9242	0.1533
282.1374	0.158
282.3506	0.1499
282.5638	0.1523
282.7769	0.1576
282.9901	0.1484
283.2033	0.1613
283.4164	0.1653
283.6295	0.1538
283.8426	0.1574
284.0557	0.1524
284.2688	0.1763
284.4819	0.1609
284.695	0.1531
284.908	0.1596
285.1211	0.1636
285.3341	0.1588
285.5471	0.1682
285.7601	0.1558
285.9731	0.1497
286.1861	0.1588
286.3991	0.1544
286.612	0.1638
286.825	0.1603
287.0379	0.1659
287.2508	0.1539
287.4637	0.1638
287.6766	0.1442
287.8895	0.1688
288.1024	0.1656
288.3152	0.1697
288.5281	0.1562
288.7409	0.1634
288.9538	0.1617
289.1666	0.1546
289.3794	0.1542
289.5922	0.1488
289.8049	0.1597
290.0177	0.1543
290.2304	0.1625
290.4432	0.1547
290.6559	0.1668
290.8686	0.1632
291.0813	0.1584
291.294	0.1553
291.5067	0.1638
291.7194	0.1584
291.932	0.1743
292.1447	0.1584
292.3573	0.1655
292.5699	0.1621
292.7825	0.1692
292.9951	0.1513
293.2077	0.1611
293.4203	0.153
293.6328	0.1529
293.8454	0.18
294.0579	0.1577
294.2704	0.1701
294.4829	0.1537
294.6954	0.1737
294.9079	0.172
295.1204	0.1565
295.3328	0.1551
295.5453	0.156
295.7577	0.164
295.9701	0.1478
296.1825	0.1668
296.3949	0.1674
296.6073	0.1486
296.8197	0.1523
297.0321	0.1814
297.2444	0.162
297.4567	0.1672
297.6691	0.1661
297.8814	0.1619
298.0937	0.1615
298.306	0.1666
298.5182	0.164
298.7305	0.178
298.9428	0.1431
299.155	0.163
299.3672	0.1557
299.5794	0.1618
299.7916	0.1618
300.0038	0.1589
300.216	0.1618
300.4282	0.1627
300.6403	0.157
300.8525	0.1679
301.0646	0.1532
301.2767	0.1519
301.4888	0.163
301.7009	0.1533
301.913	0.1552
302.125	0.1657
302.3371	0.1536
302.5491	0.16
302.7612	0.1679
302.9732	0.1661
303.1852	0.1642
303.3972	0.1534
303.6092	0.1497
303.8211	0.1475
304.0331	0.1531
304.245	0.1454
304.457	0.1522
304.6689	0.1522
304.8808	0.1566
305.0927	0.1474
305.3046	0.1493
305.5164	0.1489
305.7283	0.148
305.9401	0.1413
306.152	0.1459
306.3638	0.1543
306.5756	0.1485
306.7874	0.1533
306.9992	0.1411
307.2109	0.1373
307.4227	0.1268
307.6344	0.1281
307.8462	0.1266
308.0579	0.1324
308.2696	0.1354
308.4813	0.1303
308.693	0.1364
308.9046	0.1368
309.1163	0.1244
309.328	0.1261
309.5396	0.1255
309.7512	0.1199
309.9628	0.1234
310.1744	0.1331
310.386	0.1149
310.5976	0.1207
310.8091	0.1176
311.0207	0.1243
311.2322	0.1224
311.4437	0.1109
311.6552	0.112
311.8667	0.1035
312.0782	0.1065
312.2897	0.1043
312.5012	0.1109
312.7126	0.1041
312.924	0.103
313.1355	0.1089
313.3469	0.0999
313.5583	0.1153
313.7696	0.1138
313.981	0.1093
314.1924	0.0923
314.4037	0.1049
314.6151	0.1023
314.8264	0.0965
315.0377	0.0952
315.249	0.102
315.4603	0.1089
315.6716	0.1017
315.8828	0.0899
316.0941	0.1053
316.3053	0.0953
316.5165	0.0894
316.7277	0.09
316.9389	0.1083
317.1501	0.0972
317.3613	0.0954
317.5724	0.0887
317.7836	0.1014
317.9947	0.0955
318.2058	0.0945
318.417	0.0864
318.6281	0.0894
318.8391	0.0952
319.0502	0.096
319.2613	0.1064
319.4723	0.1035
319.6834	0.0993
319.8944	0.0859
320.1054	0.0949
320.3164	0.1147
320.5274	0.0916
320.7383	0.0941
320.9493	0.0958
321.1602	0.1018
321.3712	0.0876
321.5821	0.1093
321.793	0.1064
322.0039	0.098
322.2148	0.0943
322.4257	0.1022
322.6365	0.1098
322.8474	0.1002
323.0582	0.1035
323.269	0.1092
323.4798	0.1186
323.6906	0.1025
323.9014	0.0945
324.1122	0.0966
324.3229	0.0944
324.5337	0.1028
324.7444	0.0987
324.9551	0.1204
325.1658	0.1029
325.3765	0.1117
325.5872	0.1063
325.7979	0.0936
326.0085	0.1052
326.2192	0.1118
326.4298	0.1059
326.6404	0.0935
326.851	0.0842
327.0616	0.0891
327.2722	0.1098
327.4828	0.1051
327.6933	0.0995
327.9039	0.11
328.1144	0.118
328.3249	0.1033
328.5354	0.0984
328.7459	0.1039
328.9564	0.1014
329.1669	0.1098
329.3773	0.1037
329.5878	0.1036
329.7982	0.1056
330.0086	0.1028
330.219	0.0999
330.4294	0.1038
330.6398	0.0988
330.8502	0.0986
331.0605	0.1045
331.2708	0.101
331.4812	0.1093
331.6915	0.1059
331.9018	0.1139
332.1121	0.0968
332.3224	0.1158
332.5326	0.1013
332.7429	0.1041
332.9531	0.1121
333.1633	0.1035
333.3735	0.1132
333.5837	0.1075
333.7939	0.1036
334.0041	0.1201
334.2143	0.1058
334.4244	0.112
334.6346	0.098
334.8447	0.1082
335.0548	0.1009
335.2649	0.0937
335.475	0.1211
335.685	0.1025
335.8951	0.1178
336.1051	0.1202
336.3152	0.1165
336.5252	0.1016
336.7352	0.1198
336.9452	0.1121
337.1552	0.1127
337.3652	0.1064
337.5751	0.1089
337.7851	0.1078
337.995	0.1029
338.2049	0.1135
338.4148	0.1162
338.6247	0.1146
338.8346	0.0995
339.0445	0.1097
339.2543	0.1031
339.4642	0.1196
339.674	0.1081
339.8838	0.107
340.0936	0.1211
340.3034	0.1375
340.5132	0.1255
340.7229	0.1103
340.9327	0.1114
341.1424	0.1194
341.3522	0.1219
341.5619	0.1328
341.7716	0.1227
341.9813	0.1224
342.1909	0.1166
342.4006	0.1275
342.6102	0.1194
342.8199	0.123
343.0295	0.1251
343.2391	0.1239
343.4487	0.1279
343.6583	0.1146
343.8679	0.1194
344.0774	0.1218
344.287	0.1231
344.4965	0.1209
344.706	0.1332
344.9155	0.1198
345.125	0.1299
345.3345	0.1357
345.544	0.1184
345.7534	0.1228
345.9629	0.1174
346.1723	0.1338
346.3817	0.1283
346.5911	0.1214
346.8005	0.1311
347.0099	0.1336
347.2193	0.1387
347.4286	0.1299
347.638	0.1304
347.8473	0.1281
348.0566	0.1339
348.2659	0.1391
348.4752	0.1351
348.6845	0.1225
348.8937	0.1406
349.103	0.1447
349.3122	0.1216
349.5214	0.1308
349.7306	0.1423
349.9398	0.1304
350.149	0.1495
350.3582	0.146
350.5674	0.1503
350.7765	0.1409
350.9856	0.1405
351.1948	0.1532
351.4039	0.1271
351.613	0.1395
351.822	0.1545
352.0311	0.1546
352.2402	0.1421
352.4492	0.1505
352.6582	0.142
352.8672	0.1394
353.0762	0.1415
353.2852	0.1459
353.4942	0.1433
353.7032	0.1549
353.9121	0.1623
354.1211	0.1445
354.33	0.148
354.5389	0.1507
354.7478	0.1451
354.9567	0.1433
355.1655	0.1445
355.3744	0.1466
355.5833	0.1647
355.7921	0.1705
356.0009	0.151
356.2097	0.1611
356.4185	0.1716
356.6273	0.1625
356.8361	0.1634
357.0448	0.1563
357.2536	0.156
357.4623	0.1448
357.671	0.1618
357.8797	0.1638
358.0884	0.1578
358.2971	0.1741
358.5057	0.1679
358.7144	0.1759
358.923	0.155
359.1316	0.1691
359.3402	0.1595
359.5488	0.1705
359.7574	0.163
359.966	0.165
360.1746	0.1702
360.3831	0.1894
360.5916	0.1585
360.8002	0.1608
361.0087	0.1935
361.2172	0.1621
361.4256	0.1629
361.6341	0.1961
361.8426	0.1838
362.051	0.1897
362.2594	0.1653
362.4678	0.1863
362.6762	0.1992
362.8846	0.1775
363.093	0.1868
363.3014	0.1849
363.5097	0.1851
363.718	0.1828
363.9264	0.1993
364.1347	0.1704
364.343	0.1919
364.5513	0.1922
364.7595	0.2023
364.9678	0.1882
365.176	0.2025
365.3842	0.1787
365.5925	0.1856
365.8007	0.189
366.0089	0.2004
366.217	0.1941
366.4252	0.1896
366.6333	0.2129
366.8415	0.2036
367.0496	0.2065
367.2577	0.1982
367.4658	0.2062
367.6739	0.2151
367.882	0.2194
368.09	0.2044
368.2981	0.2088
368.5061	0.1966
368.7141	0.2209
368.9221	0.2277
369.1301	0.2029
369.3381	0.2223
369.5461	0.2102
369.754	0.1871
369.962	0.2206
370.1699	0.2106
370.3778	0.2182
370.5857	0.198
370.7936	0.2386
371.0015	0.2124
371.2093	0.228
371.4172	0.224
371.625	0.202
371.8328	0.1964
372.0406	0.2174
372.2484	0.2021
372.4562	0.2229
372.664	0.2293
372.8717	0.2351
373.0795	0.1966
373.2872	0.2199
373.4949	0.2221
373.7026	0.2339
373.9103	0.2325
374.118	0.2257
374.3256	0.2408
374.5333	0.2165
374.7409	0.232
374.9485	0.2443
375.1561	0.2333
375.3637	0.2299
375.5713	0.2493
375.7789	0.2323
375.9864	0.222
376.194	0.2373
376.4015	0.2568
376.609	0.2467
376.8165	0.2296
377.024	0.239
377.2315	0.2238
377.4389	0.2489
377.6464	0.2442
377.8538	0.2446
378.0612	0.2291
378.2686	0.2291
378.476	0.2517
378.6834	0.2422
378.8908	0.2489
379.0981	0.2388
379.3055	0.2404
379.5128	0.2595
379.7201	0.2671
379.9274	0.2415
380.1347	0.2417
380.342	0.2615
380.5492	0.2396
380.7565	0.2464
380.9637	0.2458
381.1709	0.2521
381.3781	0.2277
381.5853	0.254
381.7925	0.2359
381.9997	0.2521
382.2068	0.2663
382.4139	0.2572
382.6211	0.265
382.8282	0.2345
383.0353	0.2509
383.2424	0.26
383.4494	0.246
383.6565	0.2433
383.8635	0.252
384.0706	0.2539
384.2776	0.2466
384.4846	0.237
384.6916	0.2761
384.8986	0.2347
385.1055	0.2511
385.3125	0.2555
385.5194	0.2443
385.7263	0.2685
385.9333	0.2504
386.1402	0.2455
386.347	0.2508
386.5539	0.2552
386.7608	0.257
386.9676	0.2366
387.1744	0.2496
387.3813	0.2367
387.5881	0.254
387.7948	0.2486
388.0016	0.2517
388.2084	0.2416
388.4151	0.2401
388.6219	0.2466
388.8286	0.2429
389.0353	0.2479
389.242	0.2457
389.4487	0.2331
389.6553	0.2509
389.862	0.2249
390.0686	0.2252
390.2753	0.2585
390.4819	0.2453
390.6885	0.2408
390.8951	0.2372
391.1016	0.2518
391.3082	0.2386
391.5147	0.2486
391.7213	0.25
391.9278	0.2223
392.1343	0.22
392.3408	0.2208
392.5473	0.2271
392.7537	0.2273
392.9602	0.2343
393.1666	0.228
393.373	0.2236
393.5794	0.2345
393.7858	0.2394
393.9922	0.2151
394.1986	0.2287
394.4049	0.227
394.6113	0.2158
394.8176	0.213
395.0239	0.215
395.2302	0.2064
395.4365	0.2369
395.6428	0.2232
395.8491	0.2125
396.0553	0.2234
396.2615	0.2096
396.4678	0.2092
396.674	0.2016
396.8802	0.2206
397.0863	0.2397
397.2925	0.2109
397.4987	0.2154
397.7048	0.1961
397.9109	0.2096
398.117	0.1967
398.3231	0.2072
398.5292	0.2227
398.7353	0.2284
398.9413	0.2051
399.1474	0.2148
399.3534	0.2012
399.5594	0.2033
399.7654	0.2288
399.9714	0.2281
400.1774	0.2194
400.3833	0.207
400.5893	0.2181
400.7952	0.2242
401.0011	0.2078
401.207	0.2079
401.4129	0.2137
401.6188	0.2083
401.8247	0.2128
402.0305	0.2088
402.2364	0.2002
402.4422	0.2069
402.648	0.1965
402.8538	0.2081
403.0596	0.2177
403.2654	0.2133
403.4711	0.1967
403.6768	0.2285
403.8826	0.2234
404.0883	0.2003
404.294	0.2106
404.4997	0.2289
404.7054	0.202
404.911	0.2031
405.1167	0.2073
405.3223	0.2234
405.5279	0.211
405.7335	0.2271
405.9391	0.2314
406.1447	0.2096
406.3502	0.2238
406.5558	0.211
406.7613	0.2045
406.9668	0.2178
407.1724	0.2103
407.3778	0.2165
407.5833	0.2325
407.7888	0.1954
407.9942	0.2442
408.1997	0.1996
408.4051	0.2155
408.6105	0.2174
408.8159	0.1952
409.0213	0.2138
409.2267	0.2346
409.432	0.2075
409.6374	0.2246
409.8427	0.2148
410.048	0.1931
410.2533	0.2157
410.4586	0.2005
410.6639	0.2147
410.8691	0.1992
411.0744	0.2009
411.2796	0.1934
411.4848	0.2083
411.69	0.2083
411.8952	0.2132
412.1004	0.1808
412.3056	0.2188
412.5107	0.1921
412.7158	0.2162
412.921	0.1928
413.1261	0.1932
413.3312	0.1967
413.5362	0.2004
413.7413	0.2006
413.9464	0.2009
414.1514	0.2204
414.3564	0.1984
414.5614	0.19
414.7664	0.2164
414.9714	0.2004
415.1764	0.2088
415.3813	0.2258
415.5863	0.2035
415.7912	0.2089
415.9961	0.1913
416.201	0.2182
416.4059	0.2148
416.6108	0.2052
416.8156	0.198
417.0205	0.1801
417.2253	0.1941
417.4301	0.1995
417.6349	0.189
417.8397	0.1809
418.0445	0.196
418.2492	0.206
418.454	0.1817
418.6587	0.2164
418.8634	0.1973
419.0681	0.1834
419.2728	0.186
419.4775	0.1836
419.6822	0.1936
419.8868	0.1807
420.0915	0.1898
420.2961	0.172
420.5007	0.1967
420.7053	0.1815
420.9099	0.1973
421.1144	0.1957
421.319	0.182
421.5235	0.193
421.728	0.1736
421.9325	0.192
422.137	0.1871
422.3415	0.1757
422.546	0.1864
422.7504	0.1784
422.9549	0.1837
423.1593	0.1978
423.3637	0.195
423.5681	0.176
423.7725	0.1774
423.9769	0.1664
424.1812	0.1787
424.3856	0.1714
424.5899	0.1854
424.7942	0.1749
424.9985	0.179
425.2028	0.1621
425.4071	0.183
425.6113	0.1546
425.8156	0.1662
426.0198	0.1804
426.224	0.1667
426.4282	0.1573
