Data from MonoPyChalIsomerACN10uM440nmA_Absorbance_15-27-15-694.txt Node
Date: Fri Jul 05 15:27:15 BST 2024
User: LASERRRRR
Spectrometer: FLMT03099
Trigger mode: 0
Integration Time (sec): 1.000000E-1
Scans to average: 1
Electric dark correction enabled: true
Nonlinearity correction enabled: false
Boxcar width: 0
XAxis mode: Wavelengths
Number of Pixels in Spectrum: 3648
>>>>>Begin Spectral Data<<<<<
179.3399	0.1671
179.5586	0.1671
179.7771	0.1671
179.9957	0.541
180.2143	-0
180.4329	-0.3186
180.6514	0.1659
180.8699	0.6453
181.0885	0.5948
181.307	0.0196
181.5255	-0
181.744	-0.7287
181.9625	-0
182.181	-0
182.3994	0.039
182.6179	0.5384
182.8363	0.7109
183.0547	0.1341
183.2732	0.041
183.4916	0.3253
183.71	0.1247
183.9284	0.09
184.1467	-0.0326
184.3651	0.0036
184.5835	-0.0011
184.8018	0.6166
185.0201	-0.0429
185.2385	0.0249
185.4568	0.511
185.6751	-0.0754
185.8934	0.3331
186.1117	-0.0503
186.3299	-0.0222
186.5482	0.3303
186.7664	-0.1555
186.9847	0.0521
187.2029	0.1056
187.4211	0.0788
187.6393	-0.0511
187.8575	-0.0074
188.0757	0.3609
188.2939	0.0356
188.512	0.3832
188.7302	-0.0714
188.9483	0.3505
189.1665	0.287
189.3846	0.1285
189.6027	0.2293
189.8208	0.2317
190.0389	0.326
190.257	0.0842
190.475	0.0664
190.6931	0.2925
190.9111	0.6153
191.1292	0.0707
191.3472	0.3282
191.5652	0.2798
191.7832	0.1924
192.0012	0.5946
192.2192	0.2244
192.4371	0.5528
192.6551	0.376
192.873	0.4472
193.091	0.4667
193.3089	0.5721
193.5268	0.3998
193.7447	0.6643
193.9626	0.6541
194.1805	0.6451
194.3984	0.8188
194.6162	0.5443
194.8341	0.8276
195.0519	0.5252
195.2697	0.7029
195.4875	0.5437
195.7054	0.586
195.9231	0.477
196.1409	0.8096
196.3587	0.5179
196.5765	0.6928
196.7942	0.7303
197.012	0.6665
197.2297	0.7339
197.4474	0.9316
197.6651	0.4816
197.8828	0.5926
198.1005	0.4752
198.3182	0.6809
198.5358	0.9575
198.7535	0.6763
198.9711	0.6514
199.1888	0.6223
199.4064	0.8018
199.624	0.5599
199.8416	0.6754
200.0592	0.6904
200.2767	0.6364
200.4943	0.6345
200.7119	0.8043
200.9294	0.6965
201.1469	0.6194
201.3645	0.6
201.582	0.61
201.7995	0.6254
202.017	0.7928
202.2344	0.566
202.4519	0.6873
202.6694	0.745
202.8868	0.586
203.1042	0.7425
203.3217	0.7406
203.5391	0.7703
203.7565	0.6727
203.9739	0.6737
204.1913	0.5759
204.4086	0.6581
204.626	0.7509
204.8433	0.7539
205.0607	0.6394
205.278	0.5994
205.4953	0.7067
205.7126	0.6825
205.9299	0.7041
206.1472	0.7395
206.3644	0.7012
206.5817	0.7045
206.7989	0.7628
207.0162	0.6815
207.2334	0.778
207.4506	0.6764
207.6678	0.6557
207.885	0.6828
208.1022	0.6607
208.3194	0.664
208.5365	0.6528
208.7537	0.6694
208.9708	0.5258
209.1879	0.7265
209.405	0.6691
209.6222	0.6648
209.8392	0.6479
210.0563	0.6256
210.2734	0.6543
210.4905	0.6122
210.7075	0.6019
210.9245	0.642
211.1416	0.7118
211.3586	0.6277
211.5756	0.6253
211.7926	0.624
212.0096	0.6013
212.2265	0.5864
212.4435	0.6025
212.6604	0.5871
212.8774	0.577
213.0943	0.5897
213.3112	0.5664
213.5281	0.5289
213.745	0.4939
213.9619	0.5475
214.1788	0.5097
214.3956	0.4782
214.6125	0.456
214.8293	0.4617
215.0461	0.5072
215.2629	0.4612
215.4798	0.4769
215.6965	0.4312
215.9133	0.4551
216.1301	0.4125
216.3469	0.4429
216.5636	0.4142
216.7803	0.4227
216.9971	0.416
217.2138	0.3618
217.4305	0.3815
217.6472	0.3505
217.8639	0.4016
218.0805	0.3719
218.2972	0.3497
218.5138	0.3501
218.7305	0.337
218.9471	0.3191
219.1637	0.2952
219.3803	0.311
219.5969	0.2853
219.8135	0.2841
220.0301	0.2759
220.2466	0.2518
220.4632	0.2666
220.6797	0.2436
220.8962	0.2332
221.1127	0.2267
221.3292	0.2466
221.5457	0.2176
221.7622	0.2249
221.9787	0.2604
222.1951	0.2354
222.4116	0.2465
222.628	0.2607
222.8444	0.258
223.0608	0.2488
223.2772	0.2239
223.4936	0.2622
223.71	0.2513
223.9264	0.2592
224.1427	0.2465
224.3591	0.2402
224.5754	0.2623
224.7917	0.2489
225.008	0.2417
225.2243	0.2672
225.4406	0.2903
225.6569	0.2564
225.8732	0.2513
226.0894	0.2773
226.3057	0.2738
226.5219	0.2698
226.7381	0.2638
226.9543	0.2786
227.1705	0.2872
227.3867	0.2856
227.6029	0.2814
227.8191	0.2936
228.0352	0.2909
228.2513	0.3103
228.4675	0.3149
228.6836	0.2973
228.8997	0.2877
229.1158	0.2997
229.3319	0.3184
229.548	0.3117
229.764	0.3104
229.9801	0.3157
230.1961	0.3113
230.4121	0.3321
230.6282	0.3312
230.8442	0.3262
231.0602	0.3142
231.2761	0.3377
231.4921	0.3425
231.7081	0.357
231.924	0.3454
232.14	0.3704
232.3559	0.3564
232.5718	0.3672
232.7877	0.36
233.0036	0.3392
233.2195	0.356
233.4353	0.3476
233.6512	0.3647
233.867	0.345
234.0829	0.362
234.2987	0.3491
234.5145	0.3701
234.7303	0.3529
234.9461	0.3737
235.1619	0.3823
235.3776	0.383
235.5934	0.3724
235.8091	0.3586
236.0249	0.3711
236.2406	0.3984
236.4563	0.3649
236.672	0.394
236.8877	0.4087
237.1034	0.377
237.319	0.3864
237.5347	0.3884
237.7503	0.4197
237.966	0.3927
238.1816	0.4139
238.3972	0.4005
238.6128	0.387
238.8284	0.4072
239.0439	0.41
239.2595	0.3939
239.475	0.4033
239.6906	0.4255
239.9061	0.3897
240.1216	0.4061
240.3371	0.3882
240.5526	0.4001
240.7681	0.4118
240.9836	0.4037
241.199	0.3874
241.4145	0.3762
241.6299	0.3724
241.8453	0.388
242.0607	0.3895
242.2761	0.3675
242.4915	0.3687
242.7069	0.3564
242.9223	0.3469
243.1376	0.327
243.353	0.3607
243.5683	0.3463
243.7836	0.3262
243.9989	0.3269
244.2142	0.3131
244.4295	0.3343
244.6448	0.3143
244.86	0.2818
245.0753	0.2823
245.2905	0.2836
245.5057	0.2862
245.721	0.2689
245.9362	0.2741
246.1514	0.2727
246.3665	0.2683
246.5817	0.26
246.7969	0.26
247.012	0.2421
247.2271	0.2358
247.4423	0.2518
247.6574	0.2508
247.8725	0.2382
248.0876	0.2112
248.3026	0.2168
248.5177	0.2197
248.7328	0.2128
248.9478	0.1998
249.1628	0.2203
249.3779	0.2131
249.5929	0.1939
249.8079	0.222
250.0228	0.2128
250.2378	0.2006
250.4528	0.2168
250.6677	0.1815
250.8827	0.2017
251.0976	0.1933
251.3125	0.2012
251.5274	0.1789
251.7423	0.185
251.9572	0.191
252.172	0.1773
252.3869	0.1919
252.6017	0.1882
252.8166	0.1675
253.0314	0.1684
253.2462	0.1609
253.461	0.1732
253.6758	0.1829
253.8906	0.1824
254.1053	0.1651
254.3201	0.1634
254.5348	0.1789
254.7496	0.1872
254.9643	0.1723
255.179	0.1722
255.3937	0.1692
255.6083	0.1846
255.823	0.1671
256.0377	0.1629
256.2523	0.1734
256.467	0.1586
256.6816	0.1702
256.8962	0.1613
257.1108	0.153
257.3254	0.1848
257.54	0.169
257.7545	0.1668
257.9691	0.1665
258.1836	0.1602
258.3981	0.179
258.6127	0.1621
258.8272	0.1523
259.0417	0.1727
259.2561	0.1689
259.4706	0.158
259.6851	0.1599
259.8995	0.1616
260.114	0.1598
260.3284	0.169
260.5428	0.1546
260.7572	0.1715
260.9716	0.1575
261.186	0.1509
261.4003	0.1548
261.6147	0.1649
261.829	0.1662
262.0433	0.1591
262.2577	0.1568
262.472	0.1666
262.6863	0.1523
262.9005	0.1668
263.1148	0.1682
263.3291	0.1453
263.5433	0.1649
263.7576	0.1679
263.9718	0.1701
264.186	0.1665
264.4002	0.1705
264.6144	0.1637
264.8286	0.1713
265.0427	0.1644
265.2569	0.1488
265.471	0.1534
265.6851	0.1454
265.8993	0.1515
266.1134	0.1705
266.3275	0.1555
266.5415	0.169
266.7556	0.1728
266.9697	0.1672
267.1837	0.1681
267.3978	0.1639
267.6118	0.1627
267.8258	0.1697
268.0398	0.1664
268.2538	0.1629
268.4677	0.1637
268.6817	0.1488
268.8957	0.1608
269.1096	0.1697
269.3235	0.1633
269.5374	0.1453
269.7514	0.1461
269.9652	0.1587
270.1791	0.1481
270.393	0.1496
270.6068	0.1531
270.8207	0.155
271.0345	0.1539
271.2483	0.1534
271.4622	0.1458
271.676	0.1498
271.8897	0.1453
272.1035	0.1396
272.3173	0.1528
272.531	0.1404
272.7448	0.1428
272.9585	0.1369
273.1722	0.1493
273.3859	0.1495
273.5996	0.1366
273.8133	0.1462
274.0269	0.1468
274.2406	0.142
274.4542	0.1499
274.6679	0.1361
274.8815	0.1361
275.0951	0.1524
275.3087	0.1524
275.5223	0.1529
275.7358	0.1376
275.9494	0.1382
276.1629	0.1452
276.3765	0.131
276.59	0.1451
276.8035	0.1506
277.017	0.1469
277.2305	0.1488
277.444	0.1585
277.6574	0.1424
277.8709	0.1536
278.0843	0.1525
278.2978	0.1564
278.5112	0.1253
278.7246	0.1443
278.938	0.1531
279.1513	0.1569
279.3647	0.1631
279.5781	0.1484
279.7914	0.1678
280.0047	0.1642
280.2181	0.1602
280.4314	0.1574
280.6447	0.1602
280.8579	0.1522
281.0712	0.1596
281.2845	0.1439
281.4977	0.1626
281.711	0.1476
281.9242	0.1417
282.1374	0.1481
282.3506	0.1506
282.5638	0.1683
282.7769	0.1608
282.9901	0.1506
283.2033	0.1616
283.4164	0.1662
283.6295	0.1463
283.8426	0.1456
284.0557	0.159
284.2688	0.1518
284.4819	0.1594
284.695	0.1505
284.908	0.167
285.1211	0.1516
285.3341	0.1468
285.5471	0.169
285.7601	0.1628
285.9731	0.1555
286.1861	0.1507
286.3991	0.1684
286.612	0.1739
286.825	0.1569
287.0379	0.1683
287.2508	0.1547
287.4637	0.1608
287.6766	0.1583
287.8895	0.1687
288.1024	0.1754
288.3152	0.1695
288.5281	0.1444
288.7409	0.1708
288.9538	0.155
289.1666	0.1605
289.3794	0.1651
289.5922	0.1645
289.8049	0.1656
290.0177	0.1621
290.2304	0.1724
290.4432	0.1626
290.6559	0.171
290.8686	0.1598
291.0813	0.1643
291.294	0.1767
291.5067	0.1761
291.7194	0.1604
291.932	0.1735
292.1447	0.1587
292.3573	0.151
292.5699	0.1557
292.7825	0.1608
292.9951	0.164
293.2077	0.1546
293.4203	0.1689
293.6328	0.1555
293.8454	0.1593
294.0579	0.1601
294.2704	0.1551
294.4829	0.1551
294.6954	0.1662
294.9079	0.1691
295.1204	0.1532
295.3328	0.1599
295.5453	0.1548
295.7577	0.1677
295.9701	0.1543
296.1825	0.1671
296.3949	0.1537
296.6073	0.1628
296.8197	0.1631
297.0321	0.1659
297.2444	0.1425
297.4567	0.1635
297.6691	0.1622
297.8814	0.1574
298.0937	0.1645
298.306	0.1604
298.5182	0.1611
298.7305	0.1651
298.9428	0.1506
299.155	0.1606
299.3672	0.1486
299.5794	0.1597
299.7916	0.1594
300.0038	0.1649
300.216	0.1592
300.4282	0.1597
300.6403	0.1527
300.8525	0.1615
301.0646	0.1513
301.2767	0.1625
301.4888	0.1612
301.7009	0.1559
301.913	0.1614
302.125	0.1553
302.3371	0.1632
302.5491	0.1723
302.7612	0.1607
302.9732	0.1632
303.1852	0.1701
303.3972	0.1485
303.6092	0.1444
303.8211	0.1578
304.0331	0.147
304.245	0.1521
304.457	0.1491
304.6689	0.1518
304.8808	0.1604
305.0927	0.1581
305.3046	0.1481
305.5164	0.1644
305.7283	0.1425
305.9401	0.1481
306.152	0.1412
306.3638	0.1454
306.5756	0.1424
306.7874	0.1428
306.9992	0.1406
307.2109	0.1377
307.4227	0.1298
307.6344	0.1458
307.8462	0.138
308.0579	0.1327
308.2696	0.1234
308.4813	0.1355
308.693	0.126
308.9046	0.1349
309.1163	0.1265
309.328	0.1203
309.5396	0.116
309.7512	0.1157
309.9628	0.1254
310.1744	0.1225
310.386	0.1258
310.5976	0.116
310.8091	0.1177
311.0207	0.1183
311.2322	0.121
311.4437	0.1035
311.6552	0.1158
311.8667	0.1156
312.0782	0.096
312.2897	0.1021
312.5012	0.1043
312.7126	0.1017
312.924	0.0985
313.1355	0.1107
313.3469	0.1148
313.5583	0.108
313.7696	0.1034
313.981	0.1102
314.1924	0.0998
314.4037	0.0942
314.6151	0.1152
314.8264	0.1057
315.0377	0.0982
315.249	0.098
315.4603	0.1095
315.6716	0.1055
315.8828	0.0965
316.0941	0.1007
316.3053	0.1004
316.5165	0.0906
316.7277	0.0915
316.9389	0.1075
317.1501	0.1014
317.3613	0.1089
317.5724	0.0918
317.7836	0.0997
317.9947	0.1008
318.2058	0.099
318.417	0.0969
318.6281	0.0946
318.8391	0.0947
319.0502	0.1011
319.2613	0.1008
319.4723	0.1034
319.6834	0.1005
319.8944	0.09
320.1054	0.0999
320.3164	0.1043
320.5274	0.0927
320.7383	0.104
320.9493	0.1041
321.1602	0.1116
321.3712	0.0908
321.5821	0.0865
321.793	0.0999
322.0039	0.1083
322.2148	0.0969
322.4257	0.1034
322.6365	0.1089
322.8474	0.1024
323.0582	0.0941
323.269	0.1027
323.4798	0.113
323.6906	0.1091
323.9014	0.1068
324.1122	0.0994
324.3229	0.0963
324.5337	0.1026
324.7444	0.0972
324.9551	0.1206
325.1658	0.1078
325.3765	0.1001
325.5872	0.101
325.7979	0.099
326.0085	0.0988
326.2192	0.1037
326.4298	0.0952
326.6404	0.0974
326.851	0.0917
327.0616	0.1029
327.2722	0.1149
327.4828	0.1152
327.6933	0.1053
327.9039	0.1123
328.1144	0.1123
328.3249	0.1094
328.5354	0.1024
328.7459	0.1071
328.9564	0.1012
329.1669	0.1089
329.3773	0.108
329.5878	0.1042
329.7982	0.1055
330.0086	0.1026
330.219	0.1034
330.4294	0.1058
330.6398	0.1069
330.8502	0.1002
331.0605	0.1064
331.2708	0.111
331.4812	0.11
331.6915	0.1233
331.9018	0.1041
332.1121	0.108
332.3224	0.1024
332.5326	0.117
332.7429	0.0987
332.9531	0.1224
333.1633	0.0999
333.3735	0.1106
333.5837	0.1085
333.7939	0.1089
334.0041	0.1176
334.2143	0.1149
334.4244	0.115
334.6346	0.0904
334.8447	0.1241
335.0548	0.1047
335.2649	0.1033
335.475	0.1119
335.685	0.1071
335.8951	0.1223
336.1051	0.1205
336.3152	0.1123
336.5252	0.1181
336.7352	0.115
336.9452	0.1195
337.1552	0.1061
337.3652	0.1039
337.5751	0.0979
337.7851	0.1161
337.995	0.109
338.2049	0.1172
338.4148	0.1182
338.6247	0.1145
338.8346	0.1083
339.0445	0.1035
339.2543	0.1131
339.4642	0.127
339.674	0.1189
339.8838	0.1164
340.0936	0.1133
340.3034	0.122
340.5132	0.117
340.7229	0.1237
340.9327	0.1142
341.1424	0.1179
341.3522	0.1312
341.5619	0.124
341.7716	0.1161
341.9813	0.1102
342.1909	0.1293
342.4006	0.1201
342.6102	0.1298
342.8199	0.1228
343.0295	0.1331
343.2391	0.1278
343.4487	0.1341
343.6583	0.1271
343.8679	0.1206
344.0774	0.1201
344.287	0.136
344.4965	0.1274
344.706	0.1311
344.9155	0.1319
345.125	0.1421
345.3345	0.1393
345.544	0.1216
345.7534	0.136
345.9629	0.1192
346.1723	0.1243
346.3817	0.125
346.5911	0.1304
346.8005	0.1346
347.0099	0.1344
347.2193	0.133
347.4286	0.1253
347.638	0.1373
347.8473	0.1395
348.0566	0.1305
348.2659	0.1326
348.4752	0.1406
348.6845	0.1199
348.8937	0.1378
349.103	0.1472
349.3122	0.1357
349.5214	0.144
349.7306	0.1466
349.9398	0.1303
350.149	0.1393
350.3582	0.1388
350.5674	0.148
350.7765	0.1528
350.9856	0.1401
351.1948	0.1349
351.4039	0.1349
351.613	0.1268
351.822	0.1574
352.0311	0.1441
352.2402	0.1461
352.4492	0.1533
352.6582	0.1461
352.8672	0.1495
353.0762	0.1601
353.2852	0.1486
353.4942	0.129
353.7032	0.1482
353.9121	0.152
354.1211	0.1551
354.33	0.1517
354.5389	0.1508
354.7478	0.1337
354.9567	0.1441
355.1655	0.1538
355.3744	0.1592
355.5833	0.1608
355.7921	0.1612
356.0009	0.156
356.2097	0.1695
356.4185	0.1617
356.6273	0.1591
356.8361	0.1683
357.0448	0.1666
357.2536	0.1531
357.4623	0.1551
357.671	0.1594
357.8797	0.1629
358.0884	0.1641
358.2971	0.1531
358.5057	0.1602
358.7144	0.1767
358.923	0.164
359.1316	0.1558
359.3402	0.1776
359.5488	0.1683
359.7574	0.1546
359.966	0.1762
360.1746	0.1755
360.3831	0.173
360.5916	0.1724
360.8002	0.1674
361.0087	0.1831
361.2172	0.1882
361.4256	0.1673
361.6341	0.189
361.8426	0.1894
362.051	0.1804
362.2594	0.1687
362.4678	0.1804
362.6762	0.1977
362.8846	0.1819
363.093	0.1801
363.3014	0.1943
363.5097	0.1755
363.718	0.1886
363.9264	0.1835
364.1347	0.1746
364.343	0.2066
364.5513	0.1971
364.7595	0.2028
364.9678	0.1817
365.176	0.1739
365.3842	0.1773
365.5925	0.1917
365.8007	0.1869
366.0089	0.1884
366.217	0.1839
366.4252	0.209
366.6333	0.1975
366.8415	0.1769
367.0496	0.1956
367.2577	0.2001
367.4658	0.2059
367.6739	0.2033
367.882	0.2177
368.09	0.2031
368.2981	0.2014
368.5061	0.205
368.7141	0.1997
368.9221	0.2063
369.1301	0.2262
369.3381	0.2158
369.5461	0.2093
369.754	0.1923
369.962	0.2119
370.1699	0.2221
370.3778	0.2202
370.5857	0.1975
370.7936	0.2108
371.0015	0.1981
371.2093	0.221
371.4172	0.2419
371.625	0.2046
371.8328	0.2128
372.0406	0.2253
372.2484	0.2269
372.4562	0.2211
372.664	0.2089
372.8717	0.2278
373.0795	0.2113
373.2872	0.2184
373.4949	0.2328
373.7026	0.2213
373.9103	0.2193
374.118	0.2146
374.3256	0.2304
374.5333	0.2185
374.7409	0.211
374.9485	0.2313
375.1561	0.2272
375.3637	0.215
375.5713	0.22
375.7789	0.2288
375.9864	0.2251
376.194	0.2264
376.4015	0.2468
376.609	0.2554
376.8165	0.2459
377.024	0.2323
377.2315	0.22
377.4389	0.2361
377.6464	0.2331
377.8538	0.2432
378.0612	0.2362
378.2686	0.2317
378.476	0.2605
378.6834	0.2347
378.8908	0.2332
379.0981	0.2359
379.3055	0.2375
379.5128	0.2288
379.7201	0.2452
379.9274	0.2421
380.1347	0.2237
380.342	0.2764
380.5492	0.2397
380.7565	0.2346
380.9637	0.2291
381.1709	0.261
381.3781	0.2462
381.5853	0.2562
381.7925	0.2408
381.9997	0.2424
382.2068	0.2633
382.4139	0.2536
382.6211	0.2383
382.8282	0.2528
383.0353	0.2527
383.2424	0.2374
383.4494	0.2623
383.6565	0.2396
383.8635	0.2461
384.0706	0.2517
384.2776	0.2483
384.4846	0.2477
384.6916	0.2659
384.8986	0.2504
385.1055	0.2475
385.3125	0.2297
385.5194	0.2307
385.7263	0.244
385.9333	0.241
386.1402	0.2527
386.347	0.259
386.5539	0.2413
386.7608	0.2545
386.9676	0.2356
387.1744	0.2514
387.3813	0.2217
387.5881	0.2322
387.7948	0.2483
388.0016	0.2381
388.2084	0.2426
388.4151	0.2294
388.6219	0.2334
388.8286	0.2297
389.0353	0.2662
389.242	0.2413
389.4487	0.2592
389.6553	0.2303
389.862	0.2221
390.0686	0.2324
390.2753	0.2357
390.4819	0.2464
390.6885	0.2355
390.8951	0.2437
391.1016	0.2233
391.3082	0.2388
391.5147	0.2382
391.7213	0.2306
391.9278	0.221
392.1343	0.2182
392.3408	0.2267
392.5473	0.2331
392.7537	0.2266
392.9602	0.2237
393.1666	0.2327
393.373	0.2267
393.5794	0.2279
393.7858	0.2393
393.9922	0.2191
394.1986	0.2271
394.4049	0.2284
394.6113	0.2123
394.8176	0.2014
395.0239	0.2135
395.2302	0.2073
395.4365	0.2085
395.6428	0.2194
395.8491	0.2001
396.0553	0.212
396.2615	0.2252
396.4678	0.2204
396.674	0.193
396.8802	0.2105
397.0863	0.2315
397.2925	0.209
397.4987	0.2036
397.7048	0.2113
397.9109	0.2024
398.117	0.2022
398.3231	0.1932
398.5292	0.2032
398.7353	0.2139
398.9413	0.203
399.1474	0.2093
399.3534	0.2095
399.5594	0.2007
399.7654	0.211
399.9714	0.2207
400.1774	0.2094
400.3833	0.2018
400.5893	0.2282
400.7952	0.2135
401.0011	0.1966
401.207	0.2092
401.4129	0.2083
401.6188	0.2062
401.8247	0.2164
402.0305	0.1906
402.2364	0.2113
402.4422	0.2149
402.648	0.2204
402.8538	0.2279
403.0596	0.2171
403.2654	0.2148
403.4711	0.1982
403.6768	0.2056
403.8826	0.2277
404.0883	0.208
404.294	0.2292
404.4997	0.2163
404.7054	0.2087
404.911	0.2
405.1167	0.2053
405.3223	0.2011
405.5279	0.2297
405.7335	0.1958
405.9391	0.195
406.1447	0.2059
406.3502	0.2382
406.5558	0.2106
406.7613	0.196
406.9668	0.219
407.1724	0.2068
407.3778	0.2121
407.5833	0.1906
407.7888	0.1974
407.9942	0.2149
408.1997	0.1965
408.4051	0.2015
408.6105	0.2025
408.8159	0.1928
409.0213	0.1938
409.2267	0.2253
409.432	0.1946
409.6374	0.2203
409.8427	0.1965
410.048	0.214
410.2533	0.2037
410.4586	0.207
410.6639	0.1816
410.8691	0.2032
411.0744	0.1832
411.2796	0.2058
411.4848	0.2055
411.69	0.2137
411.8952	0.2083
412.1004	0.1839
412.3056	0.2211
412.5107	0.2034
412.7158	0.2253
412.921	0.1857
413.1261	0.1913
413.3312	0.1948
413.5362	0.2146
413.7413	0.1954
413.9464	0.1955
414.1514	0.1997
414.3564	0.2039
414.5614	0.185
414.7664	0.1975
414.9714	0.2101
415.1764	0.203
415.3813	0.2108
415.5863	0.1953
415.7912	0.1953
415.9961	0.1844
416.201	0.2096
416.4059	0.2007
416.6108	0.1924
416.8156	0.2201
417.0205	0.1972
417.2253	0.1894
417.4301	0.202
417.6349	0.1858
417.8397	0.1769
418.0445	0.1971
418.2492	0.1972
418.454	0.1987
418.6587	0.1797
418.8634	0.195
419.0681	0.1701
419.2728	0.1801
419.4775	0.1852
419.6822	0.1793
419.8868	0.1732
420.0915	0.1867
420.2961	0.1678
420.5007	0.1662
420.7053	0.1973
420.9099	0.1695
421.1144	0.1833
421.319	0.1889
421.5235	0.189
421.728	0.1892
421.9325	0.1865
422.137	0.1809
422.3415	0.1687
422.546	0.1863
422.7504	0.1893
422.9549	0.1865
423.1593	0.1731
423.3637	0.1715
423.5681	0.1759
423.7725	0.1613
423.9769	0.1731
424.1812	0.1721
424.3856	0.1611
424.5899	0.1984
424.7942	0.1743
424.9985	0.1817
425.2028	0.1721
425.4071	0.1845
425.6113	0.1543
425.8156	0.1593
426.0198	0.1789
426.224	0.1744
426.4282	0.1641
426.6324	0.1647
