Data from MonoPyChalIsomerACN10uM440nmA_Absorbance_15-27-14-694.txt Node
Date: Fri Jul 05 15:27:14 BST 2024
User: LASERRRRR
Spectrometer: FLMT03099
Trigger mode: 0
Integration Time (sec): 1.000000E-1
Scans to average: 1
Electric dark correction enabled: true
Nonlinearity correction enabled: false
Boxcar width: 0
XAxis mode: Wavelengths
Number of Pixels in Spectrum: 3648
>>>>>Begin Spectral Data<<<<<
179.3399	0.4957
179.5586	0.4957
179.7771	0.4957
179.9957	0.2638
180.2143	-0
180.4329	0.1768
180.6514	-0
180.8699	-0.1478
181.0885	0.3866
181.307	0.2166
181.5255	-0.6377
181.744	0.0388
181.9625	-0
182.181	-0
182.3994	-0
182.6179	-0
182.8363	-0.0645
183.0547	-0.4145
183.2732	-0.0294
183.4916	0.0294
183.71	-0.025
183.9284	0.0288
184.1467	-0.0085
184.3651	-0.1037
184.5835	0.0204
184.8018	-0.0145
185.0201	0.2804
185.2385	-0.1218
185.4568	0.3652
185.6751	-0.1483
185.8934	0.3466
186.1117	0.1526
186.3299	0.1135
186.5482	0.1696
186.7664	0.098
186.9847	-0.0458
187.2029	0.0014
187.4211	0.059
187.6393	0.4561
187.8575	0.0146
188.0757	0.4226
188.2939	0.0615
188.512	-0.0842
188.7302	-0.063
188.9483	-0.1565
189.1665	0.1998
189.3846	-0.1268
189.6027	0.2047
189.8208	0.065
190.0389	0.1139
190.257	0.0289
190.475	0.0847
190.6931	0.0794
190.9111	0.1523
191.1292	0.1916
191.3472	0.2984
191.5652	0.1058
191.7832	0.1443
192.0012	0.7648
192.2192	0.3056
192.4371	0.4269
192.6551	0.1963
192.873	0.374
193.091	0.2785
193.3089	0.6381
193.5268	0.4153
193.7447	0.3145
193.9626	0.5474
194.1805	0.3877
194.3984	0.6036
194.6162	0.5857
194.8341	0.511
195.0519	0.5203
195.2697	0.7411
195.4875	0.4879
195.7054	0.5169
195.9231	0.5111
196.1409	0.6213
196.3587	0.5822
196.5765	0.6825
196.7942	0.6114
197.012	0.6209
197.2297	0.5773
197.4474	1.0602
197.6651	0.6544
197.8828	0.528
198.1005	0.6284
198.3182	0.6877
198.5358	0.7992
198.7535	0.4986
198.9711	0.511
199.1888	0.514
199.4064	0.7912
199.624	0.5389
199.8416	0.4901
200.0592	0.5459
200.2767	0.6534
200.4943	0.6865
200.7119	0.6891
200.9294	0.6302
201.1469	0.6059
201.3645	0.5993
201.582	0.5495
201.7995	0.6028
202.017	0.6351
202.2344	0.6215
202.4519	0.6701
202.6694	0.598
202.8868	0.5611
203.1042	0.7702
203.3217	0.5932
203.5391	0.636
203.7565	0.5334
203.9739	0.6847
204.1913	0.5789
204.4086	0.6484
204.626	0.7076
204.8433	0.6969
205.0607	0.5563
205.278	0.6417
205.4953	0.6202
205.7126	0.6382
205.9299	0.7473
206.1472	0.6102
206.3644	0.6432
206.5817	0.687
206.7989	0.7552
207.0162	0.698
207.2334	0.6792
207.4506	0.7018
207.6678	0.6245
207.885	0.6979
208.1022	0.7563
208.3194	0.7172
208.5365	0.6891
208.7537	0.6528
208.9708	0.5577
209.1879	0.6425
209.405	0.6234
209.6222	0.6441
209.8392	0.5567
210.0563	0.5703
210.2734	0.6343
210.4905	0.6172
210.7075	0.7214
210.9245	0.5192
211.1416	0.6912
211.3586	0.6623
211.5756	0.596
211.7926	0.5944
212.0096	0.6081
212.2265	0.5703
212.4435	0.6045
212.6604	0.5842
212.8774	0.5607
213.0943	0.5665
213.3112	0.564
213.5281	0.5295
213.745	0.5134
213.9619	0.5107
214.1788	0.5007
214.3956	0.4667
214.6125	0.5126
214.8293	0.4761
215.0461	0.4824
215.2629	0.4334
215.4798	0.4403
215.6965	0.3991
215.9133	0.4389
216.1301	0.4341
216.3469	0.4368
216.5636	0.4026
216.7803	0.4199
216.9971	0.3861
217.2138	0.3836
217.4305	0.4001
217.6472	0.3822
217.8639	0.3756
218.0805	0.3228
218.2972	0.3245
218.5138	0.299
218.7305	0.3272
218.9471	0.3022
219.1637	0.2865
219.3803	0.2699
219.5969	0.2828
219.8135	0.2341
220.0301	0.2666
220.2466	0.2488
220.4632	0.2505
220.6797	0.2533
220.8962	0.2159
221.1127	0.2481
221.3292	0.2503
221.5457	0.2501
221.7622	0.208
221.9787	0.2302
222.1951	0.2403
222.4116	0.2485
222.628	0.2497
222.8444	0.221
223.0608	0.2396
223.2772	0.2296
223.4936	0.2513
223.71	0.2268
223.9264	0.2564
224.1427	0.2408
224.3591	0.2241
224.5754	0.2634
224.7917	0.239
225.008	0.2614
225.2243	0.28
225.4406	0.2714
225.6569	0.2648
225.8732	0.2431
226.0894	0.2386
226.3057	0.2722
226.5219	0.2697
226.7381	0.2519
226.9543	0.2692
227.1705	0.2876
227.3867	0.2727
227.6029	0.2994
227.8191	0.2951
228.0352	0.2859
228.2513	0.2965
228.4675	0.2991
228.6836	0.3026
228.8997	0.2928
229.1158	0.3217
229.3319	0.3082
229.548	0.2921
229.764	0.3268
229.9801	0.3104
230.1961	0.3107
230.4121	0.3243
230.6282	0.3258
230.8442	0.3182
231.0602	0.3383
231.2761	0.3518
231.4921	0.3408
231.7081	0.3474
231.924	0.3422
232.14	0.3585
232.3559	0.3326
232.5718	0.36
232.7877	0.3529
233.0036	0.3236
233.2195	0.3468
233.4353	0.3521
233.6512	0.3594
233.867	0.3549
234.0829	0.3441
234.2987	0.3508
234.5145	0.3668
234.7303	0.3633
234.9461	0.3795
235.1619	0.3719
235.3776	0.3584
235.5934	0.385
235.8091	0.3768
236.0249	0.3702
236.2406	0.3758
236.4563	0.3713
236.672	0.403
236.8877	0.3766
237.1034	0.378
237.319	0.3961
237.5347	0.4095
237.7503	0.3872
237.966	0.4025
238.1816	0.4127
238.3972	0.4009
238.6128	0.3831
238.8284	0.3995
239.0439	0.3997
239.2595	0.3977
239.475	0.442
239.6906	0.41
239.9061	0.4166
240.1216	0.4055
240.3371	0.4115
240.5526	0.4
240.7681	0.4038
240.9836	0.3754
241.199	0.4001
241.4145	0.3818
241.6299	0.3774
241.8453	0.3899
242.0607	0.3853
242.2761	0.3463
242.4915	0.3633
242.7069	0.3494
242.9223	0.3713
243.1376	0.346
243.353	0.3328
243.5683	0.3545
243.7836	0.3282
243.9989	0.3262
244.2142	0.3053
244.4295	0.2998
244.6448	0.3125
244.86	0.2863
245.0753	0.2822
245.2905	0.2861
245.5057	0.2774
245.721	0.2786
245.9362	0.2614
246.1514	0.2863
246.3665	0.2601
246.5817	0.2506
246.7969	0.2488
247.012	0.2631
247.2271	0.2242
247.4423	0.2395
247.6574	0.2319
247.8725	0.2317
248.0876	0.2208
248.3026	0.2274
248.5177	0.214
248.7328	0.2153
248.9478	0.1976
249.1628	0.2047
249.3779	0.2084
249.5929	0.1987
249.8079	0.2156
250.0228	0.1914
250.2378	0.2125
250.4528	0.2108
250.6677	0.1908
250.8827	0.1972
251.0976	0.2014
251.3125	0.1874
251.5274	0.1706
251.7423	0.17
251.9572	0.1946
252.172	0.1801
252.3869	0.188
252.6017	0.1853
252.8166	0.1724
253.0314	0.156
253.2462	0.1664
253.461	0.1746
253.6758	0.1759
253.8906	0.1787
254.1053	0.1659
254.3201	0.1644
254.5348	0.1754
254.7496	0.1811
254.9643	0.1744
255.179	0.1557
255.3937	0.1711
255.6083	0.1712
255.823	0.1773
256.0377	0.1714
256.2523	0.1677
256.467	0.1508
256.6816	0.1763
256.8962	0.1694
257.1108	0.1512
257.3254	0.1689
257.54	0.1574
257.7545	0.1684
257.9691	0.1663
258.1836	0.1635
258.3981	0.1767
258.6127	0.1729
258.8272	0.1641
259.0417	0.1675
259.2561	0.153
259.4706	0.1698
259.6851	0.158
259.8995	0.1613
260.114	0.162
260.3284	0.1651
260.5428	0.1507
260.7572	0.1611
260.9716	0.1701
261.186	0.1651
261.4003	0.171
261.6147	0.1571
261.829	0.1633
262.0433	0.147
262.2577	0.1578
262.472	0.1673
262.6863	0.1571
262.9005	0.1572
263.1148	0.1575
263.3291	0.1379
263.5433	0.1642
263.7576	0.1565
263.9718	0.1575
264.186	0.1699
264.4002	0.1644
264.6144	0.1638
264.8286	0.1676
265.0427	0.1504
265.2569	0.1588
265.471	0.1523
265.6851	0.1527
265.8993	0.1569
266.1134	0.1583
266.3275	0.1702
266.5415	0.1678
266.7556	0.1728
266.9697	0.1605
267.1837	0.157
267.3978	0.1585
267.6118	0.1656
267.8258	0.1778
268.0398	0.1476
268.2538	0.163
268.4677	0.1694
268.6817	0.1528
268.8957	0.1587
269.1096	0.1677
269.3235	0.162
269.5374	0.1532
269.7514	0.146
269.9652	0.1582
270.1791	0.1486
270.393	0.1418
270.6068	0.1519
270.8207	0.1486
271.0345	0.1508
271.2483	0.1472
271.4622	0.1484
271.676	0.1559
271.8897	0.1423
272.1035	0.139
272.3173	0.1351
272.531	0.1438
272.7448	0.1402
272.9585	0.1312
273.1722	0.1441
273.3859	0.1387
273.5996	0.1345
273.8133	0.1443
274.0269	0.1426
274.2406	0.1391
274.4542	0.1558
274.6679	0.1314
274.8815	0.1368
275.0951	0.1472
275.3087	0.1517
275.5223	0.1384
275.7358	0.1333
275.9494	0.1331
276.1629	0.1453
276.3765	0.1465
276.59	0.1387
276.8035	0.1447
277.017	0.1391
277.2305	0.1371
277.444	0.1521
277.6574	0.1426
277.8709	0.1452
278.0843	0.1403
278.2978	0.1477
278.5112	0.1438
278.7246	0.1425
278.938	0.1483
279.1513	0.1511
279.3647	0.1599
279.5781	0.1338
279.7914	0.1502
280.0047	0.1464
280.2181	0.1521
280.4314	0.165
280.6447	0.1529
280.8579	0.1466
281.0712	0.1553
281.2845	0.1577
281.4977	0.144
281.711	0.1424
281.9242	0.1504
282.1374	0.161
282.3506	0.1506
282.5638	0.1557
282.7769	0.1542
282.9901	0.1573
283.2033	0.1524
283.4164	0.1686
283.6295	0.1546
283.8426	0.1438
284.0557	0.1499
284.2688	0.1588
284.4819	0.1619
284.695	0.1531
284.908	0.1685
285.1211	0.148
285.3341	0.1551
285.5471	0.1611
285.7601	0.1607
285.9731	0.1422
286.1861	0.1568
286.3991	0.1673
286.612	0.1683
286.825	0.1544
287.0379	0.1646
287.2508	0.1519
287.4637	0.1567
287.6766	0.1559
287.8895	0.169
288.1024	0.1693
288.3152	0.1643
288.5281	0.1548
288.7409	0.1674
288.9538	0.1598
289.1666	0.1594
289.3794	0.1597
289.5922	0.1603
289.8049	0.1635
290.0177	0.1588
290.2304	0.1619
290.4432	0.1654
290.6559	0.1584
290.8686	0.1627
291.0813	0.1674
291.294	0.1578
291.5067	0.1685
291.7194	0.169
291.932	0.1655
292.1447	0.1637
292.3573	0.1599
292.5699	0.1634
292.7825	0.1547
292.9951	0.1477
293.2077	0.1569
293.4203	0.1571
293.6328	0.1418
293.8454	0.1628
294.0579	0.1653
294.2704	0.1618
294.4829	0.1636
294.6954	0.1713
294.9079	0.1618
295.1204	0.1541
295.3328	0.1708
295.5453	0.1574
295.7577	0.165
295.9701	0.1578
296.1825	0.1637
296.3949	0.1632
296.6073	0.1647
296.8197	0.1562
297.0321	0.1789
297.2444	0.1552
297.4567	0.1655
297.6691	0.1671
297.8814	0.1624
298.0937	0.1602
298.306	0.161
298.5182	0.1688
298.7305	0.1668
298.9428	0.1593
299.155	0.1594
299.3672	0.1642
299.5794	0.1527
299.7916	0.1553
300.0038	0.1673
300.216	0.1587
300.4282	0.1553
300.6403	0.157
300.8525	0.1688
301.0646	0.1516
301.2767	0.1502
301.4888	0.164
301.7009	0.1629
301.913	0.1508
302.125	0.1636
302.3371	0.1568
302.5491	0.1556
302.7612	0.1622
302.9732	0.1594
303.1852	0.1551
303.3972	0.1663
303.6092	0.1552
303.8211	0.1451
304.0331	0.1465
304.245	0.154
304.457	0.157
304.6689	0.1416
304.8808	0.1599
305.0927	0.1434
305.3046	0.1495
305.5164	0.1489
305.7283	0.1403
305.9401	0.1469
306.152	0.1473
306.3638	0.1515
306.5756	0.1334
306.7874	0.1298
306.9992	0.1416
307.2109	0.1424
307.4227	0.1136
307.6344	0.1413
307.8462	0.1342
308.0579	0.1374
308.2696	0.1329
308.4813	0.1178
308.693	0.1263
308.9046	0.1313
309.1163	0.1246
309.328	0.1284
309.5396	0.1228
309.7512	0.1277
309.9628	0.115
310.1744	0.1222
310.386	0.1204
310.5976	0.1112
310.8091	0.1151
311.0207	0.1152
311.2322	0.105
311.4437	0.1117
311.6552	0.1101
311.8667	0.1145
312.0782	0.0947
312.2897	0.1019
312.5012	0.1051
312.7126	0.0978
312.924	0.0944
313.1355	0.1112
313.3469	0.1061
313.5583	0.105
313.7696	0.1065
313.981	0.098
314.1924	0.1034
314.4037	0.098
314.6151	0.11
314.8264	0.1
315.0377	0.0981
315.249	0.1078
315.4603	0.1087
315.6716	0.102
315.8828	0.0897
316.0941	0.0991
316.3053	0.0905
316.5165	0.0854
316.7277	0.1033
316.9389	0.0994
317.1501	0.1022
317.3613	0.1105
317.5724	0.0822
317.7836	0.1064
317.9947	0.1003
318.2058	0.0963
318.417	0.092
318.6281	0.0915
318.8391	0.093
319.0502	0.092
319.2613	0.0936
319.4723	0.1059
319.6834	0.1025
319.8944	0.0847
320.1054	0.0981
320.3164	0.0825
320.5274	0.0955
320.7383	0.0925
320.9493	0.0987
321.1602	0.1041
321.3712	0.0799
321.5821	0.0997
321.793	0.1047
322.0039	0.0994
322.2148	0.0876
322.4257	0.1087
322.6365	0.1057
322.8474	0.1021
323.0582	0.1003
323.269	0.1035
323.4798	0.1042
323.6906	0.1031
323.9014	0.0908
324.1122	0.1072
324.3229	0.0905
324.5337	0.1076
324.7444	0.0944
324.9551	0.1107
325.1658	0.1009
325.3765	0.1074
325.5872	0.1041
325.7979	0.0969
326.0085	0.0991
326.2192	0.1077
326.4298	0.1007
326.6404	0.0961
326.851	0.0902
327.0616	0.1044
327.2722	0.1026
327.4828	0.1086
327.6933	0.1103
327.9039	0.1002
328.1144	0.1118
328.3249	0.1156
328.5354	0.0963
328.7459	0.0972
328.9564	0.0979
329.1669	0.0962
329.3773	0.1038
329.5878	0.0931
329.7982	0.1034
330.0086	0.1047
330.219	0.0907
330.4294	0.0987
330.6398	0.1003
330.8502	0.1037
331.0605	0.0918
331.2708	0.1059
331.4812	0.1145
331.6915	0.1081
331.9018	0.1058
332.1121	0.1045
332.3224	0.1134
332.5326	0.1086
332.7429	0.1101
332.9531	0.1119
333.1633	0.105
333.3735	0.1128
333.5837	0.1184
333.7939	0.1037
334.0041	0.1129
334.2143	0.113
334.4244	0.109
334.6346	0.088
334.8447	0.1112
335.0548	0.1056
335.2649	0.0939
335.475	0.1186
335.685	0.1073
335.8951	0.1173
336.1051	0.1156
336.3152	0.1129
336.5252	0.1016
336.7352	0.1104
336.9452	0.1107
337.1552	0.112
337.3652	0.1042
337.5751	0.0986
337.7851	0.1117
337.995	0.0931
338.2049	0.1148
338.4148	0.1145
338.6247	0.1128
338.8346	0.0946
339.0445	0.1075
339.2543	0.1179
339.4642	0.1091
339.674	0.106
339.8838	0.1182
340.0936	0.1085
340.3034	0.121
340.5132	0.1183
340.7229	0.1054
340.9327	0.111
341.1424	0.1075
341.3522	0.1314
341.5619	0.1201
341.7716	0.1196
341.9813	0.1204
342.1909	0.1058
342.4006	0.1225
342.6102	0.1338
342.8199	0.1218
343.0295	0.1264
343.2391	0.1341
343.4487	0.1367
343.6583	0.1068
343.8679	0.1265
344.0774	0.1206
344.287	0.133
344.4965	0.1187
344.706	0.1161
344.9155	0.1144
345.125	0.1379
345.3345	0.1323
345.544	0.1137
345.7534	0.1184
345.9629	0.115
346.1723	0.1214
346.3817	0.1282
346.5911	0.136
346.8005	0.1311
347.0099	0.1416
347.2193	0.1401
347.4286	0.1251
347.638	0.1213
347.8473	0.1358
348.0566	0.1346
348.2659	0.1375
348.4752	0.1215
348.6845	0.1368
348.8937	0.1224
349.103	0.1429
349.3122	0.1301
349.5214	0.1353
349.7306	0.1338
349.9398	0.1415
350.149	0.1445
350.3582	0.1341
350.5674	0.1536
350.7765	0.1325
350.9856	0.1346
351.1948	0.141
351.4039	0.117
351.613	0.1368
351.822	0.1382
352.0311	0.1413
352.2402	0.1434
352.4492	0.1406
352.6582	0.1469
352.8672	0.1488
353.0762	0.145
353.2852	0.1455
353.4942	0.1341
353.7032	0.1517
353.9121	0.1603
354.1211	0.1488
354.33	0.1573
354.5389	0.1551
354.7478	0.1318
354.9567	0.1566
355.1655	0.1377
355.3744	0.1491
355.5833	0.1632
355.7921	0.1598
356.0009	0.1513
356.2097	0.1817
356.4185	0.1685
356.6273	0.1459
356.8361	0.1582
357.0448	0.1553
357.2536	0.1564
357.4623	0.1468
357.671	0.1706
357.8797	0.1599
358.0884	0.1551
358.2971	0.1542
358.5057	0.1711
358.7144	0.1744
358.923	0.1654
359.1316	0.1614
359.3402	0.1662
359.5488	0.1674
359.7574	0.1647
359.966	0.1619
360.1746	0.1779
360.3831	0.162
360.5916	0.1524
360.8002	0.1624
361.0087	0.1812
361.2172	0.1689
361.4256	0.1725
361.6341	0.1801
361.8426	0.1709
362.051	0.1867
362.2594	0.185
362.4678	0.1788
362.6762	0.1911
362.8846	0.1859
363.093	0.1821
363.3014	0.1788
363.5097	0.1683
363.718	0.1799
363.9264	0.1732
364.1347	0.1747
364.343	0.187
364.5513	0.1892
364.7595	0.1907
364.9678	0.1929
365.176	0.1957
365.3842	0.1863
365.5925	0.1993
365.8007	0.1848
366.0089	0.1976
366.217	0.187
366.4252	0.195
366.6333	0.2045
366.8415	0.199
367.0496	0.193
367.2577	0.2015
367.4658	0.2108
367.6739	0.2031
367.882	0.2068
368.09	0.2025
368.2981	0.2144
368.5061	0.1931
368.7141	0.219
368.9221	0.2128
369.1301	0.2137
369.3381	0.2044
369.5461	0.2065
369.754	0.1977
369.962	0.2122
370.1699	0.2115
370.3778	0.2131
370.5857	0.1943
370.7936	0.2128
371.0015	0.2111
371.2093	0.2338
371.4172	0.236
371.625	0.2132
371.8328	0.2125
372.0406	0.2256
372.2484	0.2073
372.4562	0.2252
372.664	0.2199
372.8717	0.2391
373.0795	0.1917
373.2872	0.2301
373.4949	0.2174
373.7026	0.2295
373.9103	0.2309
374.118	0.2367
374.3256	0.2286
374.5333	0.2217
374.7409	0.2145
374.9485	0.2433
375.1561	0.2282
375.3637	0.2443
375.5713	0.2285
375.7789	0.239
375.9864	0.2311
376.194	0.2158
376.4015	0.2237
376.609	0.2374
376.8165	0.2339
377.024	0.2217
377.2315	0.2321
377.4389	0.2461
377.6464	0.2377
377.8538	0.2412
378.0612	0.2396
378.2686	0.2295
378.476	0.2559
378.6834	0.2262
378.8908	0.2467
379.0981	0.256
379.3055	0.2354
379.5128	0.239
379.7201	0.2471
379.9274	0.2296
380.1347	0.2379
380.342	0.2539
380.5492	0.2338
380.7565	0.2385
380.9637	0.2303
381.1709	0.2488
381.3781	0.2427
381.5853	0.2507
381.7925	0.2559
381.9997	0.2425
382.2068	0.2461
382.4139	0.2652
382.6211	0.2353
382.8282	0.2489
383.0353	0.2296
383.2424	0.2357
383.4494	0.2519
383.6565	0.2619
383.8635	0.2556
384.0706	0.2523
384.2776	0.2615
384.4846	0.2373
384.6916	0.2463
384.8986	0.2476
385.1055	0.2605
385.3125	0.2294
385.5194	0.2523
385.7263	0.2433
385.9333	0.2343
386.1402	0.2514
386.347	0.2587
386.5539	0.2438
386.7608	0.2603
386.9676	0.2364
387.1744	0.2487
387.3813	0.2502
387.5881	0.2453
387.7948	0.2377
388.0016	0.2458
388.2084	0.2543
388.4151	0.2482
388.6219	0.2471
388.8286	0.2449
389.0353	0.2599
389.242	0.2607
389.4487	0.2263
389.6553	0.2331
389.862	0.2197
390.0686	0.2257
390.2753	0.2498
390.4819	0.2402
390.6885	0.2371
390.8951	0.2475
391.1016	0.2215
391.3082	0.2268
391.5147	0.2419
391.7213	0.2344
391.9278	0.2295
392.1343	0.2324
392.3408	0.224
392.5473	0.2284
392.7537	0.2269
392.9602	0.2263
393.1666	0.2233
393.373	0.2387
393.5794	0.2365
393.7858	0.2253
393.9922	0.2214
394.1986	0.2343
394.4049	0.2352
394.6113	0.2049
394.8176	0.2068
395.0239	0.2164
395.2302	0.218
395.4365	0.2038
395.6428	0.2079
395.8491	0.2268
396.0553	0.2062
396.2615	0.2214
396.4678	0.2191
396.674	0.2033
396.8802	0.2277
397.0863	0.2159
397.2925	0.215
397.4987	0.1988
397.7048	0.1924
397.9109	0.2216
398.117	0.1915
398.3231	0.2018
398.5292	0.2059
398.7353	0.2235
398.9413	0.1983
399.1474	0.2171
399.3534	0.2015
399.5594	0.1908
399.7654	0.2239
399.9714	0.2074
400.1774	0.2025
400.3833	0.194
400.5893	0.1944
400.7952	0.2067
401.0011	0.1978
401.207	0.2184
401.4129	0.215
401.6188	0.2164
401.8247	0.2091
402.0305	0.2062
402.2364	0.2076
402.4422	0.2116
402.648	0.2193
402.8538	0.2166
403.0596	0.2091
403.2654	0.22
403.4711	0.2063
403.6768	0.2163
403.8826	0.2083
404.0883	0.2178
404.294	0.2008
404.4997	0.21
404.7054	0.2102
404.911	0.1942
405.1167	0.2072
405.3223	0.2284
405.5279	0.2214
405.7335	0.2377
405.9391	0.2137
406.1447	0.1941
406.3502	0.2171
406.5558	0.2025
406.7613	0.2091
406.9668	0.2189
407.1724	0.2043
407.3778	0.1892
407.5833	0.2295
407.7888	0.1983
407.9942	0.2268
408.1997	0.1969
408.4051	0.1926
408.6105	0.206
408.8159	0.195
409.0213	0.1949
409.2267	0.2125
409.432	0.1957
409.6374	0.199
409.8427	0.1982
410.048	0.2174
410.2533	0.2034
410.4586	0.1938
410.6639	0.1842
410.8691	0.1959
411.0744	0.1966
411.2796	0.1905
411.4848	0.2097
411.69	0.1878
411.8952	0.2082
412.1004	0.1792
412.3056	0.1961
412.5107	0.1933
412.7158	0.2337
412.921	0.1892
413.1261	0.1991
413.3312	0.1865
413.5362	0.1946
413.7413	0.2087
413.9464	0.1925
414.1514	0.2058
414.3564	0.1879
414.5614	0.1953
414.7664	0.1913
414.9714	0.2022
415.1764	0.197
415.3813	0.2086
415.5863	0.1826
415.7912	0.192
415.9961	0.2244
416.201	0.1961
416.4059	0.2103
416.6108	0.1993
416.8156	0.1987
417.0205	0.1984
417.2253	0.182
417.4301	0.1913
417.6349	0.1991
417.8397	0.1927
418.0445	0.201
418.2492	0.2167
418.454	0.1843
418.6587	0.1925
418.8634	0.1813
419.0681	0.1689
419.2728	0.1985
419.4775	0.188
419.6822	0.2009
419.8868	0.1866
420.0915	0.1906
420.2961	0.1741
420.5007	0.175
420.7053	0.1923
420.9099	0.1933
421.1144	0.1888
421.319	0.169
421.5235	0.1914
421.728	0.1803
421.9325	0.2041
422.137	0.2007
422.3415	0.1857
422.546	0.1778
422.7504	0.1676
422.9549	0.1949
423.1593	0.1752
423.3637	0.1968
423.5681	0.1692
423.7725	0.1725
423.9769	0.1688
424.1812	0.1663
424.3856	0.1808
424.5899	0.1841
424.7942	0.1707
424.9985	0.1695
425.2028	0.1654
425.4071	0.187
425.6113	0.1533
425.8156	0.1802
426.0198	0.1736
426.224	0.1606
426.4282	0.1607
