Data from MonoPyChalIsomerACN10uM440nmA_Absorbance_15-27-18-394.txt Node
Date: Fri Jul 05 15:27:18 BST 2024
User: LASERRRRR
Spectrometer: FLMT03099
Trigger mode: 0
Integration Time (sec): 1.000000E-1
Scans to average: 1
Electric dark correction enabled: true
Nonlinearity correction enabled: false
Boxcar width: 0
XAxis mode: Wavelengths
Number of Pixels in Spectrum: 3648
>>>>>Begin Spectral Data<<<<<
179.3399	-0.3825
179.5586	-0.3825
179.7771	-0.3825
179.9957	1.3498
180.2143	-0.5576
180.4329	-0.5112
180.6514	0.8505
180.8699	-0
181.0885	0.0885
181.307	0.3213
181.5255	-0
181.744	-0.5143
181.9625	-0
182.181	-0.8861
182.3994	0.4215
182.6179	-0
182.8363	-0.1725
183.0547	-0.1652
183.2732	-0.0787
183.4916	0.1616
183.71	0.3163
183.9284	0.3809
184.1467	0.0548
184.3651	-0.0722
184.5835	0.0452
184.8018	-0.0085
185.0201	0.06
185.2385	-0.169
185.4568	0.2269
185.6751	0.3001
185.8934	0.3556
186.1117	-0.0201
186.3299	0.1749
186.5482	0.4353
186.7664	0.0586
186.9847	-0.0244
187.2029	0.0688
187.4211	0.1994
187.6393	0.2457
187.8575	0.1266
188.0757	0.1824
188.2939	0.0407
188.512	0.1245
188.7302	0.1405
188.9483	0.0802
189.1665	0.0605
189.3846	-0.3156
189.6027	0.0811
189.8208	0.2072
190.0389	0.0509
190.257	0.1131
190.475	0.3038
190.6931	0.4494
190.9111	0.9055
191.1292	0.1069
191.3472	0.5818
191.5652	0.2226
191.7832	0.4776
192.0012	0.53
192.2192	0.3347
192.4371	0.7349
192.6551	0.3111
192.873	0.5079
193.091	0.4408
193.3089	0.6118
193.5268	0.697
193.7447	0.594
193.9626	0.7226
194.1805	0.5525
194.3984	0.9229
194.6162	0.7339
194.8341	0.5837
195.0519	0.5206
195.2697	0.6764
195.4875	0.8248
195.7054	0.5278
195.9231	0.5081
196.1409	0.55
196.3587	0.6067
196.5765	0.5856
196.7942	0.6734
197.012	0.5105
197.2297	0.8339
197.4474	0.9039
197.6651	0.5305
197.8828	0.6325
198.1005	0.8437
198.3182	0.517
198.5358	0.8653
198.7535	0.5978
198.9711	0.6416
199.1888	0.7938
199.4064	0.8099
199.624	0.771
199.8416	0.5106
200.0592	0.6588
200.2767	0.6327
200.4943	0.7887
200.7119	0.8074
200.9294	0.7841
201.1469	0.5938
201.3645	0.8008
201.582	0.5797
201.7995	0.6936
202.017	0.5578
202.2344	0.6727
202.4519	0.6866
202.6694	0.6029
202.8868	0.7261
203.1042	0.8193
203.3217	0.8255
203.5391	0.7262
203.7565	0.6084
203.9739	0.6484
204.1913	0.59
204.4086	0.7858
204.626	0.7745
204.8433	0.5623
205.0607	0.6621
205.278	0.7773
205.4953	0.7442
205.7126	0.7769
205.9299	0.7908
206.1472	0.7389
206.3644	0.6434
206.5817	0.7736
206.7989	0.7957
207.0162	0.7453
207.2334	0.7873
207.4506	0.6925
207.6678	0.6517
207.885	0.6345
208.1022	0.6761
208.3194	0.6853
208.5365	0.7042
208.7537	0.6773
208.9708	0.7076
209.1879	0.641
209.405	0.7737
209.6222	0.807
209.8392	0.6848
210.0563	0.6359
210.2734	0.6993
210.4905	0.6187
210.7075	0.6481
210.9245	0.6417
211.1416	0.7432
211.3586	0.6864
211.5756	0.601
211.7926	0.6004
212.0096	0.5503
212.2265	0.5908
212.4435	0.6696
212.6604	0.6243
212.8774	0.5866
213.0943	0.6513
213.3112	0.6476
213.5281	0.5371
213.745	0.5187
213.9619	0.5503
214.1788	0.4832
214.3956	0.487
214.6125	0.4737
214.8293	0.4699
215.0461	0.4746
215.2629	0.4631
215.4798	0.4976
215.6965	0.4343
215.9133	0.4564
216.1301	0.4024
216.3469	0.4855
216.5636	0.43
216.7803	0.392
216.9971	0.4246
217.2138	0.3711
217.4305	0.3853
217.6472	0.3534
217.8639	0.3463
218.0805	0.3464
218.2972	0.3443
218.5138	0.313
218.7305	0.3295
218.9471	0.2784
219.1637	0.2679
219.3803	0.2803
219.5969	0.2895
219.8135	0.2511
220.0301	0.2754
220.2466	0.2672
220.4632	0.2694
220.6797	0.2338
220.8962	0.2315
221.1127	0.2539
221.3292	0.2812
221.5457	0.239
221.7622	0.2233
221.9787	0.2538
222.1951	0.2369
222.4116	0.2656
222.628	0.2452
222.8444	0.2491
223.0608	0.2518
223.2772	0.2477
223.4936	0.2668
223.71	0.2442
223.9264	0.2714
224.1427	0.2483
224.3591	0.2667
224.5754	0.2487
224.7917	0.2515
225.008	0.2542
225.2243	0.2554
225.4406	0.2708
225.6569	0.2569
225.8732	0.2543
226.0894	0.2609
226.3057	0.2827
226.5219	0.2703
226.7381	0.2582
226.9543	0.2719
227.1705	0.2778
227.3867	0.2562
227.6029	0.292
227.8191	0.2974
228.0352	0.2816
228.2513	0.2837
228.4675	0.2961
228.6836	0.3104
228.8997	0.2925
229.1158	0.3105
229.3319	0.3186
229.548	0.3014
229.764	0.3215
229.9801	0.3201
230.1961	0.3307
230.4121	0.3181
230.6282	0.3326
230.8442	0.3215
231.0602	0.3428
231.2761	0.3465
231.4921	0.3593
231.7081	0.3455
231.924	0.3274
232.14	0.372
232.3559	0.331
232.5718	0.362
232.7877	0.3429
233.0036	0.3368
233.2195	0.3466
233.4353	0.3419
233.6512	0.3578
233.867	0.3518
234.0829	0.3604
234.2987	0.3645
234.5145	0.3772
234.7303	0.3801
234.9461	0.3798
235.1619	0.3762
235.3776	0.3659
235.5934	0.3913
235.8091	0.3541
236.0249	0.3917
236.2406	0.3745
236.4563	0.3661
236.672	0.3698
236.8877	0.3918
237.1034	0.3757
237.319	0.3897
237.5347	0.4126
237.7503	0.3928
237.966	0.4094
238.1816	0.3982
238.3972	0.4167
238.6128	0.3972
238.8284	0.3977
239.0439	0.4176
239.2595	0.3876
239.475	0.4019
239.6906	0.4226
239.9061	0.4033
240.1216	0.4105
240.3371	0.4268
240.5526	0.3949
240.7681	0.4183
240.9836	0.382
241.199	0.4221
241.4145	0.3875
241.6299	0.4004
241.8453	0.383
242.0607	0.3937
242.2761	0.362
242.4915	0.3651
242.7069	0.3652
242.9223	0.3668
243.1376	0.3438
243.353	0.3673
243.5683	0.3596
243.7836	0.3181
243.9989	0.3534
244.2142	0.3081
244.4295	0.324
244.6448	0.3185
244.86	0.2986
245.0753	0.2891
245.2905	0.2961
245.5057	0.2827
245.721	0.2902
245.9362	0.28
246.1514	0.2822
246.3665	0.257
246.5817	0.2601
246.7969	0.2662
247.012	0.2392
247.2271	0.2423
247.4423	0.2487
247.6574	0.2519
247.8725	0.2336
248.0876	0.2197
248.3026	0.2292
248.5177	0.2325
248.7328	0.2234
248.9478	0.2049
249.1628	0.2089
249.3779	0.2204
249.5929	0.2138
249.8079	0.2259
250.0228	0.2085
250.2378	0.2139
250.4528	0.2031
250.6677	0.1923
250.8827	0.194
251.0976	0.2008
251.3125	0.1914
251.5274	0.1819
251.7423	0.1972
251.9572	0.1914
252.172	0.1889
252.3869	0.188
252.6017	0.1626
252.8166	0.1604
253.0314	0.1658
253.2462	0.1638
253.461	0.1781
253.6758	0.1763
253.8906	0.1727
254.1053	0.1701
254.3201	0.1675
254.5348	0.1808
254.7496	0.1788
254.9643	0.167
255.179	0.1769
255.3937	0.1708
255.6083	0.179
255.823	0.1717
256.0377	0.1691
256.2523	0.1802
256.467	0.1522
256.6816	0.182
256.8962	0.163
257.1108	0.1666
257.3254	0.1752
257.54	0.1708
257.7545	0.1503
257.9691	0.1617
258.1836	0.1644
258.3981	0.1739
258.6127	0.177
258.8272	0.158
259.0417	0.1698
259.2561	0.1656
259.4706	0.1719
259.6851	0.1617
259.8995	0.1644
260.114	0.1608
260.3284	0.1718
260.5428	0.164
260.7572	0.1604
260.9716	0.1638
261.186	0.1574
261.4003	0.1579
261.6147	0.1764
261.829	0.1608
262.0433	0.164
262.2577	0.1705
262.472	0.1687
262.6863	0.1623
262.9005	0.1623
263.1148	0.1678
263.3291	0.1527
263.5433	0.1634
263.7576	0.1563
263.9718	0.1484
264.186	0.1607
264.4002	0.1528
264.6144	0.166
264.8286	0.1723
265.0427	0.1558
265.2569	0.1597
265.471	0.1479
265.6851	0.1617
265.8993	0.1624
266.1134	0.1649
266.3275	0.1702
266.5415	0.1571
266.7556	0.1755
266.9697	0.1569
267.1837	0.1605
267.3978	0.1636
267.6118	0.1747
267.8258	0.1819
268.0398	0.1557
268.2538	0.1697
268.4677	0.1683
268.6817	0.1591
268.8957	0.1651
269.1096	0.1559
269.3235	0.1711
269.5374	0.1533
269.7514	0.158
269.9652	0.1491
270.1791	0.1642
270.393	0.1596
270.6068	0.1542
270.8207	0.1544
271.0345	0.1522
271.2483	0.1593
271.4622	0.1436
271.676	0.1537
271.8897	0.1469
272.1035	0.1427
272.3173	0.1434
272.531	0.151
272.7448	0.1397
272.9585	0.1472
273.1722	0.1522
273.3859	0.1564
273.5996	0.1426
273.8133	0.1434
274.0269	0.1482
274.2406	0.1551
274.4542	0.1508
274.6679	0.1365
274.8815	0.1481
275.0951	0.1541
275.3087	0.1563
275.5223	0.1472
275.7358	0.1595
275.9494	0.1526
276.1629	0.1468
276.3765	0.1356
276.59	0.1543
276.8035	0.1515
277.017	0.1497
277.2305	0.1459
277.444	0.1658
277.6574	0.1477
277.8709	0.1619
278.0843	0.1483
278.2978	0.1488
278.5112	0.1443
278.7246	0.1526
278.938	0.1507
279.1513	0.1534
279.3647	0.1539
279.5781	0.1497
279.7914	0.1583
280.0047	0.1622
280.2181	0.146
280.4314	0.1662
280.6447	0.1566
280.8579	0.1635
281.0712	0.1516
281.2845	0.1558
281.4977	0.1497
281.711	0.1518
281.9242	0.1616
282.1374	0.1557
282.3506	0.1559
282.5638	0.1617
282.7769	0.152
282.9901	0.1542
283.2033	0.1686
283.4164	0.1713
283.6295	0.1536
283.8426	0.1476
284.0557	0.1557
284.2688	0.171
284.4819	0.1545
284.695	0.1578
284.908	0.1679
285.1211	0.1475
285.3341	0.1509
285.5471	0.1642
285.7601	0.1499
285.9731	0.1482
286.1861	0.15
286.3991	0.1596
286.612	0.1705
286.825	0.1559
287.0379	0.1717
287.2508	0.1508
287.4637	0.1658
287.6766	0.1533
287.8895	0.1611
288.1024	0.176
288.3152	0.1691
288.5281	0.1581
288.7409	0.165
288.9538	0.165
289.1666	0.1664
289.3794	0.1624
289.5922	0.1564
289.8049	0.1577
290.0177	0.1582
290.2304	0.1677
290.4432	0.1615
290.6559	0.1655
290.8686	0.1578
291.0813	0.1516
291.294	0.1502
291.5067	0.1583
291.7194	0.1482
291.932	0.1656
292.1447	0.1578
292.3573	0.148
292.5699	0.1562
292.7825	0.1643
292.9951	0.1578
293.2077	0.1691
293.4203	0.145
293.6328	0.1417
293.8454	0.1608
294.0579	0.1552
294.2704	0.166
294.4829	0.1452
294.6954	0.1624
294.9079	0.1616
295.1204	0.1542
295.3328	0.155
295.5453	0.1532
295.7577	0.1527
295.9701	0.153
296.1825	0.1541
296.3949	0.1488
296.6073	0.1461
296.8197	0.1497
297.0321	0.1634
297.2444	0.1467
297.4567	0.1658
297.6691	0.1549
297.8814	0.1482
298.0937	0.1541
298.306	0.1652
298.5182	0.1529
298.7305	0.166
298.9428	0.1475
299.155	0.1589
299.3672	0.1531
299.5794	0.1482
299.7916	0.1543
300.0038	0.162
300.216	0.1678
300.4282	0.1576
300.6403	0.1418
300.8525	0.1585
301.0646	0.1565
301.2767	0.1487
301.4888	0.1448
301.7009	0.1653
301.913	0.1546
302.125	0.153
302.3371	0.1536
302.5491	0.1529
302.7612	0.1525
302.9732	0.1562
303.1852	0.1611
303.3972	0.1492
303.6092	0.155
303.8211	0.1429
304.0331	0.1482
304.245	0.1473
304.457	0.1401
304.6689	0.1441
304.8808	0.1679
305.0927	0.1452
305.3046	0.1449
305.5164	0.1607
305.7283	0.1436
305.9401	0.1418
306.152	0.1479
306.3638	0.1623
306.5756	0.1398
306.7874	0.1396
306.9992	0.1447
307.2109	0.1388
307.4227	0.1279
307.6344	0.1339
307.8462	0.1329
308.0579	0.1269
308.2696	0.1381
308.4813	0.134
308.693	0.1321
308.9046	0.1276
309.1163	0.1201
309.328	0.1199
309.5396	0.1217
309.7512	0.1176
309.9628	0.1177
310.1744	0.128
310.386	0.1223
310.5976	0.1119
310.8091	0.115
311.0207	0.117
311.2322	0.1209
311.4437	0.1136
311.6552	0.1063
311.8667	0.1191
312.0782	0.103
312.2897	0.1074
312.5012	0.1019
312.7126	0.1055
312.924	0.1061
313.1355	0.1245
313.3469	0.1155
313.5583	0.1182
313.7696	0.1003
313.981	0.1183
314.1924	0.0996
314.4037	0.1063
314.6151	0.1165
314.8264	0.1049
315.0377	0.0988
315.249	0.1006
315.4603	0.1077
315.6716	0.1047
315.8828	0.0937
316.0941	0.0943
316.3053	0.1005
316.5165	0.0879
316.7277	0.1082
316.9389	0.1017
317.1501	0.1042
317.3613	0.1006
317.5724	0.0975
317.7836	0.0965
317.9947	0.1003
318.2058	0.1057
318.417	0.0926
318.6281	0.0883
318.8391	0.1048
319.0502	0.0979
319.2613	0.1057
319.4723	0.105
319.6834	0.0987
319.8944	0.0996
320.1054	0.1054
320.3164	0.1047
320.5274	0.111
320.7383	0.0942
320.9493	0.102
321.1602	0.1172
321.3712	0.0919
321.5821	0.1047
321.793	0.1123
322.0039	0.1005
322.2148	0.1084
322.4257	0.1118
322.6365	0.1057
322.8474	0.1245
323.0582	0.102
323.269	0.1013
323.4798	0.1139
323.6906	0.11
323.9014	0.1039
324.1122	0.1047
324.3229	0.0932
324.5337	0.1062
324.7444	0.1074
324.9551	0.1176
325.1658	0.1149
325.3765	0.1095
325.5872	0.0986
325.7979	0.1064
326.0085	0.1122
326.2192	0.1146
326.4298	0.1046
326.6404	0.1019
326.851	0.1071
327.0616	0.1008
327.2722	0.1067
327.4828	0.1065
327.6933	0.1073
327.9039	0.1059
328.1144	0.1182
328.3249	0.1114
328.5354	0.1144
328.7459	0.1028
328.9564	0.0989
329.1669	0.1112
329.3773	0.1025
329.5878	0.1101
329.7982	0.1085
330.0086	0.116
330.219	0.1089
330.4294	0.0971
330.6398	0.1097
330.8502	0.1159
331.0605	0.106
331.2708	0.1091
331.4812	0.1132
331.6915	0.1074
331.9018	0.1071
332.1121	0.1119
332.3224	0.1197
332.5326	0.1261
332.7429	0.1174
332.9531	0.1034
333.1633	0.1149
333.3735	0.1065
333.5837	0.0995
333.7939	0.101
334.0041	0.1273
334.2143	0.1216
334.4244	0.1204
334.6346	0.1044
334.8447	0.1139
335.0548	0.1088
335.2649	0.1011
335.475	0.1258
335.685	0.1055
335.8951	0.1234
336.1051	0.1198
336.3152	0.1195
336.5252	0.1114
336.7352	0.1096
336.9452	0.1178
337.1552	0.1205
337.3652	0.1119
337.5751	0.1104
337.7851	0.1157
337.995	0.1113
338.2049	0.1152
338.4148	0.1132
338.6247	0.1316
338.8346	0.1273
339.0445	0.1121
339.2543	0.1083
339.4642	0.113
339.674	0.1167
339.8838	0.1135
340.0936	0.1221
340.3034	0.122
340.5132	0.1252
340.7229	0.1301
340.9327	0.1162
341.1424	0.1158
341.3522	0.1271
341.5619	0.1218
341.7716	0.1316
341.9813	0.1268
342.1909	0.1261
342.4006	0.1387
342.6102	0.1314
342.8199	0.1408
343.0295	0.1214
343.2391	0.1323
343.4487	0.1406
343.6583	0.1314
343.8679	0.1251
344.0774	0.1391
344.287	0.1333
344.4965	0.128
344.706	0.1393
344.9155	0.1139
345.125	0.1219
345.3345	0.138
345.544	0.1251
345.7534	0.1321
345.9629	0.116
346.1723	0.1525
346.3817	0.1136
346.5911	0.1362
346.8005	0.1327
347.0099	0.1396
347.2193	0.1334
347.4286	0.128
347.638	0.1397
347.8473	0.1478
348.0566	0.1312
348.2659	0.1514
348.4752	0.1355
348.6845	0.1278
348.8937	0.1517
349.103	0.1369
349.3122	0.1415
349.5214	0.1313
349.7306	0.1389
349.9398	0.1393
350.149	0.1384
350.3582	0.1428
350.5674	0.1402
350.7765	0.1431
350.9856	0.1372
351.1948	0.1417
351.4039	0.1434
351.613	0.1428
351.822	0.1486
352.0311	0.1609
352.2402	0.1474
352.4492	0.1463
352.6582	0.1423
352.8672	0.132
353.0762	0.1535
353.2852	0.1453
353.4942	0.1509
353.7032	0.152
353.9121	0.1516
354.1211	0.1462
354.33	0.1608
354.5389	0.16
354.7478	0.1576
354.9567	0.1445
355.1655	0.1472
355.3744	0.151
355.5833	0.1605
355.7921	0.1714
356.0009	0.1431
356.2097	0.1681
356.4185	0.1702
356.6273	0.1636
356.8361	0.1772
357.0448	0.1679
357.2536	0.1433
357.4623	0.1466
357.671	0.1634
357.8797	0.1552
358.0884	0.1705
358.2971	0.1677
358.5057	0.1677
358.7144	0.1749
358.923	0.1683
359.1316	0.1719
359.3402	0.1671
359.5488	0.1728
359.7574	0.1545
359.966	0.1792
360.1746	0.1758
360.3831	0.1685
360.5916	0.1716
360.8002	0.155
361.0087	0.1723
361.2172	0.1896
361.4256	0.1763
361.6341	0.1864
361.8426	0.1903
362.051	0.1823
362.2594	0.1835
362.4678	0.1858
362.6762	0.1923
362.8846	0.1934
363.093	0.1852
363.3014	0.1793
363.5097	0.1623
363.718	0.2023
363.9264	0.1807
364.1347	0.1657
364.343	0.1974
364.5513	0.2012
364.7595	0.1931
364.9678	0.1818
365.176	0.1923
365.3842	0.178
365.5925	0.1851
365.8007	0.1882
366.0089	0.1893
366.217	0.1831
366.4252	0.1976
366.6333	0.2084
366.8415	0.1965
367.0496	0.183
367.2577	0.2097
367.4658	0.1977
367.6739	0.1988
367.882	0.1991
368.09	0.2007
368.2981	0.2085
368.5061	0.197
368.7141	0.1967
368.9221	0.2106
369.1301	0.2053
369.3381	0.2029
369.5461	0.199
369.754	0.2069
369.962	0.2182
370.1699	0.2113
370.3778	0.2073
370.5857	0.1912
370.7936	0.1983
371.0015	0.2213
371.2093	0.2166
371.4172	0.2146
371.625	0.1849
371.8328	0.2079
372.0406	0.2299
372.2484	0.2058
372.4562	0.2007
372.664	0.2121
372.8717	0.2208
373.0795	0.1952
373.2872	0.2058
373.4949	0.211
373.7026	0.2088
373.9103	0.2251
374.118	0.2173
374.3256	0.215
374.5333	0.2013
374.7409	0.2039
374.9485	0.2332
375.1561	0.2265
375.3637	0.2356
375.5713	0.2179
375.7789	0.2229
375.9864	0.215
376.194	0.2098
376.4015	0.2415
376.609	0.2339
376.8165	0.2216
377.024	0.2161
377.2315	0.2245
377.4389	0.2348
377.6464	0.2397
377.8538	0.2317
378.0612	0.2141
378.2686	0.2314
378.476	0.2356
378.6834	0.229
378.8908	0.2156
379.0981	0.237
379.3055	0.2277
379.5128	0.2312
379.7201	0.2381
379.9274	0.2264
380.1347	0.2237
380.342	0.2292
380.5492	0.2134
380.7565	0.2332
380.9637	0.2411
381.1709	0.2282
381.3781	0.221
381.5853	0.2396
381.7925	0.2359
381.9997	0.2309
382.2068	0.2303
382.4139	0.2453
382.6211	0.2213
382.8282	0.219
383.0353	0.2378
383.2424	0.2325
383.4494	0.2505
383.6565	0.2368
383.8635	0.2197
384.0706	0.227
384.2776	0.2314
384.4846	0.2382
384.6916	0.275
384.8986	0.2278
385.1055	0.2405
385.3125	0.2429
385.5194	0.2125
385.7263	0.2266
385.9333	0.2433
386.1402	0.2192
386.347	0.2415
386.5539	0.2276
386.7608	0.2398
386.9676	0.2276
387.1744	0.2276
387.3813	0.2085
387.5881	0.2216
387.7948	0.2169
388.0016	0.2256
388.2084	0.2417
388.4151	0.213
388.6219	0.231
388.8286	0.2184
389.0353	0.235
389.242	0.2251
389.4487	0.2268
389.6553	0.2192
389.862	0.198
390.0686	0.2241
390.2753	0.2449
390.4819	0.2379
390.6885	0.2138
390.8951	0.2299
391.1016	0.2177
391.3082	0.2158
391.5147	0.2205
391.7213	0.2223
391.9278	0.2087
392.1343	0.2203
392.3408	0.2226
392.5473	0.2165
392.7537	0.2191
392.9602	0.215
393.1666	0.2106
393.373	0.2016
393.5794	0.2184
393.7858	0.2137
393.9922	0.2013
394.1986	0.2179
394.4049	0.2034
394.6113	0.2018
394.8176	0.205
395.0239	0.215
395.2302	0.1893
395.4365	0.2036
395.6428	0.1889
395.8491	0.1902
396.0553	0.1953
396.2615	0.2007
396.4678	0.1993
396.674	0.208
396.8802	0.1991
397.0863	0.2087
397.2925	0.2008
397.4987	0.1929
397.7048	0.1947
397.9109	0.2127
398.117	0.1737
398.3231	0.1829
398.5292	0.1967
398.7353	0.1993
398.9413	0.1989
399.1474	0.1893
399.3534	0.2029
399.5594	0.1755
399.7654	0.1927
399.9714	0.2161
400.1774	0.1919
400.3833	0.1893
400.5893	0.2035
400.7952	0.1982
401.0011	0.2132
401.207	0.2082
401.4129	0.2008
401.6188	0.2079
401.8247	0.1968
402.0305	0.1835
402.2364	0.1872
402.4422	0.2196
402.648	0.2057
402.8538	0.2026
403.0596	0.1875
403.2654	0.1928
403.4711	0.192
403.6768	0.1981
403.8826	0.2026
404.0883	0.1896
404.294	0.2061
404.4997	0.1978
404.7054	0.1997
404.911	0.183
405.1167	0.1843
405.3223	0.2086
405.5279	0.2041
405.7335	0.2138
405.9391	0.2083
406.1447	0.1865
406.3502	0.2162
406.5558	0.1839
406.7613	0.2067
406.9668	0.1871
407.1724	0.1889
407.3778	0.1865
407.5833	0.203
407.7888	0.1864
407.9942	0.2111
408.1997	0.1833
408.4051	0.184
408.6105	0.1941
408.8159	0.1825
409.0213	0.1652
409.2267	0.204
409.432	0.1807
409.6374	0.2027
409.8427	0.1884
410.048	0.1843
410.2533	0.1807
410.4586	0.1846
410.6639	0.1821
410.8691	0.1779
411.0744	0.1879
411.2796	0.1638
411.4848	0.178
411.69	0.1712
411.8952	0.2047
412.1004	0.1771
412.3056	0.1977
412.5107	0.1861
412.7158	0.1926
412.921	0.1899
413.1261	0.183
413.3312	0.1938
413.5362	0.1958
413.7413	0.18
413.9464	0.1873
414.1514	0.2109
414.3564	0.19
414.5614	0.1702
414.7664	0.1825
414.9714	0.1928
415.1764	0.1792
415.3813	0.203
415.5863	0.1681
415.7912	0.2024
415.9961	0.1933
416.201	0.1869
416.4059	0.1957
416.6108	0.1962
416.8156	0.182
417.0205	0.1813
417.2253	0.1769
417.4301	0.1943
417.6349	0.1697
417.8397	0.1868
418.0445	0.1764
418.2492	0.1746
418.454	0.1727
418.6587	0.1822
418.8634	0.1758
419.0681	0.1632
419.2728	0.1886
419.4775	0.1902
419.6822	0.1647
419.8868	0.1453
420.0915	0.1798
420.2961	0.1547
420.5007	0.1583
420.7053	0.1788
420.9099	0.181
421.1144	0.1677
421.319	0.157
421.5235	0.169
421.728	0.1714
421.9325	0.171
422.137	0.1689
422.3415	0.1848
422.546	0.171
422.7504	0.1781
422.9549	0.1943
423.1593	0.1815
423.3637	0.1753
423.5681	0.1775
423.7725	0.156
423.9769	0.1526
424.1812	0.1518
424.3856	0.1706
424.5899	0.1568
424.7942	0.1655
424.9985	0.1731
425.2028	0.1648
425.4071	0.1768
425.6113	0.1207
425.8156	0.1684
426.0198	0.1651
426.224	0.1385
426.4282	0.1366
