Data from MonoPyChalIsomerACN10uM440nmA_Absorbance_15-27-13-794.txt Node
Date: Fri Jul 05 15:27:13 BST 2024
User: LASERRRRR
Spectrometer: FLMT03099
Trigger mode: 0
Integration Time (sec): 1.000000E-1
Scans to average: 1
Electric dark correction enabled: true
Nonlinearity correction enabled: false
Boxcar width: 0
XAxis mode: Wavelengths
Number of Pixels in Spectrum: 3648
>>>>>Begin Spectral Data<<<<<
179.3399	0.1882
179.5586	0.1882
179.7771	0.1882
179.9957	0.3364
180.2143	-0
180.4329	0.3901
180.6514	0.393
180.8699	-0
181.0885	-0
181.307	0.6397
181.5255	-0
181.744	-0
181.9625	-0
182.181	-0
182.3994	0.5465
182.6179	0.2576
182.8363	-0.131
183.0547	0.3111
183.2732	0.0598
183.4916	0.2823
183.71	-0.0119
183.9284	0.2584
184.1467	-0.0562
184.3651	-0.0281
184.5835	-0.0004
184.8018	0.1394
185.0201	0.3454
185.2385	-0.0105
185.4568	0.0939
185.6751	0.0682
185.8934	0.311
186.1117	0.1499
186.3299	0.0708
186.5482	0.1471
186.7664	0.0044
186.9847	0.0633
187.2029	0.0704
187.4211	0.1584
187.6393	0.2787
187.8575	-0.1324
188.0757	0.4342
188.2939	0.1335
188.512	0.1744
188.7302	0.0691
188.9483	0.4144
189.1665	0.1831
189.3846	0.2968
189.6027	0.4174
189.8208	0.2374
190.0389	0.1683
190.257	0.1032
190.475	0.2623
190.6931	0.2125
190.9111	0.7919
191.1292	0.2112
191.3472	0.4276
191.5652	0.2596
191.7832	0.4007
192.0012	0.7972
192.2192	0.3326
192.4371	0.7391
192.6551	0.2802
192.873	0.3294
193.091	0.5904
193.3089	0.5501
193.5268	0.3684
193.7447	0.5816
193.9626	0.491
194.1805	0.6591
194.3984	0.8562
194.6162	0.6305
194.8341	0.581
195.0519	0.6709
195.2697	0.8761
195.4875	0.7898
195.7054	0.6433
195.9231	0.5735
196.1409	1.2132
196.3587	0.7443
196.5765	0.7259
196.7942	0.5933
197.012	0.5932
197.2297	0.6796
197.4474	0.8043
197.6651	0.554
197.8828	0.5755
198.1005	0.5758
198.3182	0.7377
198.5358	1.1727
198.7535	0.6053
198.9711	0.5539
199.1888	0.735
199.4064	0.7464
199.624	0.5694
199.8416	0.6402
200.0592	0.6668
200.2767	0.7285
200.4943	0.6578
200.7119	0.6907
200.9294	0.7741
201.1469	0.6225
201.3645	0.6365
201.582	0.6621
201.7995	0.6286
202.017	0.659
202.2344	0.56
202.4519	0.685
202.6694	0.6704
202.8868	0.6487
203.1042	0.6513
203.3217	0.5663
203.5391	0.7216
203.7565	0.6259
203.9739	0.6156
204.1913	0.7004
204.4086	0.6891
204.626	0.7333
204.8433	0.7339
205.0607	0.7549
205.278	0.8219
205.4953	0.672
205.7126	0.6104
205.9299	0.6796
206.1472	0.6776
206.3644	0.6578
206.5817	0.79
206.7989	0.7473
207.0162	0.7009
207.2334	0.6482
207.4506	0.6785
207.6678	0.6472
207.885	0.6949
208.1022	0.6576
208.3194	0.6809
208.5365	0.5932
208.7537	0.6797
208.9708	0.5722
209.1879	0.6247
209.405	0.7062
209.6222	0.6549
209.8392	0.5983
210.0563	0.6199
210.2734	0.6915
210.4905	0.6446
210.7075	0.6676
210.9245	0.5899
211.1416	0.7349
211.3586	0.6347
211.5756	0.6178
211.7926	0.6969
212.0096	0.5968
212.2265	0.5798
212.4435	0.6332
212.6604	0.6262
212.8774	0.61
213.0943	0.6198
213.3112	0.6109
213.5281	0.5197
213.745	0.4923
213.9619	0.4741
214.1788	0.5029
214.3956	0.4545
214.6125	0.4973
214.8293	0.4313
215.0461	0.5325
215.2629	0.4663
215.4798	0.4814
215.6965	0.4018
215.9133	0.4372
216.1301	0.4157
216.3469	0.4605
216.5636	0.4023
216.7803	0.4196
216.9971	0.4028
217.2138	0.3821
217.4305	0.36
217.6472	0.3652
217.8639	0.3829
218.0805	0.3354
218.2972	0.3174
218.5138	0.3392
218.7305	0.2997
218.9471	0.2999
219.1637	0.2742
219.3803	0.2866
219.5969	0.2807
219.8135	0.2436
220.0301	0.2763
220.2466	0.2904
220.4632	0.2809
220.6797	0.2412
220.8962	0.2526
221.1127	0.2606
221.3292	0.2635
221.5457	0.2338
221.7622	0.2346
221.9787	0.2625
222.1951	0.2438
222.4116	0.2475
222.628	0.2496
222.8444	0.2737
223.0608	0.2268
223.2772	0.2671
223.4936	0.25
223.71	0.2474
223.9264	0.253
224.1427	0.2673
224.3591	0.2493
224.5754	0.2514
224.7917	0.2656
225.008	0.2531
225.2243	0.2572
225.4406	0.2856
225.6569	0.2579
225.8732	0.2505
226.0894	0.283
226.3057	0.2619
226.5219	0.2696
226.7381	0.2661
226.9543	0.2636
227.1705	0.3062
227.3867	0.2687
227.6029	0.2774
227.8191	0.2906
228.0352	0.2793
228.2513	0.3264
228.4675	0.3152
228.6836	0.3156
228.8997	0.284
229.1158	0.3181
229.3319	0.3207
229.548	0.3148
229.764	0.3182
229.9801	0.3321
230.1961	0.3271
230.4121	0.3385
230.6282	0.3353
230.8442	0.3315
231.0602	0.3384
231.2761	0.3427
231.4921	0.344
231.7081	0.3459
231.924	0.3366
232.14	0.3556
232.3559	0.3565
232.5718	0.3543
232.7877	0.3522
233.0036	0.3442
233.2195	0.3637
233.4353	0.3544
233.6512	0.3732
233.867	0.3625
234.0829	0.3621
234.2987	0.3546
234.5145	0.3726
234.7303	0.3688
234.9461	0.3883
235.1619	0.3865
235.3776	0.3847
235.5934	0.3829
235.8091	0.3705
236.0249	0.4002
236.2406	0.3729
236.4563	0.3785
236.672	0.3941
236.8877	0.397
237.1034	0.385
237.319	0.3885
237.5347	0.4029
237.7503	0.3823
237.966	0.4042
238.1816	0.3956
238.3972	0.3869
238.6128	0.4005
238.8284	0.4228
239.0439	0.4009
239.2595	0.3882
239.475	0.3996
239.6906	0.4109
239.9061	0.4124
240.1216	0.4031
240.3371	0.4103
240.5526	0.3759
240.7681	0.4239
240.9836	0.3753
241.199	0.3977
241.4145	0.3821
241.6299	0.3771
241.8453	0.3948
242.0607	0.368
242.2761	0.3572
242.4915	0.3699
242.7069	0.3657
242.9223	0.3635
243.1376	0.3407
243.353	0.353
243.5683	0.3401
243.7836	0.3291
243.9989	0.3084
244.2142	0.3138
244.4295	0.3164
244.6448	0.2922
244.86	0.2973
245.0753	0.2951
245.2905	0.2785
245.5057	0.2782
245.721	0.2658
245.9362	0.271
246.1514	0.2748
246.3665	0.2577
246.5817	0.255
246.7969	0.2552
247.012	0.2483
247.2271	0.2349
247.4423	0.2548
247.6574	0.2369
247.8725	0.2333
248.0876	0.2314
248.3026	0.2154
248.5177	0.2302
248.7328	0.213
248.9478	0.1981
249.1628	0.2115
249.3779	0.218
249.5929	0.2087
249.8079	0.2151
250.0228	0.1958
250.2378	0.1957
250.4528	0.1864
250.6677	0.1808
250.8827	0.1863
251.0976	0.1966
251.3125	0.1764
251.5274	0.1741
251.7423	0.1882
251.9572	0.1826
252.172	0.1877
252.3869	0.1759
252.6017	0.1811
252.8166	0.1779
253.0314	0.1674
253.2462	0.1635
253.461	0.1872
253.6758	0.1658
253.8906	0.1835
254.1053	0.1617
254.3201	0.1716
254.5348	0.1736
254.7496	0.1824
254.9643	0.1733
255.179	0.1824
255.3937	0.1697
255.6083	0.1805
255.823	0.169
256.0377	0.1628
256.2523	0.1609
256.467	0.1401
256.6816	0.1714
256.8962	0.1684
257.1108	0.1627
257.3254	0.1733
257.54	0.155
257.7545	0.1716
257.9691	0.1738
258.1836	0.1718
258.3981	0.1709
258.6127	0.1751
258.8272	0.1587
259.0417	0.1578
259.2561	0.1671
259.4706	0.1686
259.6851	0.1657
259.8995	0.1551
260.114	0.1605
260.3284	0.1583
260.5428	0.1549
260.7572	0.1724
260.9716	0.1669
261.186	0.1576
261.4003	0.1613
261.6147	0.1708
261.829	0.168
262.0433	0.1664
262.2577	0.1668
262.472	0.167
262.6863	0.1624
262.9005	0.1738
263.1148	0.1505
263.3291	0.1551
263.5433	0.1498
263.7576	0.1668
263.9718	0.1734
264.186	0.1537
264.4002	0.1635
264.6144	0.1626
264.8286	0.1647
265.0427	0.156
265.2569	0.1644
265.471	0.1589
265.6851	0.1548
265.8993	0.155
266.1134	0.1499
266.3275	0.1604
266.5415	0.1603
266.7556	0.1741
266.9697	0.1609
267.1837	0.1539
267.3978	0.1678
267.6118	0.1684
267.8258	0.1779
268.0398	0.1523
268.2538	0.1718
268.4677	0.1621
268.6817	0.155
268.8957	0.1569
269.1096	0.1644
269.3235	0.1647
269.5374	0.1566
269.7514	0.1543
269.9652	0.1478
270.1791	0.1447
270.393	0.1354
270.6068	0.1601
270.8207	0.145
271.0345	0.142
271.2483	0.1418
271.4622	0.1525
271.676	0.1556
271.8897	0.1453
272.1035	0.1401
272.3173	0.1329
272.531	0.1317
272.7448	0.1428
272.9585	0.1396
273.1722	0.1441
273.3859	0.1442
273.5996	0.118
273.8133	0.1418
274.0269	0.1455
274.2406	0.1356
274.4542	0.1415
274.6679	0.134
274.8815	0.1425
275.0951	0.1381
275.3087	0.143
275.5223	0.1538
275.7358	0.1464
275.9494	0.1378
276.1629	0.1357
276.3765	0.136
276.59	0.1512
276.8035	0.1487
277.017	0.1481
277.2305	0.1432
277.444	0.143
277.6574	0.1384
277.8709	0.1468
278.0843	0.1444
278.2978	0.1407
278.5112	0.1431
278.7246	0.1523
278.938	0.1487
279.1513	0.149
279.3647	0.1511
279.5781	0.1501
279.7914	0.1399
280.0047	0.1557
280.2181	0.1444
280.4314	0.1541
280.6447	0.1544
280.8579	0.153
281.0712	0.1519
281.2845	0.1524
281.4977	0.1524
281.711	0.1461
281.9242	0.1424
282.1374	0.1504
282.3506	0.1532
282.5638	0.1571
282.7769	0.1522
282.9901	0.1519
283.2033	0.1454
283.4164	0.16
283.6295	0.1428
283.8426	0.1466
284.0557	0.1539
284.2688	0.1667
284.4819	0.1684
284.695	0.164
284.908	0.1633
285.1211	0.1429
285.3341	0.1536
285.5471	0.1617
285.7601	0.156
285.9731	0.1527
286.1861	0.1478
286.3991	0.1639
286.612	0.1592
286.825	0.1617
287.0379	0.1657
287.2508	0.1579
287.4637	0.1601
287.6766	0.1514
287.8895	0.1688
288.1024	0.1679
288.3152	0.1661
288.5281	0.1586
288.7409	0.1646
288.9538	0.1588
289.1666	0.1519
289.3794	0.1638
289.5922	0.1524
289.8049	0.1598
290.0177	0.1534
290.2304	0.1651
290.4432	0.1746
290.6559	0.1644
290.8686	0.1667
291.0813	0.1616
291.294	0.1568
291.5067	0.1765
291.7194	0.1612
291.932	0.1718
292.1447	0.1617
292.3573	0.1645
292.5699	0.1683
292.7825	0.1698
292.9951	0.1565
293.2077	0.1568
293.4203	0.1749
293.6328	0.1551
293.8454	0.1695
294.0579	0.1697
294.2704	0.1679
294.4829	0.1565
294.6954	0.1659
294.9079	0.1585
295.1204	0.1645
295.3328	0.1627
295.5453	0.1668
295.7577	0.1648
295.9701	0.1561
296.1825	0.161
296.3949	0.1588
296.6073	0.166
296.8197	0.1587
297.0321	0.1813
297.2444	0.1534
297.4567	0.1663
297.6691	0.1704
297.8814	0.154
298.0937	0.1606
298.306	0.1658
298.5182	0.1613
298.7305	0.1736
298.9428	0.1489
299.155	0.1643
299.3672	0.1638
299.5794	0.1575
299.7916	0.1573
300.0038	0.1514
300.216	0.1554
300.4282	0.1655
300.6403	0.1498
300.8525	0.1664
301.0646	0.1533
301.2767	0.1609
301.4888	0.1523
301.7009	0.1638
301.913	0.1623
302.125	0.1671
302.3371	0.1567
302.5491	0.1664
302.7612	0.1695
302.9732	0.1717
303.1852	0.172
303.3972	0.1604
303.6092	0.1668
303.8211	0.1594
304.0331	0.1542
304.245	0.1615
304.457	0.1469
304.6689	0.1538
304.8808	0.1644
305.0927	0.1425
305.3046	0.1549
305.5164	0.1487
305.7283	0.1493
305.9401	0.1427
306.152	0.1476
306.3638	0.1505
306.5756	0.1347
306.7874	0.1445
306.9992	0.14
307.2109	0.1415
307.4227	0.119
307.6344	0.1416
307.8462	0.135
308.0579	0.1267
308.2696	0.1292
308.4813	0.1315
308.693	0.137
308.9046	0.1335
309.1163	0.1232
309.328	0.1311
309.5396	0.1203
309.7512	0.1287
309.9628	0.1212
310.1744	0.1288
310.386	0.1201
310.5976	0.1176
310.8091	0.1152
311.0207	0.12
311.2322	0.1181
311.4437	0.114
311.6552	0.1145
311.8667	0.1127
312.0782	0.0972
312.2897	0.0997
312.5012	0.1213
312.7126	0.109
312.924	0.0998
313.1355	0.1137
313.3469	0.1123
313.5583	0.1122
313.7696	0.0963
313.981	0.109
314.1924	0.0975
314.4037	0.098
314.6151	0.1109
314.8264	0.0935
315.0377	0.1041
315.249	0.1052
315.4603	0.1011
315.6716	0.1
315.8828	0.0948
316.0941	0.0984
316.3053	0.0986
316.5165	0.0902
316.7277	0.0896
316.9389	0.1049
317.1501	0.0937
317.3613	0.1026
317.5724	0.0845
317.7836	0.1002
317.9947	0.0969
318.2058	0.0927
318.417	0.0869
318.6281	0.0958
318.8391	0.1014
319.0502	0.094
319.2613	0.1011
319.4723	0.0921
319.6834	0.0978
319.8944	0.0804
320.1054	0.0937
320.3164	0.1044
320.5274	0.0892
320.7383	0.0981
320.9493	0.0921
321.1602	0.1098
321.3712	0.0944
321.5821	0.1021
321.793	0.0954
322.0039	0.0959
322.2148	0.1015
322.4257	0.0935
322.6365	0.0952
322.8474	0.1013
323.0582	0.0929
323.269	0.1001
323.4798	0.1101
323.6906	0.0967
323.9014	0.0966
324.1122	0.101
324.3229	0.0896
324.5337	0.0998
324.7444	0.0824
324.9551	0.1036
325.1658	0.1039
325.3765	0.1042
325.5872	0.0981
325.7979	0.0966
326.0085	0.1046
326.2192	0.1058
326.4298	0.1116
326.6404	0.0929
326.851	0.0925
327.0616	0.0909
327.2722	0.1016
327.4828	0.1178
327.6933	0.1009
327.9039	0.1076
328.1144	0.1106
328.3249	0.1007
328.5354	0.0936
328.7459	0.104
328.9564	0.1032
329.1669	0.1071
329.3773	0.0936
329.5878	0.106
329.7982	0.1031
330.0086	0.0907
330.219	0.1019
330.4294	0.1013
330.6398	0.1023
330.8502	0.0898
331.0605	0.0962
331.2708	0.11
331.4812	0.0994
331.6915	0.1052
331.9018	0.1053
332.1121	0.1024
332.3224	0.1086
332.5326	0.1136
332.7429	0.1012
332.9531	0.1196
333.1633	0.1048
333.3735	0.112
333.5837	0.1044
333.7939	0.0979
334.0041	0.1238
334.2143	0.1113
334.4244	0.1049
334.6346	0.0884
334.8447	0.1179
335.0548	0.1045
335.2649	0.0991
335.475	0.1114
335.685	0.1002
335.8951	0.1222
336.1051	0.107
336.3152	0.1098
336.5252	0.1112
336.7352	0.1097
336.9452	0.1052
337.1552	0.1257
337.3652	0.1021
337.5751	0.1051
337.7851	0.1164
337.995	0.0995
338.2049	0.1157
338.4148	0.1197
338.6247	0.1075
338.8346	0.0991
339.0445	0.1164
339.2543	0.1102
339.4642	0.1169
339.674	0.1075
339.8838	0.1117
340.0936	0.1094
340.3034	0.1272
340.5132	0.119
340.7229	0.1084
340.9327	0.1139
341.1424	0.1147
341.3522	0.1264
341.5619	0.116
341.7716	0.1257
341.9813	0.1162
342.1909	0.1191
342.4006	0.1202
342.6102	0.1266
342.8199	0.1139
343.0295	0.1288
343.2391	0.115
343.4487	0.1319
343.6583	0.1201
343.8679	0.1256
344.0774	0.1206
344.287	0.1329
344.4965	0.1158
344.706	0.1366
344.9155	0.1245
345.125	0.1286
345.3345	0.1356
345.544	0.1294
345.7534	0.1265
345.9629	0.1254
346.1723	0.1355
346.3817	0.1309
346.5911	0.1311
346.8005	0.1259
347.0099	0.1201
347.2193	0.1282
347.4286	0.1423
347.638	0.1371
347.8473	0.1363
348.0566	0.1301
348.2659	0.1341
348.4752	0.1222
348.6845	0.1202
348.8937	0.1257
349.103	0.1433
349.3122	0.1204
349.5214	0.1257
349.7306	0.1419
349.9398	0.1286
350.149	0.1424
350.3582	0.1282
350.5674	0.1456
350.7765	0.1487
350.9856	0.1449
351.1948	0.1547
351.4039	0.1358
351.613	0.1378
351.822	0.1491
352.0311	0.1431
352.2402	0.1457
352.4492	0.1473
352.6582	0.1589
352.8672	0.1492
353.0762	0.1476
353.2852	0.1329
353.4942	0.1331
353.7032	0.1491
353.9121	0.1461
354.1211	0.1688
354.33	0.1495
354.5389	0.1527
354.7478	0.1437
354.9567	0.1576
355.1655	0.1479
355.3744	0.1484
355.5833	0.1648
355.7921	0.1818
356.0009	0.1691
356.2097	0.1659
356.4185	0.1681
356.6273	0.17
356.8361	0.1564
357.0448	0.1529
357.2536	0.1538
357.4623	0.1547
357.671	0.1704
357.8797	0.1808
358.0884	0.162
358.2971	0.173
358.5057	0.1703
358.7144	0.1848
358.923	0.165
359.1316	0.1734
359.3402	0.1797
359.5488	0.1581
359.7574	0.1586
359.966	0.1814
360.1746	0.1805
360.3831	0.1853
360.5916	0.1767
360.8002	0.1701
361.0087	0.1818
361.2172	0.1782
361.4256	0.1731
361.6341	0.1814
361.8426	0.1743
362.051	0.1834
362.2594	0.1689
362.4678	0.1897
362.6762	0.2027
362.8846	0.1883
363.093	0.1756
363.3014	0.1954
363.5097	0.1757
363.718	0.1862
363.9264	0.1929
364.1347	0.1927
364.343	0.1914
364.5513	0.1971
364.7595	0.203
364.9678	0.1815
365.176	0.1956
365.3842	0.2061
365.5925	0.202
365.8007	0.1968
366.0089	0.1945
366.217	0.1977
366.4252	0.2213
366.6333	0.2085
366.8415	0.2099
367.0496	0.186
367.2577	0.1978
367.4658	0.2072
367.6739	0.2277
367.882	0.2146
368.09	0.2084
368.2981	0.2189
368.5061	0.2105
368.7141	0.2247
368.9221	0.2073
369.1301	0.2136
369.3381	0.2157
369.5461	0.2064
369.754	0.2058
369.962	0.223
370.1699	0.2233
370.3778	0.2219
370.5857	0.1966
370.7936	0.2272
371.0015	0.2263
371.2093	0.2341
371.4172	0.2327
371.625	0.229
371.8328	0.2161
372.0406	0.2192
372.2484	0.224
372.4562	0.2234
372.664	0.2253
372.8717	0.215
373.0795	0.2116
373.2872	0.2188
373.4949	0.2339
373.7026	0.2321
373.9103	0.226
374.118	0.2322
374.3256	0.2317
374.5333	0.2286
374.7409	0.2324
374.9485	0.2441
375.1561	0.2328
375.3637	0.2357
375.5713	0.2314
375.7789	0.2402
375.9864	0.2215
376.194	0.2205
376.4015	0.2495
376.609	0.2468
376.8165	0.2412
377.024	0.2364
377.2315	0.2302
377.4389	0.2527
377.6464	0.2374
377.8538	0.2535
378.0612	0.2376
378.2686	0.2379
378.476	0.2564
378.6834	0.2482
378.8908	0.2725
379.0981	0.2417
379.3055	0.251
379.5128	0.2485
379.7201	0.2491
379.9274	0.2436
380.1347	0.2505
380.342	0.2674
380.5492	0.2409
380.7565	0.25
380.9637	0.2651
381.1709	0.2421
381.3781	0.2572
381.5853	0.2474
381.7925	0.2519
381.9997	0.2616
382.2068	0.2681
382.4139	0.2411
382.6211	0.235
382.8282	0.2535
383.0353	0.2472
383.2424	0.2619
383.4494	0.2827
383.6565	0.251
383.8635	0.2564
384.0706	0.2697
384.2776	0.2556
384.4846	0.2392
384.6916	0.276
384.8986	0.2453
385.1055	0.2613
385.3125	0.2603
385.5194	0.244
385.7263	0.279
385.9333	0.2569
386.1402	0.2455
386.347	0.2595
386.5539	0.2591
386.7608	0.2808
386.9676	0.2351
387.1744	0.2617
387.3813	0.2613
387.5881	0.2573
387.7948	0.2552
388.0016	0.2423
388.2084	0.2637
388.4151	0.2474
388.6219	0.2666
388.8286	0.2618
389.0353	0.2529
389.242	0.2527
389.4487	0.2537
389.6553	0.2366
389.862	0.2381
390.0686	0.2448
390.2753	0.2645
390.4819	0.2433
390.6885	0.2528
390.8951	0.2451
391.1016	0.2386
391.3082	0.2269
391.5147	0.235
391.7213	0.2441
391.9278	0.2375
392.1343	0.2358
392.3408	0.2328
392.5473	0.2478
392.7537	0.2314
392.9602	0.2305
393.1666	0.234
393.373	0.2255
393.5794	0.2204
393.7858	0.2383
393.9922	0.2297
394.1986	0.2414
394.4049	0.2298
394.6113	0.2276
394.8176	0.2139
395.0239	0.2213
395.2302	0.2155
395.4365	0.23
395.6428	0.216
395.8491	0.225
396.0553	0.2344
396.2615	0.2201
396.4678	0.2204
396.674	0.2076
396.8802	0.2201
397.0863	0.2249
397.2925	0.2038
397.4987	0.213
397.7048	0.2113
397.9109	0.2128
398.117	0.207
398.3231	0.2054
398.5292	0.2483
398.7353	0.2104
398.9413	0.2224
399.1474	0.2172
399.3534	0.2087
399.5594	0.2029
399.7654	0.2231
399.9714	0.2229
400.1774	0.2158
400.3833	0.2092
400.5893	0.2269
400.7952	0.209
401.0011	0.222
401.207	0.2206
401.4129	0.2236
401.6188	0.2071
401.8247	0.2129
402.0305	0.2197
402.2364	0.2114
402.4422	0.2308
402.648	0.2168
402.8538	0.2387
403.0596	0.1954
403.2654	0.2146
403.4711	0.2156
403.6768	0.2183
403.8826	0.2332
404.0883	0.2147
404.294	0.209
404.4997	0.2201
404.7054	0.2222
404.911	0.2056
405.1167	0.2075
405.3223	0.2236
405.5279	0.2204
405.7335	0.2275
405.9391	0.228
406.1447	0.2146
406.3502	0.2293
406.5558	0.2043
406.7613	0.2194
406.9668	0.2089
407.1724	0.2085
407.3778	0.2059
407.5833	0.2177
407.7888	0.1941
407.9942	0.2252
408.1997	0.2236
408.4051	0.2137
408.6105	0.2149
408.8159	0.1997
409.0213	0.1918
409.2267	0.2135
409.432	0.2004
409.6374	0.2194
409.8427	0.2106
410.048	0.2059
410.2533	0.2152
410.4586	0.2112
410.6639	0.2079
410.8691	0.2045
411.0744	0.1967
411.2796	0.2008
411.4848	0.2296
411.69	0.2148
411.8952	0.2203
412.1004	0.1955
412.3056	0.2233
412.5107	0.2171
412.7158	0.2242
412.921	0.2065
413.1261	0.1859
413.3312	0.2092
413.5362	0.2008
413.7413	0.213
413.9464	0.1851
414.1514	0.2025
414.3564	0.2037
414.5614	0.189
414.7664	0.2047
414.9714	0.2187
415.1764	0.2278
415.3813	0.2429
415.5863	0.2189
415.7912	0.221
415.9961	0.2087
416.201	0.1948
416.4059	0.2122
416.6108	0.1932
416.8156	0.2107
417.0205	0.2178
417.2253	0.2016
417.4301	0.1916
417.6349	0.1911
417.8397	0.1963
418.0445	0.2124
418.2492	0.2029
418.454	0.192
418.6587	0.1788
418.8634	0.2068
419.0681	0.2091
419.2728	0.1872
419.4775	0.2
419.6822	0.1955
419.8868	0.1668
420.0915	0.208
420.2961	0.1749
420.5007	0.2022
420.7053	0.2026
420.9099	0.19
421.1144	0.2028
421.319	0.1988
421.5235	0.1936
421.728	0.1974
421.9325	0.2016
422.137	0.1938
422.3415	0.19
422.546	0.1978
422.7504	0.1961
422.9549	0.203
423.1593	0.1973
423.3637	0.201
423.5681	0.18
423.7725	0.178
423.9769	0.1859
424.1812	0.188
424.3856	0.1858
424.5899	0.1825
424.7942	0.1678
424.9985	0.1893
425.2028	0.1805
425.4071	0.1945
425.6113	0.1742
425.8156	0.181
426.0198	0.1803
426.224	0.1605
426.4282	0.1639
426.6324	0.1641
426.8366	0.1614
