Data from MonoPyChalIsomerACN10uM440nmA_Absorbance_15-27-13-394.txt Node
Date: Fri Jul 05 15:27:13 BST 2024
User: LASERRRRR
Spectrometer: FLMT03099
Trigger mode: 0
Integration Time (sec): 1.000000E-1
Scans to average: 1
Electric dark correction enabled: true
Nonlinearity correction enabled: false
Boxcar width: 0
XAxis mode: Wavelengths
Number of Pixels in Spectrum: 3648
>>>>>Begin Spectral Data<<<<<
179.3399	-0.135
179.5586	-0.135
179.7771	-0.135
179.9957	0.1274
180.2143	-0.1284
180.4329	-0.01
180.6514	0.0156
180.8699	-0
181.0885	-0.4297
181.307	0.1729
181.5255	-0.4884
181.744	-0.6315
181.9625	-0
182.181	-0
182.3994	0.2714
182.6179	-0
182.8363	-0
183.0547	-0.1558
183.2732	-0.0142
183.4916	0.0957
183.71	0.0694
183.9284	0.2623
184.1467	0.0482
184.3651	-0.0923
184.5835	0.0979
184.8018	0.185
185.0201	0.1258
185.2385	0.0805
185.4568	0.2106
185.6751	0.1376
185.8934	0.1894
186.1117	0.0053
186.3299	0.0437
186.5482	0.204
186.7664	-0.0258
186.9847	0.0402
187.2029	0.0014
187.4211	-0.0524
187.6393	0.3614
187.8575	-0.0983
188.0757	0.1362
188.2939	0.1696
188.512	-0.116
188.7302	0.0205
188.9483	0.1638
189.1665	0.1368
189.3846	-0
189.6027	0.2965
189.8208	0.3444
190.0389	0.1925
190.257	0.1205
190.475	0.2776
190.6931	0.0679
190.9111	0.8391
191.1292	0.1959
191.3472	0.4356
191.5652	0.2894
191.7832	0.2671
192.0012	0.3527
192.2192	0.4584
192.4371	0.5774
192.6551	0.4263
192.873	0.4844
193.091	0.2785
193.3089	0.5539
193.5268	0.4153
193.7447	0.5936
193.9626	0.4117
194.1805	0.5952
194.3984	0.6595
194.6162	0.5428
194.8341	0.507
195.0519	0.6431
195.2697	0.5787
195.4875	0.7252
195.7054	0.4899
195.9231	0.5178
196.1409	0.6259
196.3587	0.6639
196.5765	0.5487
196.7942	0.6683
197.012	0.5914
197.2297	0.4931
197.4474	0.6137
197.6651	0.6343
197.8828	0.5384
198.1005	0.8626
198.3182	0.6056
198.5358	0.7068
198.7535	0.8128
198.9711	0.5855
199.1888	0.6903
199.4064	0.6671
199.624	0.6055
199.8416	0.5806
200.0592	0.6857
200.2767	0.5988
200.4943	0.6146
200.7119	0.7149
200.9294	0.6499
201.1469	0.6186
201.3645	0.5639
201.582	0.6169
201.7995	0.6501
202.017	0.5909
202.2344	0.6806
202.4519	0.7177
202.6694	0.8724
202.8868	0.6499
203.1042	0.8782
203.3217	0.9619
203.5391	0.7319
203.7565	0.6186
203.9739	0.5987
204.1913	0.6308
204.4086	0.6122
204.626	0.75
204.8433	0.6195
205.0607	0.6935
205.278	0.8756
205.4953	0.763
205.7126	0.7352
205.9299	0.655
206.1472	0.6888
206.3644	0.6729
206.5817	0.6669
206.7989	0.7141
207.0162	0.6315
207.2334	0.6419
207.4506	0.6831
207.6678	0.7074
207.885	0.6449
208.1022	0.6318
208.3194	0.6635
208.5365	0.6373
208.7537	0.696
208.9708	0.609
209.1879	0.609
209.405	0.6902
209.6222	0.6409
209.8392	0.6584
210.0563	0.6018
210.2734	0.6492
210.4905	0.6865
210.7075	0.7178
210.9245	0.6442
211.1416	0.6553
211.3586	0.5874
211.5756	0.5735
211.7926	0.6186
212.0096	0.6542
212.2265	0.5583
212.4435	0.5825
212.6604	0.5056
212.8774	0.5493
213.0943	0.582
213.3112	0.5407
213.5281	0.5698
213.745	0.5187
213.9619	0.5089
214.1788	0.4864
214.3956	0.482
214.6125	0.5158
214.8293	0.5135
215.0461	0.4872
215.2629	0.4911
215.4798	0.4847
215.6965	0.4606
215.9133	0.4685
216.1301	0.4085
216.3469	0.4513
216.5636	0.4225
216.7803	0.3986
216.9971	0.4109
217.2138	0.3911
217.4305	0.3909
217.6472	0.3543
217.8639	0.4054
218.0805	0.3132
218.2972	0.3254
218.5138	0.3029
218.7305	0.3094
218.9471	0.3127
219.1637	0.2973
219.3803	0.2843
219.5969	0.2672
219.8135	0.2387
220.0301	0.2802
220.2466	0.269
220.4632	0.258
220.6797	0.2473
220.8962	0.2466
221.1127	0.2587
221.3292	0.2684
221.5457	0.242
221.7622	0.2484
221.9787	0.2407
222.1951	0.2541
222.4116	0.2479
222.628	0.235
222.8444	0.2532
223.0608	0.2355
223.2772	0.2316
223.4936	0.263
223.71	0.2592
223.9264	0.2704
224.1427	0.2509
224.3591	0.2564
224.5754	0.2787
224.7917	0.2569
225.008	0.268
225.2243	0.2602
225.4406	0.2702
225.6569	0.2695
225.8732	0.2656
226.0894	0.2754
226.3057	0.2714
226.5219	0.2872
226.7381	0.2571
226.9543	0.2864
227.1705	0.2894
227.3867	0.2792
227.6029	0.2758
227.8191	0.3103
228.0352	0.2881
228.2513	0.3176
228.4675	0.2948
228.6836	0.2926
228.8997	0.2901
229.1158	0.31
229.3319	0.3076
229.548	0.2908
229.764	0.3092
229.9801	0.3294
230.1961	0.322
230.4121	0.3353
230.6282	0.336
230.8442	0.3203
231.0602	0.3444
231.2761	0.3754
231.4921	0.3518
231.7081	0.3427
231.924	0.3376
232.14	0.3837
232.3559	0.3261
232.5718	0.3484
232.7877	0.3442
233.0036	0.3339
233.2195	0.3511
233.4353	0.3594
233.6512	0.3535
233.867	0.3499
234.0829	0.3555
234.2987	0.3691
234.5145	0.3603
234.7303	0.3773
234.9461	0.3993
235.1619	0.3716
235.3776	0.3821
235.5934	0.3825
235.8091	0.3675
236.0249	0.3839
236.2406	0.37
236.4563	0.3734
236.672	0.3958
236.8877	0.3868
237.1034	0.396
237.319	0.3842
237.5347	0.3933
237.7503	0.3888
237.966	0.3963
238.1816	0.3987
238.3972	0.403
238.6128	0.4003
238.8284	0.3974
239.0439	0.4093
239.2595	0.3883
239.475	0.4147
239.6906	0.4169
239.9061	0.3896
240.1216	0.3994
240.3371	0.4128
240.5526	0.4133
240.7681	0.4071
240.9836	0.3822
241.199	0.3973
241.4145	0.38
241.6299	0.3904
241.8453	0.3887
242.0607	0.3875
242.2761	0.3631
242.4915	0.3575
242.7069	0.3735
242.9223	0.3645
243.1376	0.3638
243.353	0.3549
243.5683	0.3326
243.7836	0.3334
243.9989	0.3208
244.2142	0.3091
244.4295	0.3135
244.6448	0.3077
244.86	0.3075
245.0753	0.2887
245.2905	0.2911
245.5057	0.2882
245.721	0.2856
245.9362	0.2662
246.1514	0.2656
246.3665	0.2468
246.5817	0.2547
246.7969	0.2395
247.012	0.2496
247.2271	0.2367
247.4423	0.2441
247.6574	0.2312
247.8725	0.2379
248.0876	0.2233
248.3026	0.2181
248.5177	0.2082
248.7328	0.2211
248.9478	0.2046
249.1628	0.2063
249.3779	0.2169
249.5929	0.1978
249.8079	0.2276
250.0228	0.2059
250.2378	0.2054
250.4528	0.1978
250.6677	0.1905
250.8827	0.2053
251.0976	0.1922
251.3125	0.194
251.5274	0.1779
251.7423	0.1888
251.9572	0.1807
252.172	0.1691
252.3869	0.1745
252.6017	0.1846
252.8166	0.1738
253.0314	0.1669
253.2462	0.1725
253.461	0.1809
253.6758	0.1748
253.8906	0.1886
254.1053	0.1647
254.3201	0.1667
254.5348	0.1819
254.7496	0.1692
254.9643	0.1755
255.179	0.1605
255.3937	0.1635
255.6083	0.1735
255.823	0.1804
256.0377	0.1634
256.2523	0.1828
256.467	0.1618
256.6816	0.1806
256.8962	0.1732
257.1108	0.1537
257.3254	0.175
257.54	0.1675
257.7545	0.1569
257.9691	0.1825
258.1836	0.1669
258.3981	0.169
258.6127	0.1811
258.8272	0.1569
259.0417	0.1633
259.2561	0.177
259.4706	0.1692
259.6851	0.1708
259.8995	0.1605
260.114	0.1657
260.3284	0.1604
260.5428	0.1532
260.7572	0.173
260.9716	0.1709
261.186	0.155
261.4003	0.1651
261.6147	0.1707
261.829	0.1693
262.0433	0.1688
262.2577	0.1557
262.472	0.1615
262.6863	0.1444
262.9005	0.1541
263.1148	0.1602
263.3291	0.1477
263.5433	0.1694
263.7576	0.1603
263.9718	0.1619
264.186	0.1585
264.4002	0.1544
264.6144	0.173
264.8286	0.1566
265.0427	0.1646
265.2569	0.152
265.471	0.157
265.6851	0.1553
265.8993	0.1528
266.1134	0.1601
266.3275	0.1545
266.5415	0.1631
266.7556	0.1583
266.9697	0.1578
267.1837	0.16
267.3978	0.1725
267.6118	0.1647
267.8258	0.1821
268.0398	0.1525
268.2538	0.1558
268.4677	0.1621
268.6817	0.1591
268.8957	0.1573
269.1096	0.1662
269.3235	0.1551
269.5374	0.1542
269.7514	0.1488
269.9652	0.15
270.1791	0.144
270.393	0.1376
270.6068	0.1551
270.8207	0.1361
271.0345	0.1381
271.2483	0.159
271.4622	0.1331
271.676	0.1444
271.8897	0.1445
272.1035	0.1467
272.3173	0.1407
272.531	0.1412
272.7448	0.1483
272.9585	0.1295
273.1722	0.1476
273.3859	0.1393
273.5996	0.1348
273.8133	0.1399
274.0269	0.139
274.2406	0.1412
274.4542	0.1417
274.6679	0.1374
274.8815	0.1332
275.0951	0.1481
275.3087	0.1384
275.5223	0.1445
275.7358	0.1578
275.9494	0.1427
276.1629	0.1406
276.3765	0.1328
276.59	0.1442
276.8035	0.14
277.017	0.1413
277.2305	0.1513
277.444	0.1425
277.6574	0.1397
277.8709	0.1488
278.0843	0.1343
278.2978	0.1435
278.5112	0.1418
278.7246	0.1467
278.938	0.1493
279.1513	0.1584
279.3647	0.1602
279.5781	0.1353
279.7914	0.1428
280.0047	0.143
280.2181	0.1475
280.4314	0.1627
280.6447	0.1473
280.8579	0.1444
281.0712	0.1574
281.2845	0.1529
281.4977	0.1466
281.711	0.1381
281.9242	0.1466
282.1374	0.1518
282.3506	0.1396
282.5638	0.154
282.7769	0.1541
282.9901	0.1477
283.2033	0.1694
283.4164	0.1615
283.6295	0.1482
283.8426	0.1573
284.0557	0.1592
284.2688	0.1681
284.4819	0.1531
284.695	0.1615
284.908	0.1612
285.1211	0.1454
285.3341	0.1653
285.5471	0.1575
285.7601	0.1592
285.9731	0.1486
286.1861	0.1503
286.3991	0.157
286.612	0.1671
286.825	0.1628
287.0379	0.1689
287.2508	0.1629
287.4637	0.1626
287.6766	0.1547
287.8895	0.169
288.1024	0.1778
288.3152	0.1596
288.5281	0.1611
288.7409	0.1585
288.9538	0.1515
289.1666	0.1567
289.3794	0.157
289.5922	0.1565
289.8049	0.1637
290.0177	0.1627
290.2304	0.1707
290.4432	0.17
290.6559	0.1519
290.8686	0.1697
291.0813	0.1554
291.294	0.1674
291.5067	0.1688
291.7194	0.1589
291.932	0.1709
292.1447	0.1648
292.3573	0.1503
292.5699	0.1659
292.7825	0.1646
292.9951	0.1606
293.2077	0.1696
293.4203	0.1698
293.6328	0.1607
293.8454	0.1718
294.0579	0.1573
294.2704	0.1544
294.4829	0.1516
294.6954	0.1812
294.9079	0.158
295.1204	0.1725
295.3328	0.1634
295.5453	0.1665
295.7577	0.1768
295.9701	0.1495
296.1825	0.163
296.3949	0.1654
296.6073	0.1668
296.8197	0.1564
297.0321	0.1772
297.2444	0.149
297.4567	0.157
297.6691	0.1633
297.8814	0.1571
298.0937	0.1617
298.306	0.1679
298.5182	0.1642
298.7305	0.1663
298.9428	0.156
299.155	0.1698
299.3672	0.1463
299.5794	0.1654
299.7916	0.1642
300.0038	0.1633
300.216	0.167
300.4282	0.1676
300.6403	0.1609
300.8525	0.175
301.0646	0.1628
301.2767	0.167
301.4888	0.1573
301.7009	0.1588
301.913	0.1706
302.125	0.1692
302.3371	0.1562
302.5491	0.1706
302.7612	0.1639
302.9732	0.1672
303.1852	0.1659
303.3972	0.1591
303.6092	0.1649
303.8211	0.1555
304.0331	0.1598
304.245	0.1521
304.457	0.1541
304.6689	0.1471
304.8808	0.1655
305.0927	0.1581
305.3046	0.1494
305.5164	0.1449
305.7283	0.1471
305.9401	0.1501
306.152	0.1541
306.3638	0.1595
306.5756	0.1463
306.7874	0.1541
306.9992	0.1467
307.2109	0.1449
307.4227	0.1299
307.6344	0.1404
307.8462	0.1338
308.0579	0.1411
308.2696	0.1341
308.4813	0.1336
308.693	0.1283
308.9046	0.1345
309.1163	0.1257
309.328	0.1239
309.5396	0.1283
309.7512	0.124
309.9628	0.1267
310.1744	0.1325
310.386	0.1253
310.5976	0.1114
310.8091	0.1114
311.0207	0.1228
311.2322	0.1176
311.4437	0.112
311.6552	0.1045
311.8667	0.1144
312.0782	0.1018
312.2897	0.0988
312.5012	0.1194
312.7126	0.1132
312.924	0.0978
313.1355	0.1212
313.3469	0.0961
313.5583	0.116
313.7696	0.1018
313.981	0.109
314.1924	0.0969
314.4037	0.0961
314.6151	0.1072
314.8264	0.0975
315.0377	0.0918
315.249	0.093
315.4603	0.1096
315.6716	0.0843
315.8828	0.0892
316.0941	0.1043
316.3053	0.092
316.5165	0.0883
316.7277	0.0829
316.9389	0.1086
317.1501	0.0861
317.3613	0.0953
317.5724	0.085
317.7836	0.0899
317.9947	0.0889
318.2058	0.0974
318.417	0.0827
318.6281	0.0847
318.8391	0.0888
319.0502	0.0965
319.2613	0.1027
319.4723	0.0996
319.6834	0.0986
319.8944	0.0704
320.1054	0.1058
320.3164	0.1022
320.5274	0.0955
320.7383	0.0918
320.9493	0.102
321.1602	0.1089
321.3712	0.0954
321.5821	0.1018
321.793	0.1024
322.0039	0.0826
322.2148	0.1055
322.4257	0.0992
322.6365	0.1061
322.8474	0.1054
323.0582	0.1065
323.269	0.1009
323.4798	0.1003
323.6906	0.0969
323.9014	0.0982
324.1122	0.0975
324.3229	0.0989
324.5337	0.0963
324.7444	0.107
324.9551	0.1028
325.1658	0.1017
325.3765	0.1003
325.5872	0.1005
325.7979	0.0966
326.0085	0.1115
326.2192	0.1128
326.4298	0.1142
326.6404	0.1005
326.851	0.0902
327.0616	0.0883
327.2722	0.1021
327.4828	0.1071
327.6933	0.1073
327.9039	0.0994
328.1144	0.1114
328.3249	0.1011
328.5354	0.0989
328.7459	0.1025
328.9564	0.0925
329.1669	0.0949
329.3773	0.1026
329.5878	0.1023
329.7982	0.0976
330.0086	0.1003
330.219	0.1088
330.4294	0.1023
330.6398	0.099
330.8502	0.0996
331.0605	0.1023
331.2708	0.0963
331.4812	0.1046
331.6915	0.1065
331.9018	0.1114
332.1121	0.0962
332.3224	0.0985
332.5326	0.1088
332.7429	0.1113
332.9531	0.1158
333.1633	0.1112
333.3735	0.1021
333.5837	0.1028
333.7939	0.0942
334.0041	0.1229
334.2143	0.1067
334.4244	0.104
334.6346	0.0898
334.8447	0.1124
335.0548	0.0989
335.2649	0.0945
335.475	0.1055
335.685	0.0979
335.8951	0.1186
336.1051	0.1121
336.3152	0.1205
336.5252	0.1127
336.7352	0.1145
336.9452	0.1143
337.1552	0.1125
337.3652	0.1008
337.5751	0.1021
337.7851	0.1098
337.995	0.1124
338.2049	0.0983
338.4148	0.1
338.6247	0.1182
338.8346	0.103
339.0445	0.1027
339.2543	0.1113
339.4642	0.1213
339.674	0.1095
339.8838	0.1064
340.0936	0.1115
340.3034	0.1158
340.5132	0.1169
340.7229	0.1212
340.9327	0.111
341.1424	0.1099
341.3522	0.1183
341.5619	0.1177
341.7716	0.1303
341.9813	0.1249
342.1909	0.1108
342.4006	0.1256
342.6102	0.1261
342.8199	0.114
343.0295	0.1265
343.2391	0.1239
343.4487	0.1258
343.6583	0.1201
343.8679	0.1335
344.0774	0.1251
344.287	0.1319
344.4965	0.1099
344.706	0.129
344.9155	0.1167
345.125	0.1159
345.3345	0.1237
345.544	0.114
345.7534	0.1248
345.9629	0.1174
346.1723	0.1258
346.3817	0.1226
346.5911	0.1194
346.8005	0.1325
347.0099	0.1191
347.2193	0.1286
347.4286	0.1222
347.638	0.126
347.8473	0.1398
348.0566	0.1298
348.2659	0.1375
348.4752	0.1296
348.6845	0.1193
348.8937	0.1319
349.103	0.1346
349.3122	0.13
349.5214	0.1314
349.7306	0.1342
349.9398	0.1265
350.149	0.142
350.3582	0.1306
350.5674	0.1615
350.7765	0.1443
350.9856	0.1439
351.1948	0.1492
351.4039	0.123
351.613	0.125
351.822	0.1461
352.0311	0.1621
352.2402	0.1395
352.4492	0.1528
352.6582	0.1513
352.8672	0.1385
353.0762	0.1366
353.2852	0.1492
353.4942	0.1336
353.7032	0.1576
353.9121	0.1494
354.1211	0.1544
354.33	0.141
354.5389	0.1442
354.7478	0.1467
354.9567	0.1421
355.1655	0.1382
355.3744	0.1505
355.5833	0.1562
355.7921	0.1734
356.0009	0.1473
356.2097	0.1625
356.4185	0.1531
356.6273	0.1701
356.8361	0.1679
357.0448	0.1501
357.2536	0.1626
357.4623	0.1548
357.671	0.1645
357.8797	0.1663
358.0884	0.1585
358.2971	0.1638
358.5057	0.1626
358.7144	0.1707
358.923	0.1596
359.1316	0.1643
359.3402	0.1638
359.5488	0.1652
359.7574	0.1588
359.966	0.1698
360.1746	0.1827
360.3831	0.1751
360.5916	0.1622
360.8002	0.1624
361.0087	0.1858
361.2172	0.1875
361.4256	0.1664
361.6341	0.1875
361.8426	0.1809
362.051	0.1743
362.2594	0.1853
362.4678	0.1796
362.6762	0.1957
362.8846	0.1817
363.093	0.1865
363.3014	0.1948
363.5097	0.1647
363.718	0.191
363.9264	0.1986
364.1347	0.1874
364.343	0.1866
364.5513	0.2048
364.7595	0.2044
364.9678	0.1812
365.176	0.1957
365.3842	0.1919
365.5925	0.2059
365.8007	0.2009
366.0089	0.1898
366.217	0.1868
366.4252	0.1946
366.6333	0.2032
366.8415	0.195
367.0496	0.1941
367.2577	0.2274
367.4658	0.2221
367.6739	0.2014
367.882	0.2064
368.09	0.1913
368.2981	0.2249
368.5061	0.1903
368.7141	0.2301
368.9221	0.2151
369.1301	0.2141
369.3381	0.2206
369.5461	0.1998
369.754	0.2121
369.962	0.2124
370.1699	0.2037
370.3778	0.2147
370.5857	0.1979
370.7936	0.2319
371.0015	0.2296
371.2093	0.2422
371.4172	0.2319
371.625	0.1999
371.8328	0.2125
372.0406	0.2148
372.2484	0.2266
372.4562	0.2217
372.664	0.225
372.8717	0.235
373.0795	0.2023
373.2872	0.2212
373.4949	0.2261
373.7026	0.2331
373.9103	0.2354
374.118	0.229
374.3256	0.2387
374.5333	0.2044
374.7409	0.229
374.9485	0.2375
375.1561	0.2472
375.3637	0.2356
375.5713	0.2319
375.7789	0.2367
375.9864	0.2279
376.194	0.2229
376.4015	0.2459
376.609	0.2452
376.8165	0.2362
377.024	0.2341
377.2315	0.2316
377.4389	0.2439
377.6464	0.243
377.8538	0.2489
378.0612	0.2525
378.2686	0.2427
378.476	0.2638
378.6834	0.2489
378.8908	0.2369
379.0981	0.2674
379.3055	0.2507
379.5128	0.2399
379.7201	0.2475
379.9274	0.2485
380.1347	0.2462
380.342	0.2522
380.5492	0.2476
380.7565	0.2569
380.9637	0.2573
381.1709	0.2542
381.3781	0.2594
381.5853	0.2681
381.7925	0.2565
381.9997	0.2703
382.2068	0.2591
382.4139	0.2715
382.6211	0.2436
382.8282	0.2552
383.0353	0.2528
383.2424	0.2521
383.4494	0.2519
383.6565	0.259
383.8635	0.2606
384.0706	0.2565
384.2776	0.2643
384.4846	0.246
384.6916	0.259
384.8986	0.2671
385.1055	0.2668
385.3125	0.2663
385.5194	0.2557
385.7263	0.2769
385.9333	0.2454
386.1402	0.2608
386.347	0.2675
386.5539	0.2482
386.7608	0.281
386.9676	0.2435
387.1744	0.2613
387.3813	0.2682
387.5881	0.2592
387.7948	0.2663
388.0016	0.265
388.2084	0.2582
388.4151	0.2466
388.6219	0.2572
388.8286	0.2425
389.0353	0.2768
389.242	0.2565
389.4487	0.2416
389.6553	0.2343
389.862	0.2256
390.0686	0.2362
390.2753	0.2562
390.4819	0.2525
390.6885	0.2282
390.8951	0.2545
391.1016	0.2375
391.3082	0.2346
391.5147	0.2477
391.7213	0.228
391.9278	0.2361
392.1343	0.2285
392.3408	0.2514
392.5473	0.2401
392.7537	0.2313
392.9602	0.2333
393.1666	0.2408
393.373	0.2478
393.5794	0.247
393.7858	0.242
393.9922	0.2172
394.1986	0.2252
394.4049	0.2394
394.6113	0.2083
394.8176	0.217
395.0239	0.2284
395.2302	0.2161
395.4365	0.2134
395.6428	0.2251
395.8491	0.2294
396.0553	0.2383
396.2615	0.2231
396.4678	0.2117
396.674	0.2082
396.8802	0.2316
397.0863	0.2274
397.2925	0.2206
397.4987	0.2123
397.7048	0.2135
397.9109	0.2254
398.117	0.2185
398.3231	0.217
398.5292	0.2124
398.7353	0.2265
398.9413	0.2172
399.1474	0.205
399.3534	0.2042
399.5594	0.184
399.7654	0.226
399.9714	0.2282
400.1774	0.2112
400.3833	0.2143
400.5893	0.225
400.7952	0.2273
401.0011	0.2251
401.207	0.2429
401.4129	0.2159
401.6188	0.2349
401.8247	0.205
402.0305	0.2035
402.2364	0.2195
402.4422	0.2339
402.648	0.2213
402.8538	0.2268
403.0596	0.2132
403.2654	0.2263
403.4711	0.2103
403.6768	0.2286
403.8826	0.2361
404.0883	0.2203
404.294	0.2096
404.4997	0.225
404.7054	0.2223
404.911	0.2235
405.1167	0.2113
405.3223	0.2219
405.5279	0.234
405.7335	0.2269
405.9391	0.2397
406.1447	0.2243
406.3502	0.2253
406.5558	0.2049
406.7613	0.2188
406.9668	0.2222
407.1724	0.2135
407.3778	0.2053
407.5833	0.2059
407.7888	0.2064
407.9942	0.2137
408.1997	0.2033
408.4051	0.2403
408.6105	0.2069
408.8159	0.2151
409.0213	0.1914
409.2267	0.217
409.432	0.2056
409.6374	0.2207
409.8427	0.2239
410.048	0.2209
410.2533	0.2026
410.4586	0.2176
410.6639	0.1845
410.8691	0.1974
411.0744	0.2064
411.2796	0.224
411.4848	0.2089
411.69	0.195
411.8952	0.238
412.1004	0.1912
412.3056	0.2215
412.5107	0.1992
412.7158	0.2376
412.921	0.2171
413.1261	0.218
413.3312	0.2037
413.5362	0.2096
413.7413	0.2129
413.9464	0.2007
414.1514	0.2048
414.3564	0.2083
414.5614	0.1856
414.7664	0.1962
414.9714	0.2227
415.1764	0.2017
415.3813	0.2135
415.5863	0.216
415.7912	0.2196
415.9961	0.2041
416.201	0.2028
416.4059	0.2026
416.6108	0.1936
416.8156	0.2164
417.0205	0.1991
417.2253	0.1837
417.4301	0.2181
417.6349	0.1883
417.8397	0.1975
418.0445	0.2192
418.2492	0.2017
418.454	0.2099
418.6587	0.199
418.8634	0.2041
419.0681	0.1917
419.2728	0.2043
419.4775	0.2014
419.6822	0.1969
419.8868	0.181
420.0915	0.2112
420.2961	0.1833
420.5007	0.1812
420.7053	0.1873
420.9099	0.1939
421.1144	0.2042
421.319	0.1841
421.5235	0.1975
421.728	0.1916
421.9325	0.2117
422.137	0.2196
422.3415	0.1873
422.546	0.1834
422.7504	0.1787
422.9549	0.2097
423.1593	0.206
423.3637	0.2038
423.5681	0.1983
423.7725	0.1727
423.9769	0.1883
424.1812	0.1821
424.3856	0.181
424.5899	0.1835
424.7942	0.172
424.9985	0.1899
425.2028	0.1694
425.4071	0.189
425.6113	0.1612
425.8156	0.1784
426.0198	0.1978
426.224	0.1644
426.4282	0.1638
426.6324	0.1651
