Data from MonoPyChalIsomerACN10uM440nmA_Absorbance_15-27-16-794.txt Node
Date: Fri Jul 05 15:27:16 BST 2024
User: LASERRRRR
Spectrometer: FLMT03099
Trigger mode: 0
Integration Time (sec): 1.000000E-1
Scans to average: 1
Electric dark correction enabled: true
Nonlinearity correction enabled: false
Boxcar width: 0
XAxis mode: Wavelengths
Number of Pixels in Spectrum: 3648
>>>>>Begin Spectral Data<<<<<
179.3399	-0.2968
179.5586	-0.2968
179.7771	-0.2968
179.9957	-0.0327
180.2143	-0
180.4329	-0.3053
180.6514	0.144
180.8699	-0
181.0885	0.0739
181.307	0.8009
181.5255	-1.0537
181.744	-0.6151
181.9625	-0
182.181	-0.6103
182.3994	0.0983
182.6179	0.3443
182.8363	0.1285
183.0547	-0.1669
183.2732	0.0262
183.4916	0.215
183.71	0.1123
183.9284	0.2238
184.1467	-0.0347
184.3651	-0.0394
184.5835	0.0863
184.8018	0.1507
185.0201	0.4612
185.2385	0.0391
185.4568	-0.0031
185.6751	0.1138
185.8934	0.2638
186.1117	0.0791
186.3299	0.0434
186.5482	0.4712
186.7664	0.1548
186.9847	-0.0891
187.2029	0.1251
187.4211	0.1986
187.6393	0.2535
187.8575	0.1253
188.0757	0.4375
188.2939	0.1895
188.512	0.2174
188.7302	0.0388
188.9483	0.2226
189.1665	0.1535
189.3846	0.1386
189.6027	0.1724
189.8208	0.211
190.0389	0.0915
190.257	0.5331
190.475	0.2029
190.6931	0.2042
190.9111	0.2532
191.1292	0.1205
191.3472	0.5586
191.5652	0.339
191.7832	0.2383
192.0012	0.6352
192.2192	0.4531
192.4371	0.5248
192.6551	0.4848
192.873	0.3245
193.091	0.4033
193.3089	0.5768
193.5268	0.5683
193.7447	0.5172
193.9626	0.657
194.1805	0.8692
194.3984	0.7745
194.6162	0.6862
194.8341	0.6531
195.0519	0.6678
195.2697	0.8899
195.4875	0.7375
195.7054	0.7163
195.9231	0.5175
196.1409	0.7238
196.3587	0.7298
196.5765	0.6138
196.7942	0.6633
197.012	0.519
197.2297	0.7424
197.4474	0.8786
197.6651	0.6751
197.8828	0.5914
198.1005	0.7418
198.3182	0.717
198.5358	0.8483
198.7535	0.7255
198.9711	0.5698
199.1888	0.6511
199.4064	0.9454
199.624	0.5558
199.8416	0.534
200.0592	0.7578
200.2767	0.81
200.4943	0.9664
200.7119	0.9028
200.9294	0.5637
201.1469	0.8051
201.3645	0.6715
201.582	0.5276
201.7995	0.7375
202.017	0.5597
202.2344	0.5957
202.4519	0.6945
202.6694	0.6319
202.8868	0.6693
203.1042	0.7971
203.3217	0.7181
203.5391	0.7821
203.7565	0.6788
203.9739	0.6569
204.1913	0.6602
204.4086	0.8369
204.626	0.6776
204.8433	0.7633
205.0607	0.7273
205.278	0.7917
205.4953	0.7033
205.7126	0.6816
205.9299	0.727
206.1472	0.7294
206.3644	0.732
206.5817	0.7732
206.7989	0.7099
207.0162	0.6589
207.2334	0.7177
207.4506	0.6614
207.6678	0.5633
207.885	0.68
208.1022	0.721
208.3194	0.6699
208.5365	0.6781
208.7537	0.6387
208.9708	0.6289
209.1879	0.6471
209.405	0.7246
209.6222	0.7636
209.8392	0.7125
210.0563	0.6843
210.2734	0.6662
210.4905	0.7247
210.7075	0.6814
210.9245	0.6362
211.1416	0.7411
211.3586	0.6285
211.5756	0.6032
211.7926	0.6376
212.0096	0.6369
212.2265	0.5476
212.4435	0.5584
212.6604	0.6227
212.8774	0.6175
213.0943	0.6101
213.3112	0.5669
213.5281	0.537
213.745	0.496
213.9619	0.5441
214.1788	0.5345
214.3956	0.4819
214.6125	0.4825
214.8293	0.4554
215.0461	0.4977
215.2629	0.4442
215.4798	0.4891
215.6965	0.4188
215.9133	0.4901
216.1301	0.4256
216.3469	0.4614
216.5636	0.4434
216.7803	0.3955
216.9971	0.396
217.2138	0.4024
217.4305	0.3747
217.6472	0.3706
217.8639	0.4122
218.0805	0.3463
218.2972	0.3258
218.5138	0.3134
218.7305	0.3372
218.9471	0.3326
219.1637	0.3195
219.3803	0.2778
219.5969	0.2763
219.8135	0.2581
220.0301	0.2486
220.2466	0.2589
220.4632	0.2595
220.6797	0.228
220.8962	0.2441
221.1127	0.2685
221.3292	0.259
221.5457	0.2333
221.7622	0.2312
221.9787	0.2388
222.1951	0.2365
222.4116	0.2601
222.628	0.2497
222.8444	0.2494
223.0608	0.2465
223.2772	0.2532
223.4936	0.2645
223.71	0.2607
223.9264	0.2661
224.1427	0.2479
224.3591	0.2419
224.5754	0.2703
224.7917	0.2699
225.008	0.2841
225.2243	0.2582
225.4406	0.2974
225.6569	0.2392
225.8732	0.2667
226.0894	0.2463
226.3057	0.2646
226.5219	0.2694
226.7381	0.2761
226.9543	0.278
227.1705	0.2833
227.3867	0.2823
227.6029	0.2869
227.8191	0.3018
228.0352	0.2797
228.2513	0.293
228.4675	0.3168
228.6836	0.2952
228.8997	0.2779
229.1158	0.3182
229.3319	0.3084
229.548	0.303
229.764	0.3285
229.9801	0.3176
230.1961	0.3275
230.4121	0.3181
230.6282	0.3357
230.8442	0.3274
231.0602	0.3566
231.2761	0.3589
231.4921	0.3278
231.7081	0.3552
231.924	0.3444
232.14	0.3463
232.3559	0.3213
232.5718	0.3769
232.7877	0.3553
233.0036	0.3446
233.2195	0.3669
233.4353	0.3602
233.6512	0.3583
233.867	0.3651
234.0829	0.3622
234.2987	0.3709
234.5145	0.3844
234.7303	0.3705
234.9461	0.359
235.1619	0.3748
235.3776	0.3939
235.5934	0.3853
235.8091	0.3627
236.0249	0.3603
236.2406	0.374
236.4563	0.3802
236.672	0.4016
236.8877	0.4031
237.1034	0.3876
237.319	0.3816
237.5347	0.4111
237.7503	0.3987
237.966	0.4054
238.1816	0.401
238.3972	0.407
238.6128	0.3969
238.8284	0.4016
239.0439	0.4043
239.2595	0.4059
239.475	0.4018
239.6906	0.4
239.9061	0.4025
240.1216	0.3873
240.3371	0.4044
240.5526	0.3897
240.7681	0.4056
240.9836	0.3936
241.199	0.4014
241.4145	0.3665
241.6299	0.3881
241.8453	0.3889
242.0607	0.3761
242.2761	0.3741
242.4915	0.3747
242.7069	0.3678
242.9223	0.3428
243.1376	0.3611
243.353	0.346
243.5683	0.3709
243.7836	0.3168
243.9989	0.3139
244.2142	0.3199
244.4295	0.312
244.6448	0.3248
244.86	0.3129
245.0753	0.2832
245.2905	0.2855
245.5057	0.2747
245.721	0.2759
245.9362	0.2738
246.1514	0.2841
246.3665	0.2682
246.5817	0.257
246.7969	0.2547
247.012	0.2491
247.2271	0.2402
247.4423	0.2441
247.6574	0.2487
247.8725	0.2274
248.0876	0.2346
248.3026	0.2189
248.5177	0.2195
248.7328	0.2163
248.9478	0.1984
249.1628	0.2259
249.3779	0.2374
249.5929	0.2051
249.8079	0.2354
250.0228	0.1964
250.2378	0.1965
250.4528	0.1943
250.6677	0.1846
250.8827	0.1994
251.0976	0.1962
251.3125	0.1877
251.5274	0.1646
251.7423	0.1811
251.9572	0.1894
252.172	0.184
252.3869	0.1729
252.6017	0.1776
252.8166	0.1574
253.0314	0.1687
253.2462	0.1661
253.461	0.1844
253.6758	0.1798
253.8906	0.1859
254.1053	0.1631
254.3201	0.17
254.5348	0.1694
254.7496	0.187
254.9643	0.1608
255.179	0.1698
255.3937	0.1664
255.6083	0.1602
255.823	0.1714
256.0377	0.1684
256.2523	0.1728
256.467	0.1452
256.6816	0.1736
256.8962	0.1658
257.1108	0.1696
257.3254	0.177
257.54	0.1685
257.7545	0.1854
257.9691	0.1687
258.1836	0.1586
258.3981	0.1641
258.6127	0.1764
258.8272	0.1695
259.0417	0.1821
259.2561	0.1674
259.4706	0.1738
259.6851	0.1662
259.8995	0.1595
260.114	0.1682
260.3284	0.1728
260.5428	0.1676
260.7572	0.1598
260.9716	0.173
261.186	0.1593
261.4003	0.1548
261.6147	0.1701
261.829	0.1633
262.0433	0.1626
262.2577	0.1695
262.472	0.1669
262.6863	0.1646
262.9005	0.1576
263.1148	0.178
263.3291	0.1505
263.5433	0.164
263.7576	0.1727
263.9718	0.1575
264.186	0.1741
264.4002	0.1563
264.6144	0.1601
264.8286	0.1724
265.0427	0.161
265.2569	0.1685
265.471	0.1632
265.6851	0.1562
265.8993	0.1655
266.1134	0.1519
266.3275	0.1604
266.5415	0.1646
266.7556	0.1706
266.9697	0.1624
267.1837	0.1776
267.3978	0.1612
267.6118	0.1694
267.8258	0.179
268.0398	0.1572
268.2538	0.1651
268.4677	0.1614
268.6817	0.1688
268.8957	0.1566
269.1096	0.167
269.3235	0.1772
269.5374	0.1571
269.7514	0.1576
269.9652	0.158
270.1791	0.1495
270.393	0.1545
270.6068	0.1643
270.8207	0.1454
271.0345	0.1483
271.2483	0.1521
271.4622	0.1442
271.676	0.1568
271.8897	0.1444
272.1035	0.1485
272.3173	0.1406
272.531	0.1645
272.7448	0.1405
272.9585	0.1303
273.1722	0.1508
273.3859	0.1658
273.5996	0.1332
273.8133	0.146
274.0269	0.1394
274.2406	0.1395
274.4542	0.1483
274.6679	0.1387
274.8815	0.1434
275.0951	0.1522
275.3087	0.1549
275.5223	0.1579
275.7358	0.1564
275.9494	0.1532
276.1629	0.1353
276.3765	0.1428
276.59	0.1529
276.8035	0.1633
277.017	0.1518
277.2305	0.1419
277.444	0.1484
277.6574	0.1457
277.8709	0.1564
278.0843	0.1455
278.2978	0.1618
278.5112	0.1453
278.7246	0.1511
278.938	0.1541
279.1513	0.1529
279.3647	0.1611
279.5781	0.1502
279.7914	0.1541
280.0047	0.1532
280.2181	0.1543
280.4314	0.1462
280.6447	0.1606
280.8579	0.1523
281.0712	0.1708
281.2845	0.1638
281.4977	0.1534
281.711	0.1436
281.9242	0.151
282.1374	0.1533
282.3506	0.1481
282.5638	0.1602
282.7769	0.1583
282.9901	0.1489
283.2033	0.1662
283.4164	0.1677
283.6295	0.1631
283.8426	0.1519
284.0557	0.153
284.2688	0.166
284.4819	0.1647
284.695	0.1617
284.908	0.1748
285.1211	0.1573
285.3341	0.1729
285.5471	0.1492
285.7601	0.1565
285.9731	0.148
286.1861	0.1585
286.3991	0.1623
286.612	0.1711
286.825	0.1616
287.0379	0.153
287.2508	0.1639
287.4637	0.1635
287.6766	0.143
287.8895	0.1725
288.1024	0.1754
288.3152	0.1701
288.5281	0.1483
288.7409	0.161
288.9538	0.1669
289.1666	0.1606
289.3794	0.1612
289.5922	0.1664
289.8049	0.1576
290.0177	0.157
290.2304	0.1629
290.4432	0.1625
290.6559	0.159
290.8686	0.1625
291.0813	0.1613
291.294	0.1624
291.5067	0.1663
291.7194	0.1573
291.932	0.1685
292.1447	0.1636
292.3573	0.1489
292.5699	0.1731
292.7825	0.1656
292.9951	0.1632
293.2077	0.1622
293.4203	0.16
293.6328	0.1501
293.8454	0.165
294.0579	0.162
294.2704	0.1564
294.4829	0.1438
294.6954	0.1601
294.9079	0.159
295.1204	0.1641
295.3328	0.1508
295.5453	0.1564
295.7577	0.1638
295.9701	0.1505
296.1825	0.1574
296.3949	0.1519
296.6073	0.1547
296.8197	0.1454
297.0321	0.1647
297.2444	0.1512
297.4567	0.1612
297.6691	0.1663
297.8814	0.1474
298.0937	0.151
298.306	0.1562
298.5182	0.1569
298.7305	0.164
298.9428	0.1559
299.155	0.1529
299.3672	0.1631
299.5794	0.1438
299.7916	0.157
300.0038	0.1579
300.216	0.1566
300.4282	0.1501
300.6403	0.1463
300.8525	0.1588
301.0646	0.1544
301.2767	0.159
301.4888	0.1581
301.7009	0.1558
301.913	0.1581
302.125	0.1575
302.3371	0.1546
302.5491	0.1569
302.7612	0.1584
302.9732	0.1622
303.1852	0.1603
303.3972	0.161
303.6092	0.1553
303.8211	0.149
304.0331	0.1463
304.245	0.1318
304.457	0.1447
304.6689	0.1492
304.8808	0.1603
305.0927	0.1481
305.3046	0.1479
305.5164	0.1533
305.7283	0.1474
305.9401	0.1434
306.152	0.1422
306.3638	0.1464
306.5756	0.1443
306.7874	0.1385
306.9992	0.1498
307.2109	0.1433
307.4227	0.135
307.6344	0.1404
307.8462	0.1339
308.0579	0.1387
308.2696	0.1218
308.4813	0.1209
308.693	0.1332
308.9046	0.136
309.1163	0.1226
309.328	0.1277
309.5396	0.1276
309.7512	0.1217
309.9628	0.1216
310.1744	0.1156
310.386	0.132
310.5976	0.1215
310.8091	0.12
311.0207	0.109
311.2322	0.1237
311.4437	0.1059
311.6552	0.1162
311.8667	0.1215
312.0782	0.1025
312.2897	0.1032
312.5012	0.1102
312.7126	0.1085
312.924	0.1037
313.1355	0.1215
313.3469	0.106
313.5583	0.1026
313.7696	0.1102
313.981	0.1094
314.1924	0.1058
314.4037	0.1089
314.6151	0.1079
314.8264	0.1058
315.0377	0.0956
315.249	0.1032
315.4603	0.1136
315.6716	0.1029
315.8828	0.0988
316.0941	0.1137
316.3053	0.1004
316.5165	0.1011
316.7277	0.0893
316.9389	0.1091
317.1501	0.0925
317.3613	0.1069
317.5724	0.0967
317.7836	0.1064
317.9947	0.105
318.2058	0.106
318.417	0.0906
318.6281	0.0916
318.8391	0.0969
319.0502	0.1038
319.2613	0.0892
319.4723	0.1082
319.6834	0.1069
319.8944	0.0968
320.1054	0.1036
320.3164	0.1069
320.5274	0.1029
320.7383	0.093
320.9493	0.1051
321.1602	0.1124
321.3712	0.0851
321.5821	0.1042
321.793	0.1035
322.0039	0.1031
322.2148	0.1006
322.4257	0.0955
322.6365	0.1161
322.8474	0.1091
323.0582	0.1034
323.269	0.0929
323.4798	0.1018
323.6906	0.1057
323.9014	0.1097
324.1122	0.1134
324.3229	0.1059
324.5337	0.1047
324.7444	0.093
324.9551	0.116
325.1658	0.112
325.3765	0.1119
325.5872	0.107
325.7979	0.1029
326.0085	0.1042
326.2192	0.1179
326.4298	0.1023
326.6404	0.0976
326.851	0.1003
327.0616	0.1028
327.2722	0.0974
327.4828	0.1067
327.6933	0.105
327.9039	0.1033
328.1144	0.1121
328.3249	0.1152
328.5354	0.1133
328.7459	0.1026
328.9564	0.1043
329.1669	0.1058
329.3773	0.1144
329.5878	0.1042
329.7982	0.1056
330.0086	0.1117
330.219	0.109
330.4294	0.1055
330.6398	0.1066
330.8502	0.0908
331.0605	0.1167
331.2708	0.1111
331.4812	0.1111
331.6915	0.1088
331.9018	0.1147
332.1121	0.1114
332.3224	0.1074
332.5326	0.1277
332.7429	0.1045
332.9531	0.1171
333.1633	0.1129
333.3735	0.1013
333.5837	0.1097
333.7939	0.0996
334.0041	0.1212
334.2143	0.1198
334.4244	0.1018
334.6346	0.0947
334.8447	0.1157
335.0548	0.1111
335.2649	0.1069
335.475	0.1186
335.685	0.1199
335.8951	0.1212
336.1051	0.12
336.3152	0.1041
336.5252	0.1123
336.7352	0.1222
336.9452	0.1143
337.1552	0.114
337.3652	0.1148
337.5751	0.1122
337.7851	0.1156
337.995	0.1111
338.2049	0.1227
338.4148	0.1167
338.6247	0.1188
338.8346	0.1011
339.0445	0.1119
339.2543	0.1044
339.4642	0.1183
339.674	0.1141
339.8838	0.1129
340.0936	0.1182
340.3034	0.1213
340.5132	0.1201
340.7229	0.1235
340.9327	0.1143
341.1424	0.1101
341.3522	0.1406
341.5619	0.1327
341.7716	0.1245
341.9813	0.1377
342.1909	0.1213
342.4006	0.1344
342.6102	0.1419
342.8199	0.133
343.0295	0.1253
343.2391	0.1312
343.4487	0.1257
343.6583	0.1179
343.8679	0.1338
344.0774	0.1284
344.287	0.1322
344.4965	0.1232
344.706	0.1276
344.9155	0.1267
345.125	0.1316
345.3345	0.1449
345.544	0.1336
345.7534	0.1298
345.9629	0.1242
346.1723	0.1347
346.3817	0.1311
346.5911	0.1241
346.8005	0.1338
347.0099	0.1373
347.2193	0.1474
347.4286	0.1315
347.638	0.1403
347.8473	0.1524
348.0566	0.1483
348.2659	0.1449
348.4752	0.1424
348.6845	0.1237
348.8937	0.1327
349.103	0.139
349.3122	0.1256
349.5214	0.1379
349.7306	0.1424
349.9398	0.1368
350.149	0.15
350.3582	0.1315
350.5674	0.1548
350.7765	0.1449
350.9856	0.1498
351.1948	0.1534
351.4039	0.1357
351.613	0.1351
351.822	0.1553
352.0311	0.1477
352.2402	0.1539
352.4492	0.1513
352.6582	0.164
352.8672	0.1497
353.0762	0.1473
353.2852	0.1401
353.4942	0.1421
353.7032	0.1487
353.9121	0.1391
354.1211	0.1383
354.33	0.1577
354.5389	0.1549
354.7478	0.164
354.9567	0.167
355.1655	0.1509
355.3744	0.1458
355.5833	0.1517
355.7921	0.1653
356.0009	0.1612
356.2097	0.1681
356.4185	0.169
356.6273	0.1662
356.8361	0.1735
357.0448	0.1634
357.2536	0.1578
357.4623	0.1528
357.671	0.1688
357.8797	0.1625
358.0884	0.1742
358.2971	0.1658
358.5057	0.1629
358.7144	0.1742
358.923	0.1774
359.1316	0.1717
359.3402	0.1749
359.5488	0.173
359.7574	0.1693
359.966	0.1802
360.1746	0.1872
360.3831	0.1697
360.5916	0.174
360.8002	0.1626
361.0087	0.1748
361.2172	0.1773
361.4256	0.1821
361.6341	0.1945
361.8426	0.1892
362.051	0.1815
362.2594	0.1711
362.4678	0.1758
362.6762	0.1923
362.8846	0.184
363.093	0.1889
363.3014	0.1796
363.5097	0.1706
363.718	0.1854
363.9264	0.1874
364.1347	0.1944
364.343	0.2002
364.5513	0.1963
364.7595	0.2004
364.9678	0.195
365.176	0.2018
365.3842	0.2009
365.5925	0.2051
365.8007	0.1984
366.0089	0.2
366.217	0.1895
366.4252	0.2068
366.6333	0.2141
366.8415	0.1994
367.0496	0.1978
367.2577	0.2052
367.4658	0.2209
367.6739	0.2019
367.882	0.2263
368.09	0.1894
368.2981	0.2096
368.5061	0.1983
368.7141	0.2056
368.9221	0.2206
369.1301	0.2018
369.3381	0.203
369.5461	0.2028
369.754	0.1979
369.962	0.214
370.1699	0.2222
370.3778	0.2111
370.5857	0.199
370.7936	0.2006
371.0015	0.2075
371.2093	0.2241
371.4172	0.2145
371.625	0.1993
371.8328	0.2139
372.0406	0.2193
372.2484	0.2093
372.4562	0.221
372.664	0.204
372.8717	0.2281
373.0795	0.2059
373.2872	0.21
373.4949	0.2087
373.7026	0.215
373.9103	0.2277
374.118	0.236
374.3256	0.2202
374.5333	0.2109
374.7409	0.2294
374.9485	0.2247
375.1561	0.21
375.3637	0.2264
375.5713	0.2264
375.7789	0.2339
375.9864	0.2296
376.194	0.2244
376.4015	0.2324
376.609	0.2413
376.8165	0.2391
377.024	0.232
377.2315	0.2286
377.4389	0.2389
377.6464	0.2321
377.8538	0.2545
378.0612	0.2186
378.2686	0.2416
378.476	0.2487
378.6834	0.2343
378.8908	0.2367
379.0981	0.2426
379.3055	0.2444
379.5128	0.2283
379.7201	0.2387
379.9274	0.2313
380.1347	0.2442
380.342	0.2582
380.5492	0.2527
380.7565	0.2347
380.9637	0.2389
381.1709	0.2409
381.3781	0.2441
381.5853	0.2498
381.7925	0.2504
381.9997	0.2434
382.2068	0.2493
382.4139	0.239
382.6211	0.2311
382.8282	0.2251
383.0353	0.2365
383.2424	0.2408
383.4494	0.2595
383.6565	0.2357
383.8635	0.2439
384.0706	0.2499
384.2776	0.2419
384.4846	0.2467
384.6916	0.2346
384.8986	0.2531
385.1055	0.2389
385.3125	0.2395
385.5194	0.2365
385.7263	0.2729
385.9333	0.2473
386.1402	0.2531
386.347	0.2389
386.5539	0.2372
386.7608	0.2551
386.9676	0.2262
387.1744	0.2326
387.3813	0.2497
387.5881	0.2498
387.7948	0.2379
388.0016	0.2325
388.2084	0.2504
388.4151	0.226
388.6219	0.2369
388.8286	0.2386
389.0353	0.2575
389.242	0.2441
389.4487	0.2336
389.6553	0.2264
389.862	0.2165
390.0686	0.24
390.2753	0.2434
390.4819	0.2335
390.6885	0.2257
390.8951	0.2521
391.1016	0.2164
391.3082	0.2425
391.5147	0.2421
391.7213	0.2428
391.9278	0.2131
392.1343	0.2335
392.3408	0.2216
392.5473	0.2114
392.7537	0.2134
392.9602	0.2077
393.1666	0.2047
393.373	0.2119
393.5794	0.2231
393.7858	0.2288
393.9922	0.2086
394.1986	0.2298
394.4049	0.2111
394.6113	0.2036
394.8176	0.1926
395.0239	0.2244
395.2302	0.2097
395.4365	0.2053
395.6428	0.2083
395.8491	0.2107
396.0553	0.2166
396.2615	0.204
396.4678	0.2099
396.674	0.1982
396.8802	0.2095
397.0863	0.2142
397.2925	0.1915
397.4987	0.1941
397.7048	0.2027
397.9109	0.2074
398.117	0.1952
398.3231	0.1935
398.5292	0.2123
398.7353	0.2068
398.9413	0.2027
399.1474	0.201
399.3534	0.2021
399.5594	0.1922
399.7654	0.208
399.9714	0.2163
400.1774	0.2071
400.3833	0.1984
400.5893	0.202
400.7952	0.2066
401.0011	0.2105
401.207	0.2034
401.4129	0.2042
401.6188	0.202
401.8247	0.1984
402.0305	0.1934
402.2364	0.214
402.4422	0.2019
402.648	0.2078
402.8538	0.2145
403.0596	0.1914
403.2654	0.2128
403.4711	0.2032
403.6768	0.1956
403.8826	0.2067
404.0883	0.2116
404.294	0.2032
404.4997	0.2039
404.7054	0.2031
404.911	0.1832
405.1167	0.2046
405.3223	0.2043
405.5279	0.1967
405.7335	0.2152
405.9391	0.2076
406.1447	0.2084
406.3502	0.219
406.5558	0.2037
406.7613	0.2093
406.9668	0.1947
407.1724	0.1772
407.3778	0.1918
407.5833	0.1991
407.7888	0.1885
407.9942	0.2102
408.1997	0.198
408.4051	0.1997
408.6105	0.2108
408.8159	0.1968
409.0213	0.2032
409.2267	0.2267
409.432	0.2078
409.6374	0.2034
409.8427	0.2069
410.048	0.1905
410.2533	0.1996
410.4586	0.2024
410.6639	0.1705
410.8691	0.1848
411.0744	0.2064
411.2796	0.1866
411.4848	0.2089
411.69	0.1957
411.8952	0.2082
412.1004	0.1966
412.3056	0.1876
412.5107	0.1949
412.7158	0.2121
412.921	0.2056
413.1261	0.1944
413.3312	0.1942
413.5362	0.1955
413.7413	0.183
413.9464	0.1887
414.1514	0.1966
414.3564	0.1979
414.5614	0.174
414.7664	0.1971
414.9714	0.199
415.1764	0.2009
415.3813	0.196
415.5863	0.1887
415.7912	0.1907
415.9961	0.1938
416.201	0.2001
416.4059	0.2067
416.6108	0.1982
416.8156	0.1905
417.0205	0.1937
417.2253	0.1663
417.4301	0.1912
417.6349	0.1876
417.8397	0.1868
418.0445	0.1919
418.2492	0.185
418.454	0.2158
418.6587	0.1902
418.8634	0.182
419.0681	0.1615
419.2728	0.1855
419.4775	0.1981
419.6822	0.1859
419.8868	0.1627
420.0915	0.1843
420.2961	0.178
420.5007	0.1537
420.7053	0.1842
420.9099	0.1892
421.1144	0.1797
421.319	0.1768
421.5235	0.192
421.728	0.1726
421.9325	0.1856
422.137	0.1907
422.3415	0.1737
422.546	0.1683
422.7504	0.1826
422.9549	0.1892
423.1593	0.167
423.3637	0.1845
423.5681	0.1791
423.7725	0.1469
423.9769	0.171
424.1812	0.1684
424.3856	0.1786
424.5899	0.1708
424.7942	0.1556
424.9985	0.1751
425.2028	0.1676
425.4071	0.1878
425.6113	0.1614
425.8156	0.1717
426.0198	0.1673
426.224	0.1537
426.4282	0.1609
426.6324	0.1577
