Data from MonoPyChalIsomerACN10uM440nmA_Absorbance_15-27-11-194.txt Node
Date: Fri Jul 05 15:27:11 BST 2024
User: LASERRRRR
Spectrometer: FLMT03099
Trigger mode: 0
Integration Time (sec): 1.000000E-1
Scans to average: 1
Electric dark correction enabled: true
Nonlinearity correction enabled: false
Boxcar width: 0
XAxis mode: Wavelengths
Number of Pixels in Spectrum: 3648
>>>>>Begin Spectral Data<<<<<
179.3399	-0.3587
179.5586	-0.3587
179.7771	-0.3587
179.9957	-0.0167
180.2143	-0.0958
180.4329	0.0206
180.6514	-0
180.8699	-0
181.0885	1.1737
181.307	0.0693
181.5255	-0
181.744	-0.5271
181.9625	-0
182.181	-0
182.3994	-0
182.6179	-0
182.8363	0.0242
183.0547	0.2096
183.2732	0.0946
183.4916	0.2285
183.71	0.1539
183.9284	0.4325
184.1467	-0.1929
184.3651	-0.1955
184.5835	0.0854
184.8018	0.0756
185.0201	-0.004
185.2385	-0.1561
185.4568	0.2087
185.6751	0.3847
185.8934	0.1098
186.1117	0.2018
186.3299	0.1519
186.5482	0.155
186.7664	-0.053
186.9847	-0.0083
187.2029	-0.04
187.4211	0.0959
187.6393	0.1365
187.8575	-0.0222
188.0757	0.3842
188.2939	0.1806
188.512	0.0095
188.7302	0.6398
188.9483	0.3021
189.1665	0.1705
189.3846	0.1357
189.6027	0.2948
189.8208	0.472
190.0389	0.3412
190.257	0.3075
190.475	0.2519
190.6931	0.2034
190.9111	0.6325
191.1292	0.0785
191.3472	0.4735
191.5652	0.2571
191.7832	0.233
192.0012	0.6929
192.2192	0.5096
192.4371	0.4306
192.6551	0.5744
192.873	0.3732
193.091	0.407
193.3089	0.9461
193.5268	0.6862
193.7447	0.6175
193.9626	0.4496
194.1805	0.4846
194.3984	1.1596
194.6162	0.6375
194.8341	0.6108
195.0519	0.5956
195.2697	0.7913
195.4875	0.7112
195.7054	0.6991
195.9231	0.6591
196.1409	0.6022
196.3587	0.4533
196.5765	0.6283
196.7942	0.7783
197.012	0.5185
197.2297	0.7581
197.4474	1.1484
197.6651	0.7055
197.8828	0.5073
198.1005	0.6552
198.3182	0.655
198.5358	0.7453
198.7535	0.632
198.9711	0.5354
199.1888	0.6444
199.4064	0.7124
199.624	0.7115
199.8416	0.6287
200.0592	0.6814
200.2767	0.8411
200.4943	0.6193
200.7119	0.6582
200.9294	0.7382
201.1469	0.6257
201.3645	0.5592
201.582	0.5694
201.7995	0.6861
202.017	0.6928
202.2344	0.5462
202.4519	0.7805
202.6694	0.8893
202.8868	0.6493
203.1042	0.8293
203.3217	0.7059
203.5391	0.601
203.7565	0.7082
203.9739	0.6369
204.1913	0.6065
204.4086	0.7071
204.626	0.6862
204.8433	0.6612
205.0607	0.6141
205.278	0.6724
205.4953	0.7252
205.7126	0.7496
205.9299	0.8918
206.1472	0.7474
206.3644	0.6259
206.5817	0.7119
206.7989	0.7479
207.0162	0.6196
207.2334	0.6966
207.4506	0.6374
207.6678	0.6875
207.885	0.6608
208.1022	0.7452
208.3194	0.704
208.5365	0.6672
208.7537	0.6636
208.9708	0.62
209.1879	0.6582
209.405	0.6787
209.6222	0.7423
209.8392	0.6363
210.0563	0.6478
210.2734	0.6398
210.4905	0.6582
210.7075	0.6844
210.9245	0.6106
211.1416	0.6974
211.3586	0.6813
211.5756	0.6324
211.7926	0.6519
212.0096	0.6512
212.2265	0.5858
212.4435	0.6101
212.6604	0.6488
212.8774	0.5953
213.0943	0.6815
213.3112	0.5618
213.5281	0.5416
213.745	0.5088
213.9619	0.554
214.1788	0.5136
214.3956	0.4617
214.6125	0.475
214.8293	0.4605
215.0461	0.4894
215.2629	0.4523
215.4798	0.4853
215.6965	0.4447
215.9133	0.4683
216.1301	0.4359
216.3469	0.4682
216.5636	0.4611
216.7803	0.4009
216.9971	0.4475
217.2138	0.3892
217.4305	0.3676
217.6472	0.369
217.8639	0.4109
218.0805	0.3396
218.2972	0.3216
218.5138	0.3236
218.7305	0.3513
218.9471	0.3052
219.1637	0.2941
219.3803	0.2971
219.5969	0.2874
219.8135	0.2382
220.0301	0.2738
220.2466	0.2826
220.4632	0.2385
220.6797	0.2389
220.8962	0.2441
221.1127	0.2514
221.3292	0.2447
221.5457	0.2274
221.7622	0.2363
221.9787	0.2645
222.1951	0.248
222.4116	0.2758
222.628	0.2433
222.8444	0.2578
223.0608	0.2529
223.2772	0.2434
223.4936	0.2651
223.71	0.2542
223.9264	0.2633
224.1427	0.2461
224.3591	0.2457
224.5754	0.2826
224.7917	0.2829
225.008	0.2486
225.2243	0.2437
225.4406	0.2835
225.6569	0.2735
225.8732	0.2343
226.0894	0.2568
226.3057	0.2672
226.5219	0.2798
226.7381	0.2687
226.9543	0.2746
227.1705	0.2913
227.3867	0.2869
227.6029	0.295
227.8191	0.2871
228.0352	0.2691
228.2513	0.2935
228.4675	0.295
228.6836	0.2974
228.8997	0.3141
229.1158	0.3116
229.3319	0.3197
229.548	0.3127
229.764	0.3114
229.9801	0.3256
230.1961	0.3264
230.4121	0.3261
230.6282	0.3177
230.8442	0.3162
231.0602	0.3489
231.2761	0.3595
231.4921	0.3457
231.7081	0.3424
231.924	0.3413
232.14	0.3578
232.3559	0.3325
232.5718	0.3642
232.7877	0.3647
233.0036	0.3393
233.2195	0.3518
233.4353	0.3501
233.6512	0.371
233.867	0.3724
234.0829	0.3592
234.2987	0.3709
234.5145	0.3835
234.7303	0.3737
234.9461	0.3862
235.1619	0.3857
235.3776	0.3916
235.5934	0.392
235.8091	0.3655
236.0249	0.3631
236.2406	0.394
236.4563	0.3852
236.672	0.396
236.8877	0.4077
237.1034	0.3992
237.319	0.3936
237.5347	0.4022
237.7503	0.3887
237.966	0.4145
238.1816	0.4072
238.3972	0.3957
238.6128	0.4045
238.8284	0.4114
239.0439	0.4061
239.2595	0.402
239.475	0.4279
239.6906	0.4029
239.9061	0.3891
240.1216	0.4073
240.3371	0.3931
240.5526	0.3933
240.7681	0.398
240.9836	0.3846
241.199	0.396
241.4145	0.3795
241.6299	0.3898
241.8453	0.3681
242.0607	0.3904
242.2761	0.366
242.4915	0.365
242.7069	0.3596
242.9223	0.367
243.1376	0.3577
243.353	0.3447
243.5683	0.3242
243.7836	0.3113
243.9989	0.3259
244.2142	0.3018
244.4295	0.2979
244.6448	0.3211
244.86	0.2871
245.0753	0.2733
245.2905	0.2864
245.5057	0.2651
245.721	0.2739
245.9362	0.2527
246.1514	0.2733
246.3665	0.2466
246.5817	0.2385
246.7969	0.236
247.012	0.2287
247.2271	0.23
247.4423	0.2426
247.6574	0.2294
247.8725	0.2307
248.0876	0.2154
248.3026	0.216
248.5177	0.2104
248.7328	0.2129
248.9478	0.1913
249.1628	0.2019
249.3779	0.2244
249.5929	0.1842
249.8079	0.2199
250.0228	0.1943
250.2378	0.1937
250.4528	0.1893
250.6677	0.1761
250.8827	0.1956
251.0976	0.1825
251.3125	0.183
251.5274	0.1746
251.7423	0.1761
251.9572	0.1893
252.172	0.1785
252.3869	0.1795
252.6017	0.1772
252.8166	0.1639
253.0314	0.1781
253.2462	0.1569
253.461	0.1826
253.6758	0.1641
253.8906	0.1692
254.1053	0.1595
254.3201	0.1588
254.5348	0.1799
254.7496	0.174
254.9643	0.1618
255.179	0.175
255.3937	0.1717
255.6083	0.1597
255.823	0.1684
256.0377	0.1674
256.2523	0.1652
256.467	0.1542
256.6816	0.1749
256.8962	0.1657
257.1108	0.1533
257.3254	0.176
257.54	0.1692
257.7545	0.1594
257.9691	0.1697
258.1836	0.1465
258.3981	0.1749
258.6127	0.1592
258.8272	0.1589
259.0417	0.1668
259.2561	0.1585
259.4706	0.1637
259.6851	0.1799
259.8995	0.1656
260.114	0.1541
260.3284	0.1671
260.5428	0.1587
260.7572	0.1715
260.9716	0.164
261.186	0.1511
261.4003	0.1592
261.6147	0.1577
261.829	0.1641
262.0433	0.1628
262.2577	0.155
262.472	0.1621
262.6863	0.1609
262.9005	0.161
263.1148	0.1504
263.3291	0.1402
263.5433	0.1656
263.7576	0.1565
263.9718	0.1589
264.186	0.1516
264.4002	0.1579
264.6144	0.1491
264.8286	0.1731
265.0427	0.1584
265.2569	0.1606
265.471	0.1546
265.6851	0.1534
265.8993	0.1639
266.1134	0.1542
266.3275	0.1623
266.5415	0.1561
266.7556	0.1613
266.9697	0.1515
267.1837	0.1551
267.3978	0.1599
267.6118	0.1792
267.8258	0.166
268.0398	0.1487
268.2538	0.1764
268.4677	0.1612
268.6817	0.1591
268.8957	0.1683
269.1096	0.1546
269.3235	0.1423
269.5374	0.1459
269.7514	0.1481
269.9652	0.1472
270.1791	0.1501
270.393	0.1317
270.6068	0.1421
270.8207	0.1175
271.0345	0.1438
271.2483	0.1544
271.4622	0.1343
271.676	0.149
271.8897	0.1339
272.1035	0.1357
272.3173	0.1418
272.531	0.1324
272.7448	0.1323
272.9585	0.1398
273.1722	0.1452
273.3859	0.1385
273.5996	0.1171
273.8133	0.1279
274.0269	0.1339
274.2406	0.133
274.4542	0.1368
274.6679	0.1194
274.8815	0.1425
275.0951	0.1487
275.3087	0.1335
275.5223	0.1403
275.7358	0.1303
275.9494	0.1461
276.1629	0.1313
276.3765	0.138
276.59	0.1329
276.8035	0.1453
277.017	0.1407
277.2305	0.1215
277.444	0.1467
277.6574	0.1468
277.8709	0.1426
278.0843	0.124
278.2978	0.1317
278.5112	0.1326
278.7246	0.1349
278.938	0.1277
279.1513	0.1413
279.3647	0.138
279.5781	0.1392
279.7914	0.145
280.0047	0.1439
280.2181	0.1373
280.4314	0.1466
280.6447	0.1475
280.8579	0.1395
281.0712	0.1491
281.2845	0.1483
281.4977	0.1414
281.711	0.1286
281.9242	0.1375
282.1374	0.1531
282.3506	0.1448
282.5638	0.1451
282.7769	0.1423
282.9901	0.1437
283.2033	0.1653
283.4164	0.1646
283.6295	0.1505
283.8426	0.1367
284.0557	0.1413
284.2688	0.1615
284.4819	0.1554
284.695	0.1479
284.908	0.1508
285.1211	0.146
285.3341	0.1455
285.5471	0.1658
285.7601	0.1602
285.9731	0.1418
286.1861	0.1467
286.3991	0.162
286.612	0.1706
286.825	0.1561
287.0379	0.1556
287.2508	0.1554
287.4637	0.1617
287.6766	0.1554
287.8895	0.1692
288.1024	0.1715
288.3152	0.1655
288.5281	0.1536
288.7409	0.163
288.9538	0.1707
289.1666	0.1591
289.3794	0.1637
289.5922	0.1486
289.8049	0.1621
290.0177	0.1649
290.2304	0.1742
290.4432	0.1661
290.6559	0.1699
290.8686	0.1716
291.0813	0.1665
291.294	0.1717
291.5067	0.1701
291.7194	0.1647
291.932	0.1675
292.1447	0.1625
292.3573	0.1566
292.5699	0.1608
292.7825	0.1675
292.9951	0.1514
293.2077	0.1626
293.4203	0.1611
293.6328	0.1601
293.8454	0.1727
294.0579	0.1657
294.2704	0.1695
294.4829	0.1513
294.6954	0.1863
294.9079	0.1671
295.1204	0.1678
295.3328	0.1642
295.5453	0.1586
295.7577	0.1568
295.9701	0.1539
296.1825	0.167
296.3949	0.1636
296.6073	0.1673
296.8197	0.1532
297.0321	0.1721
297.2444	0.1568
297.4567	0.174
297.6691	0.1629
297.8814	0.168
298.0937	0.1696
298.306	0.1627
298.5182	0.171
298.7305	0.1536
298.9428	0.1591
299.155	0.1662
299.3672	0.1575
299.5794	0.1568
299.7916	0.1682
300.0038	0.1731
300.216	0.1625
300.4282	0.1688
300.6403	0.1486
300.8525	0.1644
301.0646	0.1626
301.2767	0.163
301.4888	0.156
301.7009	0.1708
301.913	0.1708
302.125	0.1635
302.3371	0.1631
302.5491	0.1614
302.7612	0.1808
302.9732	0.1583
303.1852	0.1619
303.3972	0.1679
303.6092	0.1533
303.8211	0.1408
304.0331	0.1661
304.245	0.15
304.457	0.152
304.6689	0.1609
304.8808	0.1649
305.0927	0.1471
305.3046	0.152
305.5164	0.1532
305.7283	0.1457
305.9401	0.1462
306.152	0.1562
306.3638	0.1508
306.5756	0.1416
306.7874	0.1471
306.9992	0.1455
307.2109	0.1407
307.4227	0.1398
307.6344	0.1415
307.8462	0.1362
308.0579	0.1396
308.2696	0.1428
308.4813	0.1356
308.693	0.1312
308.9046	0.1399
309.1163	0.1292
309.328	0.1227
309.5396	0.1193
309.7512	0.1181
309.9628	0.1172
310.1744	0.1229
310.386	0.1243
310.5976	0.1227
310.8091	0.114
311.0207	0.1093
311.2322	0.1142
311.4437	0.1058
311.6552	0.1101
311.8667	0.1071
312.0782	0.1025
312.2897	0.0981
312.5012	0.1073
312.7126	0.1045
312.924	0.0964
313.1355	0.1178
313.3469	0.1018
313.5583	0.1044
313.7696	0.1092
313.981	0.1016
314.1924	0.1064
314.4037	0.0837
314.6151	0.1091
314.8264	0.0964
315.0377	0.0963
315.249	0.0902
315.4603	0.0979
315.6716	0.0984
315.8828	0.0896
316.0941	0.0962
316.3053	0.0864
316.5165	0.0964
316.7277	0.0819
316.9389	0.1017
317.1501	0.0924
317.3613	0.1013
317.5724	0.0899
317.7836	0.0976
317.9947	0.0902
318.2058	0.087
318.417	0.0772
318.6281	0.0855
318.8391	0.0944
319.0502	0.0763
319.2613	0.0886
319.4723	0.0916
319.6834	0.0955
319.8944	0.0848
320.1054	0.0951
320.3164	0.0905
320.5274	0.0802
320.7383	0.09
320.9493	0.0837
321.1602	0.0977
321.3712	0.0813
321.5821	0.0862
321.793	0.0913
322.0039	0.0849
322.2148	0.0881
322.4257	0.0932
322.6365	0.1116
322.8474	0.0969
323.0582	0.0906
323.269	0.0991
323.4798	0.096
323.6906	0.0951
323.9014	0.0906
324.1122	0.0897
324.3229	0.0859
324.5337	0.1036
324.7444	0.0914
324.9551	0.1024
325.1658	0.1005
325.3765	0.0984
325.5872	0.1008
325.7979	0.0893
326.0085	0.0916
326.2192	0.1004
326.4298	0.1082
326.6404	0.0833
326.851	0.0973
327.0616	0.0938
327.2722	0.0941
327.4828	0.1033
327.6933	0.0891
327.9039	0.1082
328.1144	0.0992
328.3249	0.1015
328.5354	0.0888
328.7459	0.0996
328.9564	0.089
329.1669	0.1058
329.3773	0.0986
329.5878	0.0975
329.7982	0.0953
330.0086	0.0905
330.219	0.0995
330.4294	0.0916
330.6398	0.0987
330.8502	0.0951
331.0605	0.1008
331.2708	0.0915
331.4812	0.105
331.6915	0.095
331.9018	0.1086
332.1121	0.0911
332.3224	0.1107
332.5326	0.1008
332.7429	0.105
332.9531	0.1061
333.1633	0.1043
333.3735	0.1019
333.5837	0.097
333.7939	0.1001
334.0041	0.1113
334.2143	0.1137
334.4244	0.0954
334.6346	0.0853
334.8447	0.1169
335.0548	0.095
335.2649	0.0995
335.475	0.1024
335.685	0.1034
335.8951	0.1141
336.1051	0.1193
336.3152	0.1111
336.5252	0.0995
336.7352	0.0948
336.9452	0.1113
337.1552	0.1034
337.3652	0.0933
337.5751	0.107
337.7851	0.1062
337.995	0.0949
338.2049	0.1081
338.4148	0.1032
338.6247	0.1052
338.8346	0.1053
339.0445	0.0914
339.2543	0.0992
339.4642	0.1118
339.674	0.0943
339.8838	0.1052
340.0936	0.102
340.3034	0.1175
340.5132	0.1109
340.7229	0.1042
340.9327	0.1111
341.1424	0.1012
341.3522	0.1159
341.5619	0.1156
341.7716	0.1138
341.9813	0.1054
342.1909	0.1061
342.4006	0.1121
342.6102	0.1116
342.8199	0.1284
343.0295	0.1109
343.2391	0.1166
343.4487	0.1206
343.6583	0.1083
343.8679	0.1232
344.0774	0.1166
344.287	0.1299
344.4965	0.1124
344.706	0.1121
344.9155	0.1243
345.125	0.1167
345.3345	0.1238
345.544	0.1181
345.7534	0.1231
345.9629	0.1016
346.1723	0.1137
346.3817	0.1102
346.5911	0.1104
346.8005	0.1226
347.0099	0.121
347.2193	0.1357
347.4286	0.1202
347.638	0.1303
347.8473	0.1242
348.0566	0.1256
348.2659	0.1355
348.4752	0.1186
348.6845	0.1165
348.8937	0.1299
349.103	0.1385
349.3122	0.1292
349.5214	0.1333
349.7306	0.1394
349.9398	0.1325
350.149	0.1359
350.3582	0.1088
350.5674	0.1464
350.7765	0.1322
350.9856	0.134
351.1948	0.1375
351.4039	0.13
351.613	0.145
351.822	0.1498
352.0311	0.1374
352.2402	0.1343
352.4492	0.1548
352.6582	0.15
352.8672	0.1468
353.0762	0.1563
353.2852	0.1352
353.4942	0.1407
353.7032	0.1438
353.9121	0.1495
354.1211	0.1525
354.33	0.1489
354.5389	0.1488
354.7478	0.1531
354.9567	0.1418
355.1655	0.149
355.3744	0.1618
355.5833	0.1623
355.7921	0.1649
356.0009	0.1478
356.2097	0.1659
356.4185	0.1692
356.6273	0.1526
356.8361	0.1506
357.0448	0.1481
357.2536	0.1521
357.4623	0.1492
357.671	0.157
357.8797	0.1607
358.0884	0.1811
358.2971	0.1618
358.5057	0.1731
358.7144	0.1765
358.923	0.1642
359.1316	0.1824
359.3402	0.1746
359.5488	0.1772
359.7574	0.169
359.966	0.1725
360.1746	0.172
360.3831	0.178
360.5916	0.1736
360.8002	0.1633
361.0087	0.1962
361.2172	0.1728
361.4256	0.179
361.6341	0.1846
361.8426	0.1805
362.051	0.1834
362.2594	0.1802
362.4678	0.1904
362.6762	0.1987
362.8846	0.1937
363.093	0.1684
363.3014	0.1745
363.5097	0.1785
363.718	0.1799
363.9264	0.181
364.1347	0.1909
364.343	0.1977
364.5513	0.1911
364.7595	0.2097
364.9678	0.198
365.176	0.1937
365.3842	0.1957
365.5925	0.1881
365.8007	0.2037
366.0089	0.2024
366.217	0.1976
366.4252	0.2087
366.6333	0.2276
366.8415	0.1995
367.0496	0.2007
367.2577	0.2089
367.4658	0.2192
367.6739	0.2215
367.882	0.2206
368.09	0.2093
368.2981	0.208
368.5061	0.2168
368.7141	0.2199
368.9221	0.2233
369.1301	0.2066
369.3381	0.2028
369.5461	0.2137
369.754	0.2344
369.962	0.2334
370.1699	0.2185
370.3778	0.2108
370.5857	0.2126
370.7936	0.222
371.0015	0.2293
371.2093	0.2308
371.4172	0.2344
371.625	0.2071
371.8328	0.2275
372.0406	0.2279
372.2484	0.2169
372.4562	0.2266
372.664	0.229
372.8717	0.253
373.0795	0.2012
373.2872	0.2375
373.4949	0.23
373.7026	0.2421
373.9103	0.2321
374.118	0.2375
374.3256	0.2463
374.5333	0.228
374.7409	0.232
374.9485	0.2608
375.1561	0.2456
375.3637	0.241
375.5713	0.2337
375.7789	0.2455
375.9864	0.2382
376.194	0.2276
376.4015	0.2657
376.609	0.2532
376.8165	0.2408
377.024	0.2433
377.2315	0.2349
377.4389	0.2447
377.6464	0.2617
377.8538	0.2493
378.0612	0.2544
378.2686	0.2546
378.476	0.2542
378.6834	0.2634
378.8908	0.2632
379.0981	0.2581
379.3055	0.2738
379.5128	0.2381
379.7201	0.2531
379.9274	0.2591
380.1347	0.2582
380.342	0.2672
380.5492	0.2478
380.7565	0.2725
380.9637	0.2647
381.1709	0.2583
381.3781	0.2595
381.5853	0.2543
381.7925	0.2733
381.9997	0.2737
382.2068	0.2811
382.4139	0.2554
382.6211	0.2575
382.8282	0.2547
383.0353	0.2643
383.2424	0.2352
383.4494	0.2707
383.6565	0.2819
383.8635	0.2848
384.0706	0.271
384.2776	0.2697
384.4846	0.2647
384.6916	0.2793
384.8986	0.2553
385.1055	0.2753
385.3125	0.269
385.5194	0.2355
385.7263	0.2754
385.9333	0.2526
386.1402	0.2752
386.347	0.2973
386.5539	0.2651
386.7608	0.2756
386.9676	0.2582
387.1744	0.2687
387.3813	0.2521
387.5881	0.2724
387.7948	0.2755
388.0016	0.2727
388.2084	0.2621
388.4151	0.2486
388.6219	0.2803
388.8286	0.2783
389.0353	0.2802
389.242	0.2629
389.4487	0.2693
389.6553	0.2532
389.862	0.2623
390.0686	0.2766
390.2753	0.2807
390.4819	0.2538
390.6885	0.2451
390.8951	0.2649
391.1016	0.2496
391.3082	0.2574
391.5147	0.2413
391.7213	0.2693
391.9278	0.2557
392.1343	0.2498
392.3408	0.2527
392.5473	0.2405
392.7537	0.2568
392.9602	0.2343
393.1666	0.2496
393.373	0.2471
393.5794	0.2626
393.7858	0.2359
393.9922	0.2364
394.1986	0.234
394.4049	0.2331
394.6113	0.2283
394.8176	0.2269
395.0239	0.234
395.2302	0.2309
395.4365	0.2324
395.6428	0.2315
395.8491	0.2246
396.0553	0.2298
396.2615	0.238
396.4678	0.2218
396.674	0.2053
396.8802	0.2327
397.0863	0.2491
397.2925	0.2203
397.4987	0.2191
397.7048	0.2143
397.9109	0.2283
398.117	0.2272
398.3231	0.2298
398.5292	0.2239
398.7353	0.222
398.9413	0.218
399.1474	0.2409
399.3534	0.2289
399.5594	0.2102
399.7654	0.2266
399.9714	0.2312
400.1774	0.2151
400.3833	0.2251
400.5893	0.224
400.7952	0.2284
401.0011	0.2292
401.207	0.2242
401.4129	0.2288
401.6188	0.2127
401.8247	0.2367
402.0305	0.223
402.2364	0.2262
402.4422	0.232
402.648	0.2457
402.8538	0.2446
403.0596	0.2182
403.2654	0.2268
403.4711	0.206
403.6768	0.2394
403.8826	0.2445
404.0883	0.2093
404.294	0.2408
404.4997	0.2355
404.7054	0.2273
404.911	0.2098
405.1167	0.2217
405.3223	0.2468
405.5279	0.2358
405.7335	0.2259
405.9391	0.229
406.1447	0.2186
406.3502	0.2395
406.5558	0.2389
406.7613	0.2342
406.9668	0.2496
407.1724	0.2184
407.3778	0.2057
407.5833	0.23
407.7888	0.2073
407.9942	0.236
408.1997	0.2163
408.4051	0.252
408.6105	0.2269
408.8159	0.2199
409.0213	0.2259
409.2267	0.2419
409.432	0.2166
409.6374	0.2371
409.8427	0.2226
410.048	0.2362
410.2533	0.2071
410.4586	0.2236
410.6639	0.22
410.8691	0.2107
411.0744	0.2352
411.2796	0.21
411.4848	0.2129
411.69	0.2177
411.8952	0.2481
412.1004	0.2278
412.3056	0.2474
412.5107	0.2211
412.7158	0.2134
412.921	0.2271
413.1261	0.2356
413.3312	0.2053
413.5362	0.2379
413.7413	0.2086
413.9464	0.2236
414.1514	0.2262
414.3564	0.2298
414.5614	0.1979
414.7664	0.2138
414.9714	0.2327
415.1764	0.225
415.3813	0.2424
415.5863	0.226
415.7912	0.2151
415.9961	0.2105
416.201	0.2234
416.4059	0.2355
416.6108	0.2052
416.8156	0.2264
417.0205	0.1996
417.2253	0.2236
417.4301	0.2346
417.6349	0.2152
417.8397	0.2178
418.0445	0.2189
418.2492	0.2076
418.454	0.2099
418.6587	0.2012
418.8634	0.2125
419.0681	0.2105
419.2728	0.1987
419.4775	0.2069
419.6822	0.1988
419.8868	0.1947
420.0915	0.2097
420.2961	0.2007
420.5007	0.2083
420.7053	0.2015
420.9099	0.1982
421.1144	0.2058
421.319	0.1966
421.5235	0.2119
421.728	0.2165
421.9325	0.2058
422.137	0.2085
422.3415	0.2031
422.546	0.1986
422.7504	0.195
422.9549	0.2061
423.1593	0.1897
423.3637	0.2104
423.5681	0.2002
423.7725	0.2033
423.9769	0.1823
424.1812	0.1865
424.3856	0.1904
424.5899	0.1907
424.7942	0.1822
424.9985	0.1885
425.2028	0.1718
425.4071	0.2131
425.6113	0.1859
425.8156	0.1872
426.0198	0.2104
426.224	0.1847
426.4282	0.1802
426.6324	0.2008
