Data from MonoPyChalIsomerACN10uM440nmA_Absorbance_15-27-16-094.txt Node
Date: Fri Jul 05 15:27:16 BST 2024
User: LASERRRRR
Spectrometer: FLMT03099
Trigger mode: 0
Integration Time (sec): 1.000000E-1
Scans to average: 1
Electric dark correction enabled: true
Nonlinearity correction enabled: false
Boxcar width: 0
XAxis mode: Wavelengths
Number of Pixels in Spectrum: 3648
>>>>>Begin Spectral Data<<<<<
179.3399	-0.1008
179.5586	-0.1008
179.7771	-0.1008
179.9957	0.1406
180.2143	-0
180.4329	-0.0823
180.6514	-0
180.8699	-0
181.0885	-0
181.307	-0.0287
181.5255	0.8808
181.744	-0
181.9625	-0
182.181	-0
182.3994	0.1372
182.6179	-0.1542
182.8363	0.0299
183.0547	1.8451
183.2732	0.041
183.4916	0.1382
183.71	0.0994
183.9284	0.0692
184.1467	0.1157
184.3651	-0.0753
184.5835	-0.0792
184.8018	0.1079
185.0201	0.3889
185.2385	-0.2078
185.4568	0.2055
185.6751	0.0537
185.8934	0.2336
186.1117	0.2912
186.3299	-0.0152
186.5482	0.1337
186.7664	0.0438
186.9847	0.137
187.2029	0.0621
187.4211	0.2057
187.6393	0.2575
187.8575	0.042
188.0757	0.2155
188.2939	0.2303
188.512	0.2506
188.7302	-0.0297
188.9483	0.3505
189.1665	0.0375
189.3846	0.1117
189.6027	0.2658
189.8208	0.2317
190.0389	0.0263
190.257	0.1807
190.475	0.1024
190.6931	0.1762
190.9111	0.4408
191.1292	0.168
191.3472	0.3282
191.5652	0.2111
191.7832	0.1274
192.0012	0.458
192.2192	0.3174
192.4371	0.6085
192.6551	0.5789
192.873	0.6478
193.091	0.3175
193.3089	0.4362
193.5268	0.5026
193.7447	0.4575
193.9626	0.4672
194.1805	0.7526
194.3984	1.2114
194.6162	0.6763
194.8341	0.6289
195.0519	0.7959
195.2697	0.5852
195.4875	0.5479
195.7054	0.7531
195.9231	0.6571
196.1409	0.4825
196.3587	0.7377
196.5765	0.6753
196.7942	0.656
197.012	0.5962
197.2297	0.6884
197.4474	0.748
197.6651	0.6317
197.8828	0.6604
198.1005	0.4725
198.3182	0.5347
198.5358	0.9378
198.7535	0.6442
198.9711	0.4839
199.1888	0.6223
199.4064	0.8608
199.624	0.6165
199.8416	0.8183
200.0592	0.5417
200.2767	0.6997
200.4943	0.5536
200.7119	0.7767
200.9294	0.6537
201.1469	0.6067
201.3645	0.5646
201.582	0.7009
201.7995	0.6753
202.017	0.6017
202.2344	0.6627
202.4519	0.7591
202.6694	0.6012
202.8868	0.7658
203.1042	0.7273
203.3217	0.6262
203.5391	0.6368
203.7565	0.6193
203.9739	0.6855
204.1913	0.6976
204.4086	0.6743
204.626	0.7205
204.8433	0.7591
205.0607	0.6037
205.278	0.7578
205.4953	0.633
205.7126	0.6781
205.9299	0.7887
206.1472	0.7856
206.3644	0.6883
206.5817	0.6877
206.7989	0.7469
207.0162	0.6947
207.2334	0.6533
207.4506	0.5988
207.6678	0.7041
207.885	0.7476
208.1022	0.7005
208.3194	0.6311
208.5365	0.6511
208.7537	0.6272
208.9708	0.6166
209.1879	0.6478
209.405	0.7439
209.6222	0.7333
209.8392	0.7096
210.0563	0.559
210.2734	0.7522
210.4905	0.6697
210.7075	0.561
210.9245	0.6239
211.1416	0.7257
211.3586	0.621
211.5756	0.6201
211.7926	0.6434
212.0096	0.586
212.2265	0.6052
212.4435	0.599
212.6604	0.6074
212.8774	0.6121
213.0943	0.6083
213.3112	0.5584
213.5281	0.5837
213.745	0.5381
213.9619	0.5056
214.1788	0.5045
214.3956	0.4897
214.6125	0.4835
214.8293	0.4565
215.0461	0.4972
215.2629	0.4619
215.4798	0.4909
215.6965	0.456
215.9133	0.4523
216.1301	0.4383
216.3469	0.4442
216.5636	0.4075
216.7803	0.4125
216.9971	0.416
217.2138	0.3662
217.4305	0.3668
217.6472	0.3724
217.8639	0.4236
218.0805	0.3548
218.2972	0.3288
218.5138	0.3262
218.7305	0.3206
218.9471	0.3323
219.1637	0.3004
219.3803	0.2784
219.5969	0.2818
219.8135	0.2631
220.0301	0.2484
220.2466	0.284
220.4632	0.2759
220.6797	0.2295
220.8962	0.2283
221.1127	0.2355
221.3292	0.2602
221.5457	0.2331
221.7622	0.2465
221.9787	0.2472
222.1951	0.2419
222.4116	0.2468
222.628	0.2405
222.8444	0.2564
223.0608	0.2559
223.2772	0.2503
223.4936	0.2584
223.71	0.2528
223.9264	0.2674
224.1427	0.2365
224.3591	0.2621
224.5754	0.2546
224.7917	0.2561
225.008	0.2465
225.2243	0.2544
225.4406	0.2663
225.6569	0.2675
225.8732	0.2563
226.0894	0.265
226.3057	0.2677
226.5219	0.2761
226.7381	0.266
226.9543	0.2817
227.1705	0.2773
227.3867	0.2779
227.6029	0.3159
227.8191	0.3139
228.0352	0.263
228.2513	0.3364
228.4675	0.3055
228.6836	0.2849
228.8997	0.2993
229.1158	0.3106
229.3319	0.3024
229.548	0.3093
229.764	0.3269
229.9801	0.3155
230.1961	0.3294
230.4121	0.3266
230.6282	0.3441
230.8442	0.3218
231.0602	0.3657
231.2761	0.3513
231.4921	0.3342
231.7081	0.3382
231.924	0.3426
232.14	0.3521
232.3559	0.3442
232.5718	0.3568
232.7877	0.3551
233.0036	0.3495
233.2195	0.3491
233.4353	0.3699
233.6512	0.3541
233.867	0.3569
234.0829	0.3745
234.2987	0.3603
234.5145	0.3717
234.7303	0.3666
234.9461	0.3989
235.1619	0.3622
235.3776	0.3874
235.5934	0.3826
235.8091	0.3448
236.0249	0.3685
236.2406	0.379
236.4563	0.3864
236.672	0.4014
236.8877	0.3927
237.1034	0.3966
237.319	0.4081
237.5347	0.3965
237.7503	0.3804
237.966	0.4061
238.1816	0.406
238.3972	0.4021
238.6128	0.3975
238.8284	0.4099
239.0439	0.4078
239.2595	0.4024
239.475	0.4176
239.6906	0.3964
239.9061	0.4039
240.1216	0.3919
240.3371	0.4011
240.5526	0.4062
240.7681	0.3971
240.9836	0.4039
241.199	0.3974
241.4145	0.3848
241.6299	0.3707
241.8453	0.3788
242.0607	0.3694
242.2761	0.3823
242.4915	0.3731
242.7069	0.3661
242.9223	0.346
243.1376	0.3411
243.353	0.3521
243.5683	0.3418
243.7836	0.3299
243.9989	0.3252
244.2142	0.3167
244.4295	0.3126
244.6448	0.3176
244.86	0.2919
245.0753	0.2949
245.2905	0.2924
245.5057	0.2793
245.721	0.2727
245.9362	0.2802
246.1514	0.2849
246.3665	0.2669
246.5817	0.2448
246.7969	0.2519
247.012	0.2541
247.2271	0.2394
247.4423	0.2451
247.6574	0.2515
247.8725	0.2292
248.0876	0.2103
248.3026	0.2337
248.5177	0.2308
248.7328	0.22
248.9478	0.2065
249.1628	0.2129
249.3779	0.218
249.5929	0.2027
249.8079	0.2057
250.0228	0.1923
250.2378	0.2187
250.4528	0.1994
250.6677	0.1944
250.8827	0.1805
251.0976	0.1953
251.3125	0.185
251.5274	0.1787
251.7423	0.1877
251.9572	0.19
252.172	0.1797
252.3869	0.1956
252.6017	0.1878
252.8166	0.1606
253.0314	0.1646
253.2462	0.1586
253.461	0.1833
253.6758	0.1611
253.8906	0.1823
254.1053	0.1557
254.3201	0.1799
254.5348	0.1739
254.7496	0.1806
254.9643	0.1697
255.179	0.1745
255.3937	0.1682
255.6083	0.1689
255.823	0.1779
256.0377	0.1641
256.2523	0.1736
256.467	0.149
256.6816	0.1761
256.8962	0.1674
257.1108	0.1594
257.3254	0.1673
257.54	0.1604
257.7545	0.1637
257.9691	0.1789
258.1836	0.1557
258.3981	0.1747
258.6127	0.1671
258.8272	0.1573
259.0417	0.1586
259.2561	0.1582
259.4706	0.1676
259.6851	0.1744
259.8995	0.1614
260.114	0.1524
260.3284	0.152
260.5428	0.1528
260.7572	0.1739
260.9716	0.1697
261.186	0.147
261.4003	0.1575
261.6147	0.1735
261.829	0.1683
262.0433	0.159
262.2577	0.1682
262.472	0.1645
262.6863	0.1536
262.9005	0.1683
263.1148	0.1559
263.3291	0.1373
263.5433	0.1654
263.7576	0.1594
263.9718	0.1665
264.186	0.1584
264.4002	0.1604
264.6144	0.1598
264.8286	0.169
265.0427	0.1655
265.2569	0.1613
265.471	0.1506
265.6851	0.1504
265.8993	0.1557
266.1134	0.1556
266.3275	0.1511
266.5415	0.1552
266.7556	0.1681
266.9697	0.1603
267.1837	0.1612
267.3978	0.17
267.6118	0.1721
267.8258	0.1774
268.0398	0.1532
268.2538	0.1695
268.4677	0.1639
268.6817	0.1612
268.8957	0.1592
269.1096	0.1736
269.3235	0.1606
269.5374	0.1497
269.7514	0.1627
269.9652	0.1474
270.1791	0.1517
270.393	0.1509
270.6068	0.1612
270.8207	0.1423
271.0345	0.1396
271.2483	0.1451
271.4622	0.1533
271.676	0.1502
271.8897	0.1408
272.1035	0.1553
272.3173	0.1558
272.531	0.1388
272.7448	0.1439
272.9585	0.1502
273.1722	0.1471
273.3859	0.1449
273.5996	0.132
273.8133	0.1444
274.0269	0.1392
274.2406	0.1493
274.4542	0.1472
274.6679	0.1377
274.8815	0.1502
275.0951	0.1494
275.3087	0.1559
275.5223	0.1456
275.7358	0.1577
275.9494	0.1546
276.1629	0.1257
276.3765	0.152
276.59	0.165
276.8035	0.1424
277.017	0.1489
277.2305	0.1436
277.444	0.1512
277.6574	0.143
277.8709	0.1581
278.0843	0.1438
278.2978	0.1486
278.5112	0.1432
278.7246	0.1457
278.938	0.1539
279.1513	0.1518
279.3647	0.1627
279.5781	0.1445
279.7914	0.1572
280.0047	0.1592
280.2181	0.1511
280.4314	0.1666
280.6447	0.1612
280.8579	0.159
281.0712	0.1627
281.2845	0.1607
281.4977	0.1578
281.711	0.1498
281.9242	0.1525
282.1374	0.1675
282.3506	0.1542
282.5638	0.1591
282.7769	0.1534
282.9901	0.1575
283.2033	0.1595
283.4164	0.1683
283.6295	0.1442
283.8426	0.147
284.0557	0.158
284.2688	0.1718
284.4819	0.1587
284.695	0.1578
284.908	0.1658
285.1211	0.1613
285.3341	0.1631
285.5471	0.1706
285.7601	0.148
285.9731	0.1474
286.1861	0.1612
286.3991	0.1605
286.612	0.1712
286.825	0.1624
287.0379	0.1628
287.2508	0.1635
287.4637	0.1591
287.6766	0.1622
287.8895	0.1636
288.1024	0.1694
288.3152	0.1694
288.5281	0.1475
288.7409	0.1635
288.9538	0.1657
289.1666	0.1557
289.3794	0.1609
289.5922	0.1559
289.8049	0.1649
290.0177	0.1503
290.2304	0.1617
290.4432	0.1742
290.6559	0.1498
290.8686	0.1669
291.0813	0.1611
291.294	0.154
291.5067	0.1528
291.7194	0.1487
291.932	0.1798
292.1447	0.1711
292.3573	0.1517
292.5699	0.172
292.7825	0.1558
292.9951	0.1589
293.2077	0.1644
293.4203	0.1579
293.6328	0.1534
293.8454	0.1736
294.0579	0.1649
294.2704	0.1632
294.4829	0.1451
294.6954	0.172
294.9079	0.1601
295.1204	0.158
295.3328	0.1672
295.5453	0.157
295.7577	0.16
295.9701	0.1577
296.1825	0.1551
296.3949	0.1504
296.6073	0.1645
296.8197	0.1569
297.0321	0.1837
297.2444	0.1615
297.4567	0.1584
297.6691	0.1626
297.8814	0.1533
298.0937	0.1545
298.306	0.1616
298.5182	0.1638
298.7305	0.1591
298.9428	0.1573
299.155	0.1653
299.3672	0.1522
299.5794	0.1539
299.7916	0.162
300.0038	0.1483
300.216	0.1669
300.4282	0.1651
300.6403	0.1508
300.8525	0.1709
301.0646	0.1543
301.2767	0.1562
301.4888	0.16
301.7009	0.1642
301.913	0.1531
302.125	0.1624
302.3371	0.1636
302.5491	0.1576
302.7612	0.1542
302.9732	0.168
303.1852	0.1656
303.3972	0.1619
303.6092	0.1525
303.8211	0.1399
304.0331	0.1506
304.245	0.1539
304.457	0.1499
304.6689	0.1499
304.8808	0.1631
305.0927	0.156
305.3046	0.1412
305.5164	0.159
305.7283	0.1439
305.9401	0.1484
306.152	0.1602
306.3638	0.1462
306.5756	0.1386
306.7874	0.1465
306.9992	0.1464
307.2109	0.146
307.4227	0.1299
307.6344	0.151
307.8462	0.1305
308.0579	0.1351
308.2696	0.1429
308.4813	0.125
308.693	0.1292
308.9046	0.137
309.1163	0.1297
309.328	0.1249
309.5396	0.126
309.7512	0.1169
309.9628	0.1179
310.1744	0.1235
310.386	0.114
310.5976	0.1256
310.8091	0.1189
311.0207	0.1079
311.2322	0.1201
311.4437	0.1158
311.6552	0.1058
311.8667	0.1138
312.0782	0.0991
312.2897	0.1055
312.5012	0.112
312.7126	0.1025
312.924	0.1067
313.1355	0.1028
313.3469	0.108
313.5583	0.1139
313.7696	0.0944
313.981	0.1086
314.1924	0.0944
314.4037	0.1046
314.6151	0.1139
314.8264	0.0996
315.0377	0.1007
315.249	0.1022
315.4603	0.1122
315.6716	0.1067
315.8828	0.0967
316.0941	0.1082
316.3053	0.0938
316.5165	0.0888
316.7277	0.0967
316.9389	0.1071
317.1501	0.0953
317.3613	0.1053
317.5724	0.0879
317.7836	0.1082
317.9947	0.093
318.2058	0.0957
318.417	0.0954
318.6281	0.0869
318.8391	0.094
319.0502	0.0936
319.2613	0.0975
319.4723	0.0915
319.6834	0.1017
319.8944	0.0953
320.1054	0.1036
320.3164	0.1078
320.5274	0.0995
320.7383	0.1002
320.9493	0.0971
321.1602	0.1063
321.3712	0.0967
321.5821	0.1088
321.793	0.103
322.0039	0.0971
322.2148	0.0963
322.4257	0.0903
322.6365	0.1132
322.8474	0.1101
323.0582	0.1054
323.269	0.1041
323.4798	0.1067
323.6906	0.1026
323.9014	0.0981
324.1122	0.0969
324.3229	0.0982
324.5337	0.103
324.7444	0.0811
324.9551	0.1064
325.1658	0.1085
325.3765	0.1138
325.5872	0.1057
325.7979	0.1037
326.0085	0.1116
326.2192	0.112
326.4298	0.1036
326.6404	0.104
326.851	0.0938
327.0616	0.0969
327.2722	0.1097
327.4828	0.1122
327.6933	0.112
327.9039	0.115
328.1144	0.1203
328.3249	0.1087
328.5354	0.1057
328.7459	0.0958
328.9564	0.0988
329.1669	0.1105
329.3773	0.1116
329.5878	0.1062
329.7982	0.1013
330.0086	0.105
330.219	0.1128
330.4294	0.101
330.6398	0.113
330.8502	0.0965
331.0605	0.1137
331.2708	0.1137
331.4812	0.1085
331.6915	0.1042
331.9018	0.105
332.1121	0.1028
332.3224	0.1088
332.5326	0.1184
332.7429	0.102
332.9531	0.1183
333.1633	0.1063
333.3735	0.1105
333.5837	0.1006
333.7939	0.1098
334.0041	0.1199
334.2143	0.1138
334.4244	0.1057
334.6346	0.0921
334.8447	0.1088
335.0548	0.1034
335.2649	0.0984
335.475	0.1068
335.685	0.1066
335.8951	0.1251
336.1051	0.1124
336.3152	0.1135
336.5252	0.1039
336.7352	0.1084
336.9452	0.1212
337.1552	0.1217
337.3652	0.1124
337.5751	0.108
337.7851	0.1154
337.995	0.1089
338.2049	0.1163
338.4148	0.1056
338.6247	0.1219
338.8346	0.0962
339.0445	0.0954
339.2543	0.1113
339.4642	0.1245
339.674	0.1173
339.8838	0.1108
340.0936	0.1189
340.3034	0.1312
340.5132	0.1236
340.7229	0.1264
340.9327	0.1242
341.1424	0.1131
341.3522	0.1224
341.5619	0.1281
341.7716	0.118
341.9813	0.1306
342.1909	0.1082
342.4006	0.1199
342.6102	0.1323
342.8199	0.1172
343.0295	0.129
343.2391	0.1304
343.4487	0.1394
343.6583	0.1228
343.8679	0.1268
344.0774	0.1342
344.287	0.1411
344.4965	0.1163
344.706	0.1477
344.9155	0.1259
345.125	0.1239
345.3345	0.1345
345.544	0.1144
345.7534	0.1177
345.9629	0.1212
346.1723	0.1284
346.3817	0.1251
346.5911	0.1417
346.8005	0.1292
347.0099	0.14
347.2193	0.1374
347.4286	0.1273
347.638	0.1437
347.8473	0.131
348.0566	0.1335
348.2659	0.1474
348.4752	0.13
348.6845	0.1303
348.8937	0.1423
349.103	0.1468
349.3122	0.126
349.5214	0.1345
349.7306	0.1366
349.9398	0.1351
350.149	0.1413
350.3582	0.1385
350.5674	0.1403
350.7765	0.1378
350.9856	0.1426
351.1948	0.1445
351.4039	0.1387
351.613	0.1379
351.822	0.1537
352.0311	0.1381
352.2402	0.146
352.4492	0.1451
352.6582	0.1549
352.8672	0.1383
353.0762	0.1583
353.2852	0.1396
353.4942	0.1395
353.7032	0.1527
353.9121	0.1441
354.1211	0.1479
354.33	0.15
354.5389	0.1558
354.7478	0.1488
354.9567	0.1469
355.1655	0.1358
355.3744	0.1544
355.5833	0.1561
355.7921	0.1818
356.0009	0.1507
356.2097	0.1554
356.4185	0.1805
356.6273	0.1553
356.8361	0.1639
357.0448	0.1532
357.2536	0.1699
357.4623	0.1606
357.671	0.1678
357.8797	0.1619
358.0884	0.1613
358.2971	0.1534
358.5057	0.1691
358.7144	0.1706
358.923	0.1635
359.1316	0.1756
359.3402	0.1687
359.5488	0.1699
359.7574	0.172
359.966	0.1791
360.1746	0.1742
360.3831	0.1713
360.5916	0.1634
360.8002	0.1674
361.0087	0.1817
361.2172	0.1811
361.4256	0.1832
361.6341	0.186
361.8426	0.178
362.051	0.1804
362.2594	0.1758
362.4678	0.182
362.6762	0.2096
362.8846	0.1976
363.093	0.178
363.3014	0.1745
363.5097	0.1658
363.718	0.1836
363.9264	0.1759
364.1347	0.1746
364.343	0.1962
364.5513	0.2021
364.7595	0.1995
364.9678	0.2029
365.176	0.1892
365.3842	0.1877
365.5925	0.1819
365.8007	0.1915
366.0089	0.1949
366.217	0.1897
366.4252	0.2052
366.6333	0.1985
366.8415	0.2052
367.0496	0.1792
367.2577	0.2071
367.4658	0.2045
367.6739	0.2187
367.882	0.2079
368.09	0.1983
368.2981	0.1927
368.5061	0.1889
368.7141	0.2119
368.9221	0.2256
369.1301	0.2029
369.3381	0.2117
369.5461	0.2037
369.754	0.2017
369.962	0.2421
370.1699	0.1988
370.3778	0.236
370.5857	0.1989
370.7936	0.1947
371.0015	0.2286
371.2093	0.2286
371.4172	0.2181
371.625	0.1956
371.8328	0.2142
372.0406	0.2159
372.2484	0.2082
372.4562	0.2261
372.664	0.2183
372.8717	0.2185
373.0795	0.1887
373.2872	0.2275
373.4949	0.2179
373.7026	0.2271
373.9103	0.2434
374.118	0.2317
374.3256	0.2321
374.5333	0.2211
374.7409	0.213
374.9485	0.248
375.1561	0.2385
375.3637	0.2262
375.5713	0.2288
375.7789	0.2342
375.9864	0.2314
376.194	0.2307
376.4015	0.2263
376.609	0.2372
376.8165	0.2229
377.024	0.2224
377.2315	0.2252
377.4389	0.2353
377.6464	0.2357
377.8538	0.2382
378.0612	0.2278
378.2686	0.2359
378.476	0.2351
378.6834	0.2235
378.8908	0.2388
379.0981	0.2421
379.3055	0.2554
379.5128	0.2269
379.7201	0.2334
379.9274	0.2362
380.1347	0.2326
380.342	0.2655
380.5492	0.2444
380.7565	0.2504
380.9637	0.2509
381.1709	0.2309
381.3781	0.2415
381.5853	0.259
381.7925	0.2527
381.9997	0.2517
382.2068	0.2626
382.4139	0.2551
382.6211	0.2276
382.8282	0.2359
383.0353	0.2321
383.2424	0.242
383.4494	0.2551
383.6565	0.245
383.8635	0.2475
384.0706	0.2431
384.2776	0.2579
384.4846	0.232
384.6916	0.2246
384.8986	0.2498
385.1055	0.2445
385.3125	0.2458
385.5194	0.2209
385.7263	0.2597
385.9333	0.2532
386.1402	0.235
386.347	0.2484
386.5539	0.2236
386.7608	0.2538
386.9676	0.2173
387.1744	0.2517
387.3813	0.2385
387.5881	0.2447
387.7948	0.2384
388.0016	0.2436
388.2084	0.242
388.4151	0.2263
388.6219	0.2529
388.8286	0.2523
389.0353	0.2483
389.242	0.2493
389.4487	0.2536
389.6553	0.2358
389.862	0.2137
390.0686	0.2494
390.2753	0.2491
390.4819	0.2338
390.6885	0.2311
390.8951	0.2355
391.1016	0.2285
391.3082	0.2238
391.5147	0.2293
391.7213	0.2372
391.9278	0.2305
392.1343	0.2334
392.3408	0.2241
392.5473	0.2176
392.7537	0.2149
392.9602	0.2089
393.1666	0.2234
393.373	0.2101
393.5794	0.2274
393.7858	0.217
393.9922	0.1943
394.1986	0.2207
394.4049	0.208
394.6113	0.2014
394.8176	0.1976
395.0239	0.2257
395.2302	0.2255
395.4365	0.2054
395.6428	0.2127
395.8491	0.2019
396.0553	0.2167
396.2615	0.2019
396.4678	0.2115
396.674	0.2071
396.8802	0.2087
397.0863	0.2134
397.2925	0.2018
397.4987	0.2105
397.7048	0.2007
397.9109	0.2179
398.117	0.2014
398.3231	0.1972
398.5292	0.2083
398.7353	0.2213
398.9413	0.2001
399.1474	0.2045
399.3534	0.2024
399.5594	0.1946
399.7654	0.2131
399.9714	0.2196
400.1774	0.2041
400.3833	0.1976
400.5893	0.2108
400.7952	0.2124
401.0011	0.2082
401.207	0.2041
401.4129	0.2041
401.6188	0.2319
401.8247	0.2057
402.0305	0.1948
402.2364	0.1942
402.4422	0.2233
402.648	0.1992
402.8538	0.2002
403.0596	0.194
403.2654	0.2243
403.4711	0.1948
403.6768	0.2107
403.8826	0.212
404.0883	0.2051
404.294	0.1985
404.4997	0.2069
404.7054	0.1997
404.911	0.1902
405.1167	0.2006
405.3223	0.2122
405.5279	0.2183
405.7335	0.2056
405.9391	0.2261
406.1447	0.2042
406.3502	0.2235
406.5558	0.1936
406.7613	0.207
406.9668	0.2086
407.1724	0.2156
407.3778	0.2141
407.5833	0.199
407.7888	0.173
407.9942	0.2103
408.1997	0.202
408.4051	0.1963
408.6105	0.2068
408.8159	0.201
409.0213	0.1979
409.2267	0.2057
409.432	0.1901
409.6374	0.2099
409.8427	0.1978
410.048	0.1987
410.2533	0.1995
410.4586	0.2124
410.6639	0.1799
410.8691	0.2059
411.0744	0.1966
411.2796	0.1783
411.4848	0.1949
411.69	0.185
411.8952	0.1967
412.1004	0.1898
412.3056	0.2191
412.5107	0.2053
412.7158	0.2133
412.921	0.1907
413.1261	0.2039
413.3312	0.1882
413.5362	0.201
413.7413	0.1906
413.9464	0.2005
414.1514	0.2131
414.3564	0.1865
414.5614	0.1739
414.7664	0.196
414.9714	0.2091
415.1764	0.1947
415.3813	0.1872
415.5863	0.2076
415.7912	0.1921
415.9961	0.1934
416.201	0.1997
416.4059	0.2268
416.6108	0.1886
416.8156	0.1897
417.0205	0.1995
417.2253	0.1737
417.4301	0.1944
417.6349	0.1815
417.8397	0.1767
418.0445	0.1879
418.2492	0.1809
418.454	0.2037
418.6587	0.1736
418.8634	0.195
419.0681	0.1666
419.2728	0.1879
419.4775	0.1833
419.6822	0.1864
419.8868	0.1751
420.0915	0.1656
420.2961	0.1926
420.5007	0.1846
420.7053	0.1856
420.9099	0.1951
421.1144	0.1863
421.319	0.175
421.5235	0.171
421.728	0.181
421.9325	0.183
422.137	0.1899
422.3415	0.1728
422.546	0.1811
422.7504	0.1753
422.9549	0.1916
423.1593	0.1776
423.3637	0.19
423.5681	0.1759
423.7725	0.1676
423.9769	0.1731
424.1812	0.1562
424.3856	0.1596
424.5899	0.1634
424.7942	0.1559
424.9985	0.1739
425.2028	0.1518
425.4071	0.1847
425.6113	0.1608
425.8156	0.1596
426.0198	0.1694
426.224	0.1481
426.4282	0.1625
426.6324	0.1502
