Data from MonoPyChalIsomerACN10uM440nmA_Absorbance_15-27-17-794.txt Node
Date: Fri Jul 05 15:27:17 BST 2024
User: LASERRRRR
Spectrometer: FLMT03099
Trigger mode: 0
Integration Time (sec): 1.000000E-1
Scans to average: 1
Electric dark correction enabled: true
Nonlinearity correction enabled: false
Boxcar width: 0
XAxis mode: Wavelengths
Number of Pixels in Spectrum: 3648
>>>>>Begin Spectral Data<<<<<
179.3399	0.0473
179.5586	0.0473
179.7771	0.0473
179.9957	0.057
180.2143	-0.0429
180.4329	-0.1285
180.6514	-0
180.8699	-0
181.0885	-0.107
181.307	0.594
181.5255	-0
181.744	-0.0774
181.9625	-0
182.181	-0.2478
182.3994	-0
182.6179	-0
182.8363	0.674
183.0547	-0.0645
183.2732	0.1265
183.4916	0.3704
183.71	0.0296
183.9284	0.0425
184.1467	-0.1746
184.3651	-0.0689
184.5835	0.0494
184.8018	0.4531
185.0201	-0.0175
185.2385	-0.0984
185.4568	0.1734
185.6751	0.0197
185.8934	0.5941
186.1117	-0.0135
186.3299	0.0049
186.5482	0.1077
186.7664	-0.1002
186.9847	0.1102
187.2029	0.0351
187.4211	0.2243
187.6393	0.1165
187.8575	-0.1881
188.0757	0.1438
188.2939	0.1732
188.512	-0.0132
188.7302	0.0518
188.9483	-0.0463
189.1665	0.0927
189.3846	0.0173
189.6027	0.2042
189.8208	0.1022
190.0389	-0.0218
190.257	0.1612
190.475	0.3229
190.6931	0.476
190.9111	0.5763
191.1292	0.1353
191.3472	0.3264
191.5652	0.2713
191.7832	0.2074
192.0012	0.6541
192.2192	0.357
192.4371	0.5633
192.6551	0.341
192.873	0.4373
193.091	0.3655
193.3089	0.6968
193.5268	0.6717
193.7447	0.5558
193.9626	0.6775
194.1805	0.7412
194.3984	0.5265
194.6162	0.5379
194.8341	0.4223
195.0519	0.7598
195.2697	1.0154
195.4875	0.6942
195.7054	0.8288
195.9231	0.6415
196.1409	0.5157
196.3587	0.5165
196.5765	0.6176
196.7942	0.6152
197.012	0.5312
197.2297	0.7944
197.4474	0.7514
197.6651	0.4461
197.8828	0.5654
198.1005	0.5507
198.3182	0.4923
198.5358	0.7378
198.7535	0.7132
198.9711	0.5477
199.1888	0.8062
199.4064	0.8138
199.624	0.7515
199.8416	0.5267
200.0592	0.7375
200.2767	0.6236
200.4943	0.6503
200.7119	1.0844
200.9294	0.7181
201.1469	0.5861
201.3645	0.5081
201.582	0.5698
201.7995	0.6772
202.017	0.6573
202.2344	0.6002
202.4519	0.6673
202.6694	0.6526
202.8868	0.6821
203.1042	0.7936
203.3217	0.7331
203.5391	0.6579
203.7565	0.6836
203.9739	0.6104
204.1913	0.6712
204.4086	0.6438
204.626	0.7578
204.8433	0.6409
205.0607	0.6385
205.278	0.5966
205.4953	0.5783
205.7126	0.704
205.9299	0.8198
206.1472	0.6329
206.3644	0.6029
206.5817	0.7782
206.7989	0.6765
207.0162	0.6642
207.2334	0.7351
207.4506	0.6866
207.6678	0.6462
207.885	0.6308
208.1022	0.6812
208.3194	0.7007
208.5365	0.7174
208.7537	0.6251
208.9708	0.549
209.1879	0.7616
209.405	0.6362
209.6222	0.7509
209.8392	0.6647
210.0563	0.5809
210.2734	0.7146
210.4905	0.638
210.7075	0.6699
210.9245	0.6468
211.1416	0.6582
211.3586	0.6074
211.5756	0.63
211.7926	0.621
212.0096	0.5996
212.2265	0.6119
212.4435	0.5376
212.6604	0.6187
212.8774	0.5733
213.0943	0.5808
213.3112	0.6227
213.5281	0.5057
213.745	0.508
213.9619	0.5043
214.1788	0.4939
214.3956	0.4803
214.6125	0.4474
214.8293	0.4683
215.0461	0.5136
215.2629	0.4532
215.4798	0.4824
215.6965	0.4271
215.9133	0.4555
216.1301	0.442
216.3469	0.4513
216.5636	0.4299
216.7803	0.3919
216.9971	0.4263
217.2138	0.3795
217.4305	0.3785
217.6472	0.3543
217.8639	0.3913
218.0805	0.3326
218.2972	0.3135
218.5138	0.3085
218.7305	0.3363
218.9471	0.287
219.1637	0.2728
219.3803	0.2913
219.5969	0.2691
219.8135	0.2481
220.0301	0.2627
220.2466	0.2663
220.4632	0.2334
220.6797	0.2424
220.8962	0.2428
221.1127	0.2566
221.3292	0.2465
221.5457	0.2396
221.7622	0.22
221.9787	0.2509
222.1951	0.2152
222.4116	0.2532
222.628	0.2394
222.8444	0.2576
223.0608	0.2468
223.2772	0.2405
223.4936	0.2642
223.71	0.2623
223.9264	0.282
224.1427	0.2417
224.3591	0.2293
224.5754	0.2556
224.7917	0.2531
225.008	0.2504
225.2243	0.2568
225.4406	0.2708
225.6569	0.2447
225.8732	0.2545
226.0894	0.273
226.3057	0.258
226.5219	0.2818
226.7381	0.2698
226.9543	0.2659
227.1705	0.2859
227.3867	0.2778
227.6029	0.2979
227.8191	0.2965
228.0352	0.2829
228.2513	0.3061
228.4675	0.3134
228.6836	0.2796
228.8997	0.2811
229.1158	0.2985
229.3319	0.2936
229.548	0.3199
229.764	0.3251
229.9801	0.317
230.1961	0.3222
230.4121	0.3135
230.6282	0.3464
230.8442	0.3209
231.0602	0.3439
231.2761	0.3351
231.4921	0.3489
231.7081	0.3493
231.924	0.3444
232.14	0.3533
232.3559	0.3323
232.5718	0.3525
232.7877	0.3531
233.0036	0.3388
233.2195	0.3466
233.4353	0.3317
233.6512	0.3597
233.867	0.3635
234.0829	0.3475
234.2987	0.387
234.5145	0.3566
234.7303	0.362
234.9461	0.3835
235.1619	0.3687
235.3776	0.3799
235.5934	0.3811
235.8091	0.3701
236.0249	0.3782
236.2406	0.375
236.4563	0.3909
236.672	0.3904
236.8877	0.3918
237.1034	0.4001
237.319	0.378
237.5347	0.4031
237.7503	0.3898
237.966	0.3994
238.1816	0.3876
238.3972	0.388
238.6128	0.3758
238.8284	0.3785
239.0439	0.4098
239.2595	0.3825
239.475	0.4107
239.6906	0.4102
239.9061	0.3953
240.1216	0.3692
240.3371	0.4028
240.5526	0.3967
240.7681	0.4188
240.9836	0.3844
241.199	0.3953
241.4145	0.3842
241.6299	0.3836
241.8453	0.3752
242.0607	0.3759
242.2761	0.3658
242.4915	0.3845
242.7069	0.3681
242.9223	0.3483
243.1376	0.3482
243.353	0.3443
243.5683	0.3585
243.7836	0.325
243.9989	0.3326
244.2142	0.3135
244.4295	0.3261
244.6448	0.3049
244.86	0.2987
245.0753	0.3019
245.2905	0.297
245.5057	0.2856
245.721	0.2764
245.9362	0.2737
246.1514	0.2774
246.3665	0.2646
246.5817	0.2587
246.7969	0.2409
247.012	0.2515
247.2271	0.233
247.4423	0.2494
247.6574	0.2466
247.8725	0.25
248.0876	0.2152
248.3026	0.2286
248.5177	0.2265
248.7328	0.2149
248.9478	0.206
249.1628	0.2117
249.3779	0.2291
249.5929	0.2003
249.8079	0.2343
250.0228	0.2092
250.2378	0.206
250.4528	0.2102
250.6677	0.1862
250.8827	0.1864
251.0976	0.1884
251.3125	0.1946
251.5274	0.1735
251.7423	0.1921
251.9572	0.1884
252.172	0.17
252.3869	0.1913
252.6017	0.1765
252.8166	0.1784
253.0314	0.1647
253.2462	0.1783
253.461	0.1707
253.6758	0.1668
253.8906	0.1781
254.1053	0.152
254.3201	0.1702
254.5348	0.1791
254.7496	0.1819
254.9643	0.1689
255.179	0.1724
255.3937	0.1612
255.6083	0.1765
255.823	0.1643
256.0377	0.1641
256.2523	0.1742
256.467	0.1523
256.6816	0.173
256.8962	0.1699
257.1108	0.1727
257.3254	0.1744
257.54	0.1756
257.7545	0.1667
257.9691	0.1769
258.1836	0.1619
258.3981	0.1793
258.6127	0.184
258.8272	0.165
259.0417	0.1622
259.2561	0.1711
259.4706	0.1694
259.6851	0.1625
259.8995	0.1643
260.114	0.1652
260.3284	0.16
260.5428	0.1606
260.7572	0.1564
260.9716	0.1849
261.186	0.1569
261.4003	0.1773
261.6147	0.1738
261.829	0.1553
262.0433	0.155
262.2577	0.1682
262.472	0.1643
262.6863	0.1608
262.9005	0.164
263.1148	0.1704
263.3291	0.1448
263.5433	0.167
263.7576	0.1542
263.9718	0.1684
264.186	0.1628
264.4002	0.1594
264.6144	0.1561
264.8286	0.1696
265.0427	0.1581
265.2569	0.1627
265.471	0.1578
265.6851	0.1647
265.8993	0.1542
266.1134	0.1655
266.3275	0.1602
266.5415	0.1494
266.7556	0.1691
266.9697	0.1596
267.1837	0.1648
267.3978	0.1592
267.6118	0.1759
267.8258	0.1795
268.0398	0.1542
268.2538	0.1702
268.4677	0.1711
268.6817	0.1528
268.8957	0.1496
269.1096	0.1688
269.3235	0.1678
269.5374	0.1528
269.7514	0.1563
269.9652	0.1631
270.1791	0.1578
270.393	0.1465
270.6068	0.1589
270.8207	0.1525
271.0345	0.1437
271.2483	0.1681
271.4622	0.1498
271.676	0.1631
271.8897	0.1451
272.1035	0.1548
272.3173	0.1483
272.531	0.1364
272.7448	0.1537
272.9585	0.1389
273.1722	0.1521
273.3859	0.1431
273.5996	0.1422
273.8133	0.1532
274.0269	0.1363
274.2406	0.1467
274.4542	0.1577
274.6679	0.1378
274.8815	0.1426
275.0951	0.1629
275.3087	0.1486
275.5223	0.1527
275.7358	0.1509
275.9494	0.1592
276.1629	0.1459
276.3765	0.1526
276.59	0.1612
276.8035	0.1411
277.017	0.1491
277.2305	0.1332
277.444	0.1527
277.6574	0.144
277.8709	0.1549
278.0843	0.1441
278.2978	0.1473
278.5112	0.1485
278.7246	0.1552
278.938	0.1472
279.1513	0.1562
279.3647	0.1638
279.5781	0.1601
279.7914	0.1513
280.0047	0.1521
280.2181	0.1495
280.4314	0.1537
280.6447	0.1599
280.8579	0.1519
281.0712	0.164
281.2845	0.1541
281.4977	0.1567
281.711	0.1468
281.9242	0.146
282.1374	0.1612
282.3506	0.1501
282.5638	0.1511
282.7769	0.1644
282.9901	0.149
283.2033	0.1572
283.4164	0.1644
283.6295	0.1438
283.8426	0.1545
284.0557	0.1543
284.2688	0.1746
284.4819	0.1614
284.695	0.1642
284.908	0.1566
285.1211	0.1497
285.3341	0.1626
285.5471	0.174
285.7601	0.1672
285.9731	0.1534
286.1861	0.1486
286.3991	0.1623
286.612	0.1661
286.825	0.1583
287.0379	0.1729
287.2508	0.1558
287.4637	0.1778
287.6766	0.1464
287.8895	0.1656
288.1024	0.1738
288.3152	0.1655
288.5281	0.166
288.7409	0.1604
288.9538	0.1728
289.1666	0.1522
289.3794	0.1545
289.5922	0.1581
289.8049	0.1496
290.0177	0.1584
290.2304	0.1578
290.4432	0.1628
290.6559	0.1448
290.8686	0.1619
291.0813	0.1597
291.294	0.1565
291.5067	0.1675
291.7194	0.1537
291.932	0.1653
292.1447	0.1656
292.3573	0.1496
292.5699	0.1617
292.7825	0.1669
292.9951	0.1557
293.2077	0.1576
293.4203	0.1547
293.6328	0.145
293.8454	0.173
294.0579	0.1597
294.2704	0.1564
294.4829	0.1469
294.6954	0.1535
294.9079	0.1497
295.1204	0.1581
295.3328	0.1603
295.5453	0.1598
295.7577	0.1568
295.9701	0.1516
296.1825	0.1567
296.3949	0.1518
296.6073	0.1587
296.8197	0.1445
297.0321	0.1667
297.2444	0.1425
297.4567	0.168
297.6691	0.1513
297.8814	0.1457
298.0937	0.1602
298.306	0.1692
298.5182	0.1593
298.7305	0.1541
298.9428	0.1464
299.155	0.1622
299.3672	0.1573
299.5794	0.1484
299.7916	0.1514
300.0038	0.1651
300.216	0.1515
300.4282	0.1549
300.6403	0.1493
300.8525	0.1546
301.0646	0.1481
301.2767	0.1544
301.4888	0.1481
301.7009	0.1571
301.913	0.1528
302.125	0.1646
302.3371	0.1551
302.5491	0.1555
302.7612	0.1643
302.9732	0.1631
303.1852	0.1571
303.3972	0.1512
303.6092	0.1439
303.8211	0.1479
304.0331	0.1435
304.245	0.1397
304.457	0.1527
304.6689	0.1511
304.8808	0.1593
305.0927	0.134
305.3046	0.1385
305.5164	0.1614
305.7283	0.1462
305.9401	0.1502
306.152	0.1428
306.3638	0.144
306.5756	0.1448
306.7874	0.1451
306.9992	0.1469
307.2109	0.1326
307.4227	0.1309
307.6344	0.139
307.8462	0.1327
308.0579	0.1322
308.2696	0.132
308.4813	0.1312
308.693	0.1297
308.9046	0.1321
309.1163	0.1189
309.328	0.1193
309.5396	0.1132
309.7512	0.1158
309.9628	0.1275
310.1744	0.127
310.386	0.118
310.5976	0.1146
310.8091	0.1196
311.0207	0.1171
311.2322	0.1114
311.4437	0.1136
311.6552	0.1119
311.8667	0.1213
312.0782	0.1082
312.2897	0.111
312.5012	0.1145
312.7126	0.1036
312.924	0.0981
313.1355	0.1049
313.3469	0.1175
313.5583	0.119
313.7696	0.1076
313.981	0.102
314.1924	0.0926
314.4037	0.1081
314.6151	0.1018
314.8264	0.0982
315.0377	0.1105
315.249	0.1114
315.4603	0.114
315.6716	0.1027
315.8828	0.1021
316.0941	0.1078
316.3053	0.1028
316.5165	0.0971
316.7277	0.1
316.9389	0.103
317.1501	0.1002
317.3613	0.1043
317.5724	0.0906
317.7836	0.1074
317.9947	0.0917
318.2058	0.0999
318.417	0.0953
318.6281	0.0897
318.8391	0.0947
319.0502	0.0887
319.2613	0.0983
319.4723	0.1058
319.6834	0.1036
319.8944	0.0942
320.1054	0.1037
320.3164	0.0897
320.5274	0.096
320.7383	0.093
320.9493	0.0966
321.1602	0.1083
321.3712	0.0992
321.5821	0.1019
321.793	0.1007
322.0039	0.0997
322.2148	0.1005
322.4257	0.0984
322.6365	0.1164
322.8474	0.1026
323.0582	0.0985
323.269	0.1078
323.4798	0.1105
323.6906	0.1047
323.9014	0.1093
324.1122	0.0973
324.3229	0.1038
324.5337	0.1085
324.7444	0.104
324.9551	0.1182
325.1658	0.1135
325.3765	0.1152
325.5872	0.1041
325.7979	0.1071
326.0085	0.1101
326.2192	0.1103
326.4298	0.1073
326.6404	0.1003
326.851	0.0971
327.0616	0.0953
327.2722	0.1069
327.4828	0.1118
327.6933	0.1062
327.9039	0.1164
328.1144	0.1131
328.3249	0.1189
328.5354	0.1035
328.7459	0.1009
328.9564	0.0994
329.1669	0.107
329.3773	0.1102
329.5878	0.1134
329.7982	0.1021
330.0086	0.1131
330.219	0.1079
330.4294	0.0971
330.6398	0.1011
330.8502	0.0983
331.0605	0.11
331.2708	0.097
331.4812	0.1089
331.6915	0.1129
331.9018	0.1085
332.1121	0.1113
332.3224	0.1118
332.5326	0.1174
332.7429	0.1175
332.9531	0.1206
333.1633	0.1247
333.3735	0.1107
333.5837	0.1137
333.7939	0.112
334.0041	0.1206
334.2143	0.1245
334.4244	0.1166
334.6346	0.0933
334.8447	0.1211
335.0548	0.1043
335.2649	0.1043
335.475	0.1199
335.685	0.1051
335.8951	0.1201
336.1051	0.1211
336.3152	0.1217
336.5252	0.1083
336.7352	0.1201
336.9452	0.1192
337.1552	0.1206
337.3652	0.1132
337.5751	0.1205
337.7851	0.1198
337.995	0.1136
338.2049	0.1169
338.4148	0.1078
338.6247	0.1146
338.8346	0.1113
339.0445	0.1062
339.2543	0.122
339.4642	0.113
339.674	0.1141
339.8838	0.1235
340.0936	0.1166
340.3034	0.131
340.5132	0.1348
340.7229	0.1248
340.9327	0.1216
341.1424	0.1038
341.3522	0.1319
341.5619	0.1207
341.7716	0.1292
341.9813	0.1192
342.1909	0.1287
342.4006	0.1301
342.6102	0.126
342.8199	0.1239
343.0295	0.1266
343.2391	0.1305
343.4487	0.1361
343.6583	0.1283
343.8679	0.133
344.0774	0.1358
344.287	0.1394
344.4965	0.1285
344.706	0.1276
344.9155	0.1397
345.125	0.1376
345.3345	0.1493
345.544	0.124
345.7534	0.1413
345.9629	0.1234
346.1723	0.142
346.3817	0.1279
346.5911	0.1293
346.8005	0.1299
347.0099	0.1315
347.2193	0.139
347.4286	0.1257
347.638	0.1286
347.8473	0.1296
348.0566	0.1347
348.2659	0.141
348.4752	0.1397
348.6845	0.1308
348.8937	0.1345
349.103	0.1418
349.3122	0.1286
349.5214	0.1229
349.7306	0.1447
349.9398	0.1406
350.149	0.1449
350.3582	0.146
350.5674	0.1554
350.7765	0.1366
350.9856	0.1385
351.1948	0.1557
351.4039	0.1333
351.613	0.1327
351.822	0.1395
352.0311	0.1489
352.2402	0.1559
352.4492	0.1586
352.6582	0.1513
352.8672	0.1473
353.0762	0.1524
353.2852	0.1506
353.4942	0.1301
353.7032	0.1438
353.9121	0.1514
354.1211	0.1491
354.33	0.1616
354.5389	0.1605
354.7478	0.1386
354.9567	0.1454
355.1655	0.1426
355.3744	0.1653
355.5833	0.159
355.7921	0.1777
356.0009	0.1504
356.2097	0.171
356.4185	0.1595
356.6273	0.1635
356.8361	0.1648
357.0448	0.1549
357.2536	0.1608
357.4623	0.1653
357.671	0.1617
357.8797	0.1524
358.0884	0.1625
358.2971	0.156
358.5057	0.1676
358.7144	0.1698
358.923	0.1609
359.1316	0.1743
359.3402	0.1724
359.5488	0.1498
359.7574	0.1461
359.966	0.1624
360.1746	0.1846
360.3831	0.1719
360.5916	0.1675
360.8002	0.1732
361.0087	0.1907
361.2172	0.164
361.4256	0.1624
361.6341	0.1811
361.8426	0.1669
362.051	0.1718
362.2594	0.1665
362.4678	0.1821
362.6762	0.1911
362.8846	0.1807
363.093	0.1754
363.3014	0.1798
363.5097	0.1602
363.718	0.1739
363.9264	0.1767
364.1347	0.1771
364.343	0.1968
364.5513	0.1979
364.7595	0.1987
364.9678	0.1867
365.176	0.195
365.3842	0.1826
365.5925	0.1993
365.8007	0.192
366.0089	0.1882
366.217	0.1818
366.4252	0.1929
366.6333	0.2164
366.8415	0.2089
367.0496	0.1814
367.2577	0.2002
367.4658	0.2066
367.6739	0.2106
367.882	0.1975
368.09	0.1953
368.2981	0.2098
368.5061	0.1829
368.7141	0.1954
368.9221	0.2041
369.1301	0.2053
369.3381	0.2003
369.5461	0.211
369.754	0.1994
369.962	0.2084
370.1699	0.22
370.3778	0.2153
370.5857	0.1933
370.7936	0.2134
371.0015	0.2196
371.2093	0.2174
371.4172	0.215
371.625	0.2049
371.8328	0.2072
372.0406	0.221
372.2484	0.2085
372.4562	0.2084
372.664	0.2233
372.8717	0.2166
373.0795	0.2012
373.2872	0.2132
373.4949	0.2028
373.7026	0.2343
373.9103	0.2164
374.118	0.2189
374.3256	0.2042
374.5333	0.2217
374.7409	0.2185
374.9485	0.2262
375.1561	0.2308
375.3637	0.2395
375.5713	0.2146
375.7789	0.2281
375.9864	0.2192
376.194	0.1916
376.4015	0.2352
376.609	0.2261
376.8165	0.2175
377.024	0.2198
377.2315	0.2251
377.4389	0.2275
377.6464	0.2273
377.8538	0.2334
378.0612	0.2127
378.2686	0.2314
378.476	0.2315
378.6834	0.2284
378.8908	0.2272
379.0981	0.2252
379.3055	0.2337
379.5128	0.2294
379.7201	0.2347
379.9274	0.2239
380.1347	0.2417
380.342	0.2564
380.5492	0.2418
380.7565	0.2426
380.9637	0.2305
381.1709	0.2317
381.3781	0.2291
381.5853	0.2559
381.7925	0.2374
381.9997	0.2545
382.2068	0.2456
382.4139	0.2322
382.6211	0.2267
382.8282	0.2588
383.0353	0.254
383.2424	0.2426
383.4494	0.2434
383.6565	0.2343
383.8635	0.2359
384.0706	0.246
384.2776	0.2459
384.4846	0.2306
384.6916	0.2357
384.8986	0.2358
385.1055	0.2337
385.3125	0.2328
385.5194	0.2221
385.7263	0.2601
385.9333	0.2376
386.1402	0.2365
386.347	0.2426
386.5539	0.2313
386.7608	0.2317
386.9676	0.2285
387.1744	0.2569
387.3813	0.2323
387.5881	0.2287
387.7948	0.23
388.0016	0.2385
388.2084	0.2368
388.4151	0.2442
388.6219	0.2371
388.8286	0.2264
389.0353	0.253
389.242	0.2365
389.4487	0.2367
389.6553	0.2145
389.862	0.2054
390.0686	0.2194
390.2753	0.2338
390.4819	0.2381
390.6885	0.2142
390.8951	0.2386
391.1016	0.2177
391.3082	0.2223
391.5147	0.2162
391.7213	0.2264
391.9278	0.2228
392.1343	0.216
392.3408	0.219
392.5473	0.214
392.7537	0.2074
392.9602	0.2086
393.1666	0.2086
393.373	0.2286
393.5794	0.2222
393.7858	0.2063
393.9922	0.1912
394.1986	0.2159
394.4049	0.2107
394.6113	0.2062
394.8176	0.2068
395.0239	0.2022
395.2302	0.206
395.4365	0.2042
395.6428	0.2045
395.8491	0.1914
396.0553	0.1923
396.2615	0.2126
396.4678	0.2004
396.674	0.1879
396.8802	0.2032
397.0863	0.2226
397.2925	0.1986
397.4987	0.2039
397.7048	0.2093
397.9109	0.2141
398.117	0.1907
398.3231	0.1975
398.5292	0.203
398.7353	0.2035
398.9413	0.1913
399.1474	0.1879
399.3534	0.206
399.5594	0.1783
399.7654	0.2013
399.9714	0.1942
400.1774	0.1958
400.3833	0.1936
400.5893	0.2003
400.7952	0.1865
401.0011	0.1793
401.207	0.1971
401.4129	0.2049
401.6188	0.198
401.8247	0.1984
402.0305	0.1936
402.2364	0.1912
402.4422	0.2143
402.648	0.1981
402.8538	0.1909
403.0596	0.2004
403.2654	0.2122
403.4711	0.1828
403.6768	0.2129
403.8826	0.2119
404.0883	0.1957
404.294	0.1897
404.4997	0.2027
404.7054	0.1852
404.911	0.1863
405.1167	0.2033
405.3223	0.2192
405.5279	0.1987
405.7335	0.2143
405.9391	0.2101
406.1447	0.1992
406.3502	0.2049
406.5558	0.1986
406.7613	0.1915
406.9668	0.1909
407.1724	0.1947
407.3778	0.1899
407.5833	0.181
407.7888	0.1754
407.9942	0.2148
408.1997	0.2067
408.4051	0.1917
408.6105	0.1878
408.8159	0.1678
409.0213	0.1889
409.2267	0.1993
409.432	0.1809
409.6374	0.2299
409.8427	0.1793
410.048	0.2017
410.2533	0.1769
410.4586	0.1836
410.6639	0.1859
410.8691	0.1774
411.0744	0.1777
411.2796	0.1806
411.4848	0.1893
411.69	0.18
411.8952	0.2015
412.1004	0.184
412.3056	0.1858
412.5107	0.1874
412.7158	0.2128
412.921	0.2061
413.1261	0.2007
413.3312	0.1817
413.5362	0.169
413.7413	0.1807
413.9464	0.2043
414.1514	0.188
414.3564	0.1862
414.5614	0.1632
414.7664	0.1758
414.9714	0.1879
415.1764	0.191
415.3813	0.1895
415.5863	0.1798
415.7912	0.1954
415.9961	0.1976
416.201	0.189
416.4059	0.1934
416.6108	0.1518
416.8156	0.1968
417.0205	0.1725
417.2253	0.1759
417.4301	0.1809
417.6349	0.1821
417.8397	0.186
418.0445	0.1847
418.2492	0.1911
418.454	0.1914
418.6587	0.192
418.8634	0.1929
419.0681	0.1732
419.2728	0.1845
419.4775	0.1739
419.6822	0.1631
419.8868	0.1639
420.0915	0.1823
420.2961	0.1711
420.5007	0.1719
420.7053	0.1672
420.9099	0.1733
421.1144	0.1736
421.319	0.1556
421.5235	0.1733
421.728	0.172
421.9325	0.1823
422.137	0.1854
422.3415	0.1679
422.546	0.1699
422.7504	0.1542
422.9549	0.1602
423.1593	0.1655
423.3637	0.172
423.5681	0.158
423.7725	0.1629
423.9769	0.1566
424.1812	0.1507
424.3856	0.1611
424.5899	0.1631
424.7942	0.1674
424.9985	0.1667
425.2028	0.1614
425.4071	0.1856
425.6113	0.1447
425.8156	0.177
426.0198	0.1738
426.224	0.1398
426.4282	0.1514
