Data from MonoPyChalIsomerACN10uM440nmA_Absorbance_15-27-18-194.txt Node
Date: Fri Jul 05 15:27:18 BST 2024
User: LASERRRRR
Spectrometer: FLMT03099
Trigger mode: 0
Integration Time (sec): 1.000000E-1
Scans to average: 1
Electric dark correction enabled: true
Nonlinearity correction enabled: false
Boxcar width: 0
XAxis mode: Wavelengths
Number of Pixels in Spectrum: 3648
>>>>>Begin Spectral Data<<<<<
179.3399	0.2385
179.5586	0.2385
179.7771	0.2385
179.9957	-0.0557
180.2143	0.2098
180.4329	0.0568
180.6514	-0
180.8699	-0
181.0885	0.0782
181.307	0.5872
181.5255	-0.7801
181.744	-0.5954
181.9625	-0.4686
182.181	-0
182.3994	-0
182.6179	-0
182.8363	0.0993
183.0547	-0.0802
183.2732	0.1885
183.4916	0.0994
183.71	0.1011
183.9284	0.2519
184.1467	-0.0309
184.3651	0.03
184.5835	-0.0467
184.8018	0.2182
185.0201	0.5685
185.2385	-0.0744
185.4568	0.2157
185.6751	0.2624
185.8934	0.0907
186.1117	0.1302
186.3299	0.0758
186.5482	0.1178
186.7664	0.1205
186.9847	0.0385
187.2029	0.0272
187.4211	0.0955
187.6393	-0.0724
187.8575	0.0644
188.0757	0.1634
188.2939	-0.013
188.512	0.2141
188.7302	0.1371
188.9483	0.0548
189.1665	0.1747
189.3846	-0.2379
189.6027	0.3521
189.8208	0.2581
190.0389	0.219
190.257	0.1392
190.475	0.2817
190.6931	0.3946
190.9111	0.4125
191.1292	0.2902
191.3472	0.5034
191.5652	0.3379
191.7832	0.1543
192.0012	0.5974
192.2192	0.3407
192.4371	0.4825
192.6551	0.8442
192.873	0.4485
193.091	0.4436
193.3089	0.3831
193.5268	0.3145
193.7447	0.8878
193.9626	0.4882
194.1805	0.6047
194.3984	1.1396
194.6162	0.5066
194.8341	0.5019
195.0519	0.5656
195.2697	0.6174
195.4875	0.6176
195.7054	0.6126
195.9231	0.5938
196.1409	0.6998
196.3587	0.5655
196.5765	0.5739
196.7942	0.7109
197.012	0.5182
197.2297	0.5205
197.4474	0.9715
197.6651	0.6613
197.8828	0.6214
198.1005	0.7258
198.3182	0.6182
198.5358	1.0583
198.7535	0.6251
198.9711	0.5592
199.1888	0.9968
199.4064	0.9701
199.624	0.6637
199.8416	0.5743
200.0592	0.5905
200.2767	0.7218
200.4943	0.7566
200.7119	0.8767
200.9294	0.6052
201.1469	0.5255
201.3645	0.5827
201.582	0.5443
201.7995	0.5864
202.017	0.7182
202.2344	0.6994
202.4519	0.5919
202.6694	0.6091
202.8868	0.6999
203.1042	0.8726
203.3217	0.7173
203.5391	0.6075
203.7565	0.6904
203.9739	0.616
204.1913	0.6574
204.4086	0.7358
204.626	0.7571
204.8433	0.7148
205.0607	0.5987
205.278	0.6815
205.4953	0.6001
205.7126	0.6832
205.9299	0.9212
206.1472	0.684
206.3644	0.6723
206.5817	0.6377
206.7989	0.6704
207.0162	0.6531
207.2334	0.667
207.4506	0.6628
207.6678	0.6634
207.885	0.7054
208.1022	0.6955
208.3194	0.6408
208.5365	0.7053
208.7537	0.5988
208.9708	0.6156
209.1879	0.701
209.405	0.675
209.6222	0.6992
209.8392	0.6516
210.0563	0.6231
210.2734	0.6868
210.4905	0.625
210.7075	0.6506
210.9245	0.5854
211.1416	0.7406
211.3586	0.6721
211.5756	0.6296
211.7926	0.6451
212.0096	0.6114
212.2265	0.5339
212.4435	0.5867
212.6604	0.6065
212.8774	0.594
213.0943	0.6387
213.3112	0.5789
213.5281	0.5126
213.745	0.507
213.9619	0.5141
214.1788	0.4828
214.3956	0.4539
214.6125	0.4691
214.8293	0.4719
215.0461	0.51
215.2629	0.4916
215.4798	0.4482
215.6965	0.4212
215.9133	0.4367
216.1301	0.419
216.3469	0.4385
216.5636	0.4059
216.7803	0.4288
216.9971	0.4017
217.2138	0.4035
217.4305	0.3757
217.6472	0.3547
217.8639	0.3911
218.0805	0.3661
218.2972	0.3563
218.5138	0.3277
218.7305	0.3027
218.9471	0.3139
219.1637	0.3085
219.3803	0.3168
219.5969	0.2743
219.8135	0.2686
220.0301	0.2838
220.2466	0.2742
220.4632	0.2385
220.6797	0.2409
220.8962	0.239
221.1127	0.2476
221.3292	0.2396
221.5457	0.2264
221.7622	0.2318
221.9787	0.2438
222.1951	0.238
222.4116	0.261
222.628	0.2561
222.8444	0.2639
223.0608	0.2395
223.2772	0.2277
223.4936	0.2482
223.71	0.2456
223.9264	0.274
224.1427	0.26
224.3591	0.2436
224.5754	0.2795
224.7917	0.2565
225.008	0.2558
225.2243	0.2613
225.4406	0.2753
225.6569	0.2619
225.8732	0.2647
226.0894	0.2551
226.3057	0.2716
226.5219	0.2704
226.7381	0.2446
226.9543	0.2785
227.1705	0.2729
227.3867	0.2662
227.6029	0.2871
227.8191	0.2788
228.0352	0.2894
228.2513	0.2958
228.4675	0.2968
228.6836	0.2874
228.8997	0.2718
229.1158	0.2987
229.3319	0.2979
229.548	0.301
229.764	0.3233
229.9801	0.3123
230.1961	0.3171
230.4121	0.3372
230.6282	0.3339
230.8442	0.3351
231.0602	0.3403
231.2761	0.3546
231.4921	0.3432
231.7081	0.3484
231.924	0.3278
232.14	0.3497
232.3559	0.3426
232.5718	0.3478
232.7877	0.3523
233.0036	0.3456
233.2195	0.3575
233.4353	0.3627
233.6512	0.3648
233.867	0.3451
234.0829	0.3464
234.2987	0.3687
234.5145	0.3479
234.7303	0.3734
234.9461	0.3714
235.1619	0.3818
235.3776	0.3492
235.5934	0.3855
235.8091	0.3543
236.0249	0.3736
236.2406	0.3755
236.4563	0.3881
236.672	0.4082
236.8877	0.3979
237.1034	0.3851
237.319	0.3779
237.5347	0.394
237.7503	0.4033
237.966	0.3931
238.1816	0.3951
238.3972	0.3959
238.6128	0.394
238.8284	0.388
239.0439	0.3996
239.2595	0.4048
239.475	0.4119
239.6906	0.4165
239.9061	0.4181
240.1216	0.4029
240.3371	0.3808
240.5526	0.4
240.7681	0.3885
240.9836	0.3873
241.199	0.4054
241.4145	0.3812
241.6299	0.4031
241.8453	0.3731
242.0607	0.377
242.2761	0.3742
242.4915	0.3713
242.7069	0.3596
242.9223	0.3525
243.1376	0.355
243.353	0.3617
243.5683	0.3408
243.7836	0.3338
243.9989	0.3398
244.2142	0.3301
244.4295	0.3378
244.6448	0.3128
244.86	0.3047
245.0753	0.3002
245.2905	0.2945
245.5057	0.2998
245.721	0.2874
245.9362	0.2808
246.1514	0.28
246.3665	0.2626
246.5817	0.2554
246.7969	0.2638
247.012	0.2337
247.2271	0.2454
247.4423	0.2512
247.6574	0.2555
247.8725	0.2438
248.0876	0.2299
248.3026	0.2289
248.5177	0.2291
248.7328	0.2196
248.9478	0.2077
249.1628	0.228
249.3779	0.2166
249.5929	0.1971
249.8079	0.2269
250.0228	0.2081
250.2378	0.2092
250.4528	0.2121
250.6677	0.1815
250.8827	0.1948
251.0976	0.1836
251.3125	0.1943
251.5274	0.1783
251.7423	0.1819
251.9572	0.1826
252.172	0.1773
252.3869	0.175
252.6017	0.1779
252.8166	0.1779
253.0314	0.1756
253.2462	0.1592
253.461	0.1833
253.6758	0.1609
253.8906	0.1711
254.1053	0.1632
254.3201	0.1636
254.5348	0.1914
254.7496	0.187
254.9643	0.1643
255.179	0.1813
255.3937	0.1576
255.6083	0.166
255.823	0.1732
256.0377	0.1656
256.2523	0.1773
256.467	0.1606
256.6816	0.1683
256.8962	0.1721
257.1108	0.1529
257.3254	0.1852
257.54	0.1544
257.7545	0.1658
257.9691	0.175
258.1836	0.1572
258.3981	0.165
258.6127	0.17
258.8272	0.1538
259.0417	0.1615
259.2561	0.1604
259.4706	0.164
259.6851	0.1645
259.8995	0.1604
260.114	0.1518
260.3284	0.161
260.5428	0.1562
260.7572	0.1683
260.9716	0.1724
261.186	0.1652
261.4003	0.1602
261.6147	0.1646
261.829	0.1669
262.0433	0.1627
262.2577	0.1645
262.472	0.1652
262.6863	0.1575
262.9005	0.1533
263.1148	0.1634
263.3291	0.1409
263.5433	0.1646
263.7576	0.1591
263.9718	0.1605
264.186	0.157
264.4002	0.1691
264.6144	0.1553
264.8286	0.1678
265.0427	0.1704
265.2569	0.1669
265.471	0.156
265.6851	0.1669
265.8993	0.1655
266.1134	0.1532
266.3275	0.1649
266.5415	0.1583
266.7556	0.173
266.9697	0.1691
267.1837	0.1698
267.3978	0.1668
267.6118	0.1749
267.8258	0.1685
268.0398	0.16
268.2538	0.1609
268.4677	0.1654
268.6817	0.1522
268.8957	0.1693
269.1096	0.1636
269.3235	0.1634
269.5374	0.163
269.7514	0.1745
269.9652	0.1489
270.1791	0.1586
270.393	0.1564
270.6068	0.1504
270.8207	0.1549
271.0345	0.1578
271.2483	0.1587
271.4622	0.1591
271.676	0.1575
271.8897	0.1459
272.1035	0.1366
272.3173	0.1409
272.531	0.1503
272.7448	0.146
272.9585	0.1259
273.1722	0.1436
273.3859	0.1614
273.5996	0.1408
273.8133	0.1436
274.0269	0.1506
274.2406	0.1454
274.4542	0.1501
274.6679	0.1398
274.8815	0.1555
275.0951	0.1587
275.3087	0.1537
275.5223	0.1576
275.7358	0.1533
275.9494	0.1511
276.1629	0.1321
276.3765	0.1558
276.59	0.1521
276.8035	0.1483
277.017	0.1483
277.2305	0.1384
277.444	0.1602
277.6574	0.1461
277.8709	0.1578
278.0843	0.1429
278.2978	0.1576
278.5112	0.1535
278.7246	0.1466
278.938	0.1566
279.1513	0.1552
279.3647	0.1616
279.5781	0.1495
279.7914	0.1581
280.0047	0.1676
280.2181	0.158
280.4314	0.1583
280.6447	0.1638
280.8579	0.1589
281.0712	0.1587
281.2845	0.1657
281.4977	0.1533
281.711	0.1441
281.9242	0.1568
282.1374	0.1538
282.3506	0.1514
282.5638	0.1584
282.7769	0.1669
282.9901	0.1607
283.2033	0.167
283.4164	0.1579
283.6295	0.154
283.8426	0.1534
284.0557	0.1571
284.2688	0.166
284.4819	0.1649
284.695	0.1616
284.908	0.1682
285.1211	0.1506
285.3341	0.1619
285.5471	0.1602
285.7601	0.1577
285.9731	0.1613
286.1861	0.155
286.3991	0.1605
286.612	0.1689
286.825	0.159
287.0379	0.1564
287.2508	0.1518
287.4637	0.1611
287.6766	0.1567
287.8895	0.1656
288.1024	0.1789
288.3152	0.1533
288.5281	0.1544
288.7409	0.1593
288.9538	0.1562
289.1666	0.1509
289.3794	0.1558
289.5922	0.1536
289.8049	0.1549
290.0177	0.1489
290.2304	0.1669
290.4432	0.1584
290.6559	0.1595
290.8686	0.1615
291.0813	0.1549
291.294	0.1589
291.5067	0.1644
291.7194	0.1503
291.932	0.1654
292.1447	0.1603
292.3573	0.1473
292.5699	0.1606
292.7825	0.1642
292.9951	0.1575
293.2077	0.1644
293.4203	0.148
293.6328	0.1429
293.8454	0.1638
294.0579	0.1526
294.2704	0.157
294.4829	0.1566
294.6954	0.1624
294.9079	0.1547
295.1204	0.1424
295.3328	0.1486
295.5453	0.1533
295.7577	0.1532
295.9701	0.1465
296.1825	0.1573
296.3949	0.146
296.6073	0.1501
296.8197	0.1494
297.0321	0.1611
297.2444	0.1471
297.4567	0.1576
297.6691	0.1581
297.8814	0.1527
298.0937	0.1526
298.306	0.1722
298.5182	0.1624
298.7305	0.1514
298.9428	0.1387
299.155	0.1665
299.3672	0.1415
299.5794	0.1428
299.7916	0.1528
300.0038	0.1638
300.216	0.1598
300.4282	0.147
300.6403	0.1644
300.8525	0.1472
301.0646	0.1389
301.2767	0.1494
301.4888	0.1475
301.7009	0.1511
301.913	0.1445
302.125	0.1547
302.3371	0.1519
302.5491	0.1545
302.7612	0.1525
302.9732	0.1539
303.1852	0.1564
303.3972	0.1489
303.6092	0.1532
303.8211	0.1448
304.0331	0.1496
304.245	0.146
304.457	0.143
304.6689	0.1445
304.8808	0.1557
305.0927	0.1327
305.3046	0.1456
305.5164	0.1461
305.7283	0.1407
305.9401	0.1502
306.152	0.1551
306.3638	0.1346
306.5756	0.1429
306.7874	0.1433
306.9992	0.1398
307.2109	0.1398
307.4227	0.124
307.6344	0.1273
307.8462	0.1318
308.0579	0.131
308.2696	0.1278
308.4813	0.1294
308.693	0.1274
308.9046	0.134
309.1163	0.1179
309.328	0.1281
309.5396	0.1288
309.7512	0.1155
309.9628	0.1223
310.1744	0.1172
310.386	0.1223
310.5976	0.1131
310.8091	0.1185
311.0207	0.1205
311.2322	0.1215
311.4437	0.1123
311.6552	0.1097
311.8667	0.1129
312.0782	0.1038
312.2897	0.0988
312.5012	0.1103
312.7126	0.1025
312.924	0.1151
313.1355	0.1149
313.3469	0.1125
313.5583	0.1087
313.7696	0.1096
313.981	0.1052
314.1924	0.0969
314.4037	0.097
314.6151	0.1192
314.8264	0.0987
315.0377	0.0985
315.249	0.1063
315.4603	0.109
315.6716	0.1044
315.8828	0.1017
316.0941	0.1116
316.3053	0.0981
316.5165	0.1027
316.7277	0.0891
316.9389	0.1012
317.1501	0.0975
317.3613	0.1054
317.5724	0.0928
317.7836	0.1003
317.9947	0.0973
318.2058	0.1013
318.417	0.0856
318.6281	0.0856
318.8391	0.101
319.0502	0.0938
319.2613	0.1116
319.4723	0.1028
319.6834	0.1018
319.8944	0.0979
320.1054	0.1032
320.3164	0.1072
320.5274	0.1089
320.7383	0.1054
320.9493	0.0945
321.1602	0.0992
321.3712	0.0999
321.5821	0.1099
321.793	0.1104
322.0039	0.0962
322.2148	0.0918
322.4257	0.0999
322.6365	0.1124
322.8474	0.1054
323.0582	0.0956
323.269	0.1041
323.4798	0.0994
323.6906	0.1108
323.9014	0.1004
324.1122	0.0984
324.3229	0.1078
324.5337	0.1177
324.7444	0.098
324.9551	0.1187
325.1658	0.105
325.3765	0.113
325.5872	0.1009
325.7979	0.0988
326.0085	0.1116
326.2192	0.1052
326.4298	0.1091
326.6404	0.0997
326.851	0.1034
327.0616	0.1036
327.2722	0.1049
327.4828	0.1243
327.6933	0.1084
327.9039	0.1101
328.1144	0.1159
328.3249	0.1118
328.5354	0.0952
328.7459	0.1074
328.9564	0.1099
329.1669	0.1156
329.3773	0.1107
329.5878	0.1041
329.7982	0.1107
330.0086	0.1175
330.219	0.109
330.4294	0.1128
330.6398	0.1161
330.8502	0.1068
331.0605	0.1057
331.2708	0.1162
331.4812	0.1225
331.6915	0.113
331.9018	0.1185
332.1121	0.106
332.3224	0.1103
332.5326	0.1206
332.7429	0.1092
332.9531	0.1237
333.1633	0.1114
333.3735	0.1119
333.5837	0.1131
333.7939	0.1121
334.0041	0.1134
334.2143	0.1197
334.4244	0.1118
334.6346	0.1043
334.8447	0.1195
335.0548	0.1132
335.2649	0.1113
335.475	0.1156
335.685	0.112
335.8951	0.1255
336.1051	0.109
336.3152	0.1218
336.5252	0.108
336.7352	0.1184
336.9452	0.1223
337.1552	0.1215
337.3652	0.1085
337.5751	0.1075
337.7851	0.1142
337.995	0.1189
338.2049	0.1153
338.4148	0.1131
338.6247	0.121
338.8346	0.1255
339.0445	0.1141
339.2543	0.1205
339.4642	0.1253
339.674	0.1132
339.8838	0.1176
340.0936	0.1129
340.3034	0.1279
340.5132	0.1266
340.7229	0.1218
340.9327	0.12
341.1424	0.1113
341.3522	0.1365
341.5619	0.1284
341.7716	0.1218
341.9813	0.1302
342.1909	0.1208
342.4006	0.1417
342.6102	0.139
342.8199	0.1343
343.0295	0.1294
343.2391	0.1291
343.4487	0.1355
343.6583	0.1255
343.8679	0.1266
344.0774	0.1385
344.287	0.1321
344.4965	0.132
344.706	0.1301
344.9155	0.1296
345.125	0.1374
345.3345	0.1307
345.544	0.1131
345.7534	0.1317
345.9629	0.1268
346.1723	0.1376
346.3817	0.1265
346.5911	0.1357
346.8005	0.1341
347.0099	0.1261
347.2193	0.1276
347.4286	0.1231
347.638	0.1411
347.8473	0.1333
348.0566	0.137
348.2659	0.1346
348.4752	0.1259
348.6845	0.1351
348.8937	0.1422
349.103	0.143
349.3122	0.1332
349.5214	0.1421
349.7306	0.131
349.9398	0.1356
350.149	0.1452
350.3582	0.1283
350.5674	0.15
350.7765	0.1372
350.9856	0.1403
351.1948	0.1402
351.4039	0.1252
351.613	0.1456
351.822	0.1484
352.0311	0.1752
352.2402	0.1497
352.4492	0.1544
352.6582	0.1488
352.8672	0.1388
353.0762	0.1528
353.2852	0.1448
353.4942	0.1347
353.7032	0.1535
353.9121	0.1466
354.1211	0.1463
354.33	0.1389
354.5389	0.1547
354.7478	0.1395
354.9567	0.1327
355.1655	0.1432
355.3744	0.1562
355.5833	0.1489
355.7921	0.174
356.0009	0.1607
356.2097	0.1681
356.4185	0.1599
356.6273	0.1579
356.8361	0.1668
357.0448	0.1611
357.2536	0.1534
357.4623	0.1637
357.671	0.166
357.8797	0.1646
358.0884	0.1651
358.2971	0.1636
358.5057	0.1573
358.7144	0.1639
358.923	0.1573
359.1316	0.1676
359.3402	0.1797
359.5488	0.1674
359.7574	0.1719
359.966	0.1752
360.1746	0.1749
360.3831	0.1835
360.5916	0.1728
360.8002	0.155
361.0087	0.1895
361.2172	0.1669
361.4256	0.174
361.6341	0.1784
361.8426	0.1828
362.051	0.188
362.2594	0.1775
362.4678	0.1782
362.6762	0.2019
362.8846	0.1789
363.093	0.1806
363.3014	0.1883
363.5097	0.1641
363.718	0.1883
363.9264	0.1814
364.1347	0.1743
364.343	0.1814
364.5513	0.1979
364.7595	0.2043
364.9678	0.1838
365.176	0.1915
365.3842	0.1934
365.5925	0.181
365.8007	0.2056
366.0089	0.1949
366.217	0.1821
366.4252	0.2
366.6333	0.1991
366.8415	0.1942
367.0496	0.1876
367.2577	0.1947
367.4658	0.2165
367.6739	0.2047
367.882	0.2156
368.09	0.2026
368.2981	0.2232
368.5061	0.202
368.7141	0.1931
368.9221	0.2183
369.1301	0.1998
369.3381	0.198
369.5461	0.2033
369.754	0.1946
369.962	0.2128
370.1699	0.204
370.3778	0.2267
370.5857	0.1903
370.7936	0.2186
371.0015	0.2003
371.2093	0.2086
371.4172	0.2209
371.625	0.1823
371.8328	0.2096
372.0406	0.2063
372.2484	0.2121
372.4562	0.2255
372.664	0.2085
372.8717	0.2106
373.0795	0.1951
373.2872	0.2043
373.4949	0.2074
373.7026	0.2198
373.9103	0.2216
374.118	0.2149
374.3256	0.2039
374.5333	0.2046
374.7409	0.2109
374.9485	0.2325
375.1561	0.2058
375.3637	0.2124
375.5713	0.216
375.7789	0.2205
375.9864	0.2107
376.194	0.2203
376.4015	0.2319
376.609	0.2342
376.8165	0.2221
377.024	0.2208
377.2315	0.2175
377.4389	0.2277
377.6464	0.2357
377.8538	0.235
378.0612	0.2202
378.2686	0.2366
378.476	0.2361
378.6834	0.2322
378.8908	0.2353
379.0981	0.239
379.3055	0.2294
379.5128	0.2257
379.7201	0.2395
379.9274	0.2279
380.1347	0.217
380.342	0.253
380.5492	0.2258
380.7565	0.23
380.9637	0.2315
381.1709	0.2395
381.3781	0.2308
381.5853	0.2491
381.7925	0.2341
381.9997	0.2427
382.2068	0.2436
382.4139	0.2457
382.6211	0.2141
382.8282	0.2336
383.0353	0.217
383.2424	0.2333
383.4494	0.2339
383.6565	0.233
383.8635	0.2372
384.0706	0.2327
384.2776	0.2259
384.4846	0.2277
384.6916	0.2308
384.8986	0.2469
385.1055	0.2354
385.3125	0.2302
385.5194	0.228
385.7263	0.2515
385.9333	0.2241
386.1402	0.2246
386.347	0.2418
386.5539	0.2051
386.7608	0.2242
386.9676	0.2194
387.1744	0.2515
387.3813	0.2111
387.5881	0.233
387.7948	0.2387
388.0016	0.2249
388.2084	0.2434
388.4151	0.2262
388.6219	0.2397
388.8286	0.2156
389.0353	0.2435
389.242	0.2276
389.4487	0.2467
389.6553	0.2184
389.862	0.2208
390.0686	0.2217
390.2753	0.2225
390.4819	0.2121
390.6885	0.2206
390.8951	0.241
391.1016	0.223
391.3082	0.2026
391.5147	0.2186
391.7213	0.2273
391.9278	0.226
392.1343	0.2077
392.3408	0.2142
392.5473	0.2162
392.7537	0.2176
392.9602	0.1973
393.1666	0.2119
393.373	0.2093
393.5794	0.2198
393.7858	0.2046
393.9922	0.1985
394.1986	0.2099
394.4049	0.2112
394.6113	0.1979
394.8176	0.1812
395.0239	0.2134
395.2302	0.1824
395.4365	0.2183
395.6428	0.2089
395.8491	0.1964
396.0553	0.1996
396.2615	0.226
396.4678	0.198
396.674	0.1856
396.8802	0.2001
397.0863	0.2088
397.2925	0.202
397.4987	0.1892
397.7048	0.1934
397.9109	0.2141
398.117	0.1917
398.3231	0.187
398.5292	0.1973
398.7353	0.1976
398.9413	0.1958
399.1474	0.2049
399.3534	0.1861
399.5594	0.1829
399.7654	0.2121
399.9714	0.2003
400.1774	0.1899
400.3833	0.194
400.5893	0.1983
400.7952	0.2019
401.0011	0.1906
401.207	0.2056
401.4129	0.1833
401.6188	0.209
401.8247	0.2056
402.0305	0.1858
402.2364	0.1813
402.4422	0.2058
402.648	0.1864
402.8538	0.211
403.0596	0.209
403.2654	0.2103
403.4711	0.1981
403.6768	0.1976
403.8826	0.1895
404.0883	0.1983
404.294	0.2062
404.4997	0.1966
404.7054	0.1868
404.911	0.1854
405.1167	0.1907
405.3223	0.1952
405.5279	0.2051
405.7335	0.2073
405.9391	0.2045
406.1447	0.1961
406.3502	0.2114
406.5558	0.2069
406.7613	0.2005
406.9668	0.1976
407.1724	0.1824
407.3778	0.1958
407.5833	0.1905
407.7888	0.1901
407.9942	0.1912
408.1997	0.1905
408.4051	0.1842
408.6105	0.1799
408.8159	0.1897
409.0213	0.1801
409.2267	0.2053
409.432	0.1975
409.6374	0.1952
409.8427	0.1938
410.048	0.1959
410.2533	0.1726
410.4586	0.2098
410.6639	0.1851
410.8691	0.1762
411.0744	0.1902
411.2796	0.1706
411.4848	0.1907
411.69	0.1877
411.8952	0.1977
412.1004	0.2103
412.3056	0.1898
412.5107	0.1746
412.7158	0.1949
412.921	0.1833
413.1261	0.1866
413.3312	0.1766
413.5362	0.1679
413.7413	0.182
413.9464	0.1731
414.1514	0.1843
414.3564	0.1796
414.5614	0.171
414.7664	0.192
414.9714	0.1795
415.1764	0.1752
415.3813	0.1932
415.5863	0.1844
415.7912	0.1986
415.9961	0.1845
416.201	0.1936
416.4059	0.1845
416.6108	0.1804
416.8156	0.1826
417.0205	0.1692
417.2253	0.1706
417.4301	0.1929
417.6349	0.1837
417.8397	0.1701
418.0445	0.1789
418.2492	0.1859
418.454	0.1913
418.6587	0.1965
418.8634	0.1879
419.0681	0.1695
419.2728	0.1641
419.4775	0.1606
419.6822	0.1727
419.8868	0.1499
420.0915	0.1681
420.2961	0.1684
420.5007	0.1603
420.7053	0.1718
420.9099	0.183
421.1144	0.1782
421.319	0.1421
421.5235	0.183
421.728	0.1668
421.9325	0.1722
422.137	0.1797
422.3415	0.1672
422.546	0.1705
422.7504	0.1752
422.9549	0.1689
423.1593	0.1587
423.3637	0.1731
423.5681	0.1433
423.7725	0.146
423.9769	0.1567
424.1812	0.1505
424.3856	0.1513
424.5899	0.1727
424.7942	0.1494
424.9985	0.1517
425.2028	0.1504
425.4071	0.1745
425.6113	0.1455
425.8156	0.1528
426.0198	0.1532
426.224	0.1569
426.4282	0.1446
426.6324	0.1433
