Data from MonoPyChalIsomerACN10uM440nmA_Absorbance_15-27-15-594.txt Node
Date: Fri Jul 05 15:27:15 BST 2024
User: LASERRRRR
Spectrometer: FLMT03099
Trigger mode: 0
Integration Time (sec): 1.000000E-1
Scans to average: 1
Electric dark correction enabled: true
Nonlinearity correction enabled: false
Boxcar width: 0
XAxis mode: Wavelengths
Number of Pixels in Spectrum: 3648
>>>>>Begin Spectral Data<<<<<
179.3399	-0.3991
179.5586	-0.3991
179.7771	-0.3991
179.9957	0.715
180.2143	-0
180.4329	-0.2451
180.6514	0.393
180.8699	-0
181.0885	-0.2307
181.307	0.0283
181.5255	-0
181.744	-0.786
181.9625	-0
182.181	-0
182.3994	0.3539
182.6179	1.3245
182.8363	0.3053
183.0547	-0.1907
183.2732	0.0507
183.4916	0.1213
183.71	0.1871
183.9284	0.1242
184.1467	-0.1423
184.3651	0.0776
184.5835	0.0228
184.8018	0.0876
185.0201	0.0914
185.2385	0.0898
185.4568	0.8108
185.6751	-0.0647
185.8934	0.1484
186.1117	0.0908
186.3299	0.1827
186.5482	0.0885
186.7664	-0.1056
186.9847	-0.0519
187.2029	0.086
187.4211	0.0832
187.6393	0.1494
187.8575	0.0431
188.0757	0.2069
188.2939	0.0853
188.512	0.8734
188.7302	0.1124
188.9483	0.1412
189.1665	0.294
189.3846	-0
189.6027	0.2244
189.8208	0.0799
190.0389	0.327
190.257	0.1999
190.475	0.3484
190.6931	0.2569
190.9111	0.7256
191.1292	0.2893
191.3472	0.5486
191.5652	0.521
191.7832	0.3274
192.0012	0.8866
192.2192	0.4919
192.4371	0.3612
192.6551	0.3818
192.873	0.4604
193.091	0.6405
193.3089	1.3417
193.5268	0.6107
193.7447	0.6373
193.9626	0.4276
194.1805	0.5496
194.3984	1.1366
194.6162	0.4738
194.8341	0.461
195.0519	0.4352
195.2697	0.8054
195.4875	0.7546
195.7054	0.7085
195.9231	0.4624
196.1409	0.6934
196.3587	0.6522
196.5765	0.7663
196.7942	0.6523
197.012	0.5088
197.2297	0.6102
197.4474	0.9331
197.6651	0.595
197.8828	0.6405
198.1005	0.5862
198.3182	0.5972
198.5358	0.7969
198.7535	0.5578
198.9711	0.6083
199.1888	0.522
199.4064	0.9622
199.624	0.5974
199.8416	0.6465
200.0592	0.6736
200.2767	0.6835
200.4943	0.8234
200.7119	0.8174
200.9294	0.7067
201.1469	0.6576
201.3645	0.639
201.582	0.5642
201.7995	0.6286
202.017	0.6827
202.2344	0.645
202.4519	0.7629
202.6694	0.8573
202.8868	0.5354
203.1042	0.7785
203.3217	0.7168
203.5391	0.7548
203.7565	0.6072
203.9739	0.6136
204.1913	0.6421
204.4086	0.6747
204.626	0.6615
204.8433	0.724
205.0607	0.6674
205.278	0.7206
205.4953	0.6354
205.7126	0.734
205.9299	0.7836
206.1472	0.6543
206.3644	0.648
206.5817	0.6901
206.7989	0.6682
207.0162	0.7068
207.2334	0.7147
207.4506	0.6767
207.6678	0.7726
207.885	0.7154
208.1022	0.7123
208.3194	0.6499
208.5365	0.6581
208.7537	0.623
208.9708	0.5659
209.1879	0.6813
209.405	0.6911
209.6222	0.7317
209.8392	0.6608
210.0563	0.6602
210.2734	0.6515
210.4905	0.6417
210.7075	0.6292
210.9245	0.6305
211.1416	0.8158
211.3586	0.6018
211.5756	0.6482
211.7926	0.712
212.0096	0.6429
212.2265	0.5556
212.4435	0.5341
212.6604	0.6102
212.8774	0.6018
213.0943	0.5975
213.3112	0.5327
213.5281	0.529
213.745	0.4957
213.9619	0.5149
214.1788	0.486
214.3956	0.4759
214.6125	0.4799
214.8293	0.447
215.0461	0.4625
215.2629	0.4522
215.4798	0.4866
215.6965	0.4346
215.9133	0.4718
216.1301	0.4107
216.3469	0.4457
216.5636	0.4124
216.7803	0.4045
216.9971	0.3916
217.2138	0.3741
217.4305	0.3723
217.6472	0.3506
217.8639	0.3807
218.0805	0.3565
218.2972	0.3233
218.5138	0.298
218.7305	0.3035
218.9471	0.3077
219.1637	0.2863
219.3803	0.2894
219.5969	0.2861
219.8135	0.2728
220.0301	0.253
220.2466	0.253
220.4632	0.2707
220.6797	0.2259
220.8962	0.2454
221.1127	0.2726
221.3292	0.2399
221.5457	0.2378
221.7622	0.2202
221.9787	0.2523
222.1951	0.2454
222.4116	0.2438
222.628	0.2275
222.8444	0.2461
223.0608	0.2362
223.2772	0.2583
223.4936	0.2482
223.71	0.2465
223.9264	0.2581
224.1427	0.2436
224.3591	0.2529
224.5754	0.2459
224.7917	0.265
225.008	0.2505
225.2243	0.2587
225.4406	0.2873
225.6569	0.2596
225.8732	0.263
226.0894	0.2448
226.3057	0.2727
226.5219	0.2792
226.7381	0.2765
226.9543	0.2798
227.1705	0.2878
227.3867	0.264
227.6029	0.2848
227.8191	0.2895
228.0352	0.2809
228.2513	0.3011
228.4675	0.3006
228.6836	0.2815
228.8997	0.2786
229.1158	0.2997
229.3319	0.2989
229.548	0.3104
229.764	0.3241
229.9801	0.335
230.1961	0.3127
230.4121	0.3126
230.6282	0.3285
230.8442	0.317
231.0602	0.3403
231.2761	0.3471
231.4921	0.3434
231.7081	0.3565
231.924	0.3538
232.14	0.3476
232.3559	0.357
232.5718	0.3568
232.7877	0.3488
233.0036	0.3607
233.2195	0.3679
233.4353	0.3585
233.6512	0.3743
233.867	0.3561
234.0829	0.3511
234.2987	0.362
234.5145	0.3539
234.7303	0.3764
234.9461	0.3862
235.1619	0.3675
235.3776	0.3809
235.5934	0.3963
235.8091	0.3705
236.0249	0.3643
236.2406	0.3918
236.4563	0.3756
236.672	0.3979
236.8877	0.3938
237.1034	0.384
237.319	0.3872
237.5347	0.4075
237.7503	0.3784
237.966	0.4171
238.1816	0.4084
238.3972	0.4144
238.6128	0.3807
238.8284	0.3939
239.0439	0.4029
239.2595	0.3927
239.475	0.4176
239.6906	0.4191
239.9061	0.4052
240.1216	0.4067
240.3371	0.3981
240.5526	0.3986
240.7681	0.4037
240.9836	0.4027
241.199	0.4025
241.4145	0.3946
241.6299	0.3744
241.8453	0.3917
242.0607	0.3879
242.2761	0.3628
242.4915	0.3715
242.7069	0.3545
242.9223	0.3518
243.1376	0.3507
243.353	0.347
243.5683	0.3418
243.7836	0.3252
243.9989	0.3332
244.2142	0.3045
244.4295	0.3109
244.6448	0.321
244.86	0.2838
245.0753	0.2965
245.2905	0.2847
245.5057	0.2739
245.721	0.2747
245.9362	0.2676
246.1514	0.2727
246.3665	0.2534
246.5817	0.2564
246.7969	0.2574
247.012	0.2572
247.2271	0.2333
247.4423	0.2525
247.6574	0.2266
247.8725	0.2269
248.0876	0.235
248.3026	0.2233
248.5177	0.2205
248.7328	0.2253
248.9478	0.2088
249.1628	0.2054
249.3779	0.2212
249.5929	0.2053
249.8079	0.21
250.0228	0.1987
250.2378	0.2127
250.4528	0.1962
250.6677	0.1863
250.8827	0.2037
251.0976	0.1969
251.3125	0.1846
251.5274	0.1765
251.7423	0.1818
251.9572	0.1891
252.172	0.1777
252.3869	0.1879
252.6017	0.177
252.8166	0.1661
253.0314	0.1676
253.2462	0.1644
253.461	0.181
253.6758	0.1602
253.8906	0.1763
254.1053	0.1784
254.3201	0.1742
254.5348	0.1777
254.7496	0.168
254.9643	0.1608
255.179	0.171
255.3937	0.1617
255.6083	0.1655
255.823	0.1603
256.0377	0.1615
256.2523	0.1785
256.467	0.1532
256.6816	0.1903
256.8962	0.167
257.1108	0.1555
257.3254	0.1742
257.54	0.1562
257.7545	0.1782
257.9691	0.18
258.1836	0.1712
258.3981	0.1869
258.6127	0.1713
258.8272	0.1594
259.0417	0.1689
259.2561	0.171
259.4706	0.1679
259.6851	0.1676
259.8995	0.1576
260.114	0.1634
260.3284	0.1703
260.5428	0.1604
260.7572	0.1656
260.9716	0.1675
261.186	0.1471
261.4003	0.1659
261.6147	0.172
261.829	0.1728
262.0433	0.1643
262.2577	0.1613
262.472	0.1673
262.6863	0.1538
262.9005	0.1542
263.1148	0.1544
263.3291	0.1531
263.5433	0.167
263.7576	0.1598
263.9718	0.1664
264.186	0.157
264.4002	0.1623
264.6144	0.1702
264.8286	0.1717
265.0427	0.1684
265.2569	0.1534
265.471	0.1429
265.6851	0.1556
265.8993	0.1535
266.1134	0.1626
266.3275	0.1654
266.5415	0.1672
266.7556	0.1669
266.9697	0.1691
267.1837	0.1668
267.3978	0.1667
267.6118	0.1767
267.8258	0.1729
268.0398	0.1459
268.2538	0.1629
268.4677	0.1539
268.6817	0.1514
268.8957	0.1604
269.1096	0.1624
269.3235	0.1667
269.5374	0.1567
269.7514	0.1499
269.9652	0.1448
270.1791	0.1562
270.393	0.1479
270.6068	0.1557
270.8207	0.1477
271.0345	0.1491
271.2483	0.1576
271.4622	0.1469
271.676	0.155
271.8897	0.1459
272.1035	0.1415
272.3173	0.1369
272.531	0.1455
272.7448	0.1427
272.9585	0.1366
273.1722	0.1546
273.3859	0.1558
273.5996	0.1414
273.8133	0.1537
274.0269	0.1342
274.2406	0.1325
274.4542	0.1365
274.6679	0.1327
274.8815	0.1491
275.0951	0.1505
275.3087	0.1645
275.5223	0.1604
275.7358	0.1607
275.9494	0.1579
276.1629	0.1369
276.3765	0.1439
276.59	0.1527
276.8035	0.1507
277.017	0.1412
277.2305	0.1377
277.444	0.1471
277.6574	0.1399
277.8709	0.1509
278.0843	0.1505
278.2978	0.1475
278.5112	0.1408
278.7246	0.1462
278.938	0.1551
279.1513	0.1533
279.3647	0.1681
279.5781	0.1515
279.7914	0.1513
280.0047	0.1537
280.2181	0.1629
280.4314	0.1615
280.6447	0.1542
280.8579	0.1547
281.0712	0.1676
281.2845	0.1473
281.4977	0.1522
281.711	0.1419
281.9242	0.1508
282.1374	0.157
282.3506	0.1531
282.5638	0.1636
282.7769	0.1567
282.9901	0.1587
283.2033	0.162
283.4164	0.1659
283.6295	0.1364
283.8426	0.158
284.0557	0.1595
284.2688	0.1585
284.4819	0.1541
284.695	0.1703
284.908	0.168
285.1211	0.1561
285.3341	0.1612
285.5471	0.1598
285.7601	0.1599
285.9731	0.159
286.1861	0.1551
286.3991	0.1641
286.612	0.166
286.825	0.1565
287.0379	0.1633
287.2508	0.1625
287.4637	0.1542
287.6766	0.1494
287.8895	0.1629
288.1024	0.1758
288.3152	0.1618
288.5281	0.1554
288.7409	0.1695
288.9538	0.151
289.1666	0.1563
289.3794	0.1651
289.5922	0.1678
289.8049	0.1651
290.0177	0.1467
290.2304	0.1597
290.4432	0.1741
290.6559	0.1616
290.8686	0.1644
291.0813	0.1613
291.294	0.1657
291.5067	0.1676
291.7194	0.168
291.932	0.1791
292.1447	0.1653
292.3573	0.1595
292.5699	0.1647
292.7825	0.1726
292.9951	0.1565
293.2077	0.1603
293.4203	0.1629
293.6328	0.1549
293.8454	0.1644
294.0579	0.1578
294.2704	0.1633
294.4829	0.1535
294.6954	0.1658
294.9079	0.1634
295.1204	0.1601
295.3328	0.1558
295.5453	0.1595
295.7577	0.1589
295.9701	0.1497
296.1825	0.1545
296.3949	0.1703
296.6073	0.1576
296.8197	0.1567
297.0321	0.1635
297.2444	0.1583
297.4567	0.1694
297.6691	0.1652
297.8814	0.1574
298.0937	0.1641
298.306	0.1742
298.5182	0.1532
298.7305	0.1639
298.9428	0.1508
299.155	0.1603
299.3672	0.1609
299.5794	0.1604
299.7916	0.1622
300.0038	0.1608
300.216	0.1671
300.4282	0.1572
300.6403	0.1519
300.8525	0.1707
301.0646	0.1475
301.2767	0.1524
301.4888	0.1563
301.7009	0.156
301.913	0.1635
302.125	0.1574
302.3371	0.1483
302.5491	0.1615
302.7612	0.1569
302.9732	0.1588
303.1852	0.1609
303.3972	0.1594
303.6092	0.1535
303.8211	0.1519
304.0331	0.1529
304.245	0.1498
304.457	0.1554
304.6689	0.1401
304.8808	0.1621
305.0927	0.1477
305.3046	0.1494
305.5164	0.1537
305.7283	0.1475
305.9401	0.1437
306.152	0.1429
306.3638	0.1502
306.5756	0.1441
306.7874	0.1407
306.9992	0.1508
307.2109	0.1358
307.4227	0.1326
307.6344	0.1417
307.8462	0.1405
308.0579	0.1326
308.2696	0.1283
308.4813	0.1242
308.693	0.1297
308.9046	0.1357
309.1163	0.1218
309.328	0.1277
309.5396	0.1135
309.7512	0.1291
309.9628	0.1192
310.1744	0.1201
310.386	0.1093
310.5976	0.1135
310.8091	0.1199
311.0207	0.1194
311.2322	0.1253
311.4437	0.1124
311.6552	0.1097
311.8667	0.1113
312.0782	0.1041
312.2897	0.0876
312.5012	0.1194
312.7126	0.1038
312.924	0.1047
313.1355	0.115
313.3469	0.1086
313.5583	0.1139
313.7696	0.102
313.981	0.1089
314.1924	0.1055
314.4037	0.1002
314.6151	0.1109
314.8264	0.1017
315.0377	0.0967
315.249	0.1028
315.4603	0.1111
315.6716	0.1089
315.8828	0.0947
316.0941	0.0949
316.3053	0.0922
316.5165	0.0974
316.7277	0.1058
316.9389	0.0967
317.1501	0.0918
317.3613	0.1071
317.5724	0.0846
317.7836	0.0969
317.9947	0.0991
318.2058	0.1038
318.417	0.0917
318.6281	0.0902
318.8391	0.0961
319.0502	0.0958
319.2613	0.0927
319.4723	0.1052
319.6834	0.1001
319.8944	0.0891
320.1054	0.1012
320.3164	0.0973
320.5274	0.0915
320.7383	0.1019
320.9493	0.1047
321.1602	0.1063
321.3712	0.0863
321.5821	0.1113
321.793	0.1058
322.0039	0.0992
322.2148	0.0908
322.4257	0.1026
322.6365	0.1041
322.8474	0.1066
323.0582	0.0952
323.269	0.1054
323.4798	0.0975
323.6906	0.1064
323.9014	0.0966
324.1122	0.1033
324.3229	0.107
324.5337	0.1094
324.7444	0.092
324.9551	0.1128
325.1658	0.0992
325.3765	0.1099
325.5872	0.1124
325.7979	0.1092
326.0085	0.1092
326.2192	0.1123
326.4298	0.1181
326.6404	0.1007
326.851	0.0931
327.0616	0.1005
327.2722	0.1038
327.4828	0.1119
327.6933	0.0967
327.9039	0.1071
328.1144	0.1105
328.3249	0.096
328.5354	0.0954
328.7459	0.101
328.9564	0.1013
329.1669	0.1136
329.3773	0.1056
329.5878	0.1012
329.7982	0.0958
330.0086	0.0957
330.219	0.1154
330.4294	0.1025
330.6398	0.0955
330.8502	0.1092
331.0605	0.1056
331.2708	0.1233
331.4812	0.1092
331.6915	0.105
331.9018	0.1126
332.1121	0.105
332.3224	0.1111
332.5326	0.1125
332.7429	0.1151
332.9531	0.112
333.1633	0.1056
333.3735	0.1025
333.5837	0.1123
333.7939	0.0884
334.0041	0.1101
334.2143	0.1204
334.4244	0.1004
334.6346	0.098
334.8447	0.1227
335.0548	0.0956
335.2649	0.0977
335.475	0.1199
335.685	0.0989
335.8951	0.1143
336.1051	0.1201
336.3152	0.1088
336.5252	0.1077
336.7352	0.1144
336.9452	0.1071
337.1552	0.1203
337.3652	0.1097
337.5751	0.1066
337.7851	0.1232
337.995	0.1045
338.2049	0.1153
338.4148	0.1134
338.6247	0.1268
338.8346	0.1151
339.0445	0.1069
339.2543	0.113
339.4642	0.1124
339.674	0.1066
339.8838	0.1195
340.0936	0.1126
340.3034	0.1176
340.5132	0.1165
340.7229	0.1151
340.9327	0.1135
341.1424	0.1144
341.3522	0.1219
341.5619	0.1221
341.7716	0.1159
341.9813	0.1269
342.1909	0.1179
342.4006	0.1288
342.6102	0.1337
342.8199	0.1201
343.0295	0.1235
343.2391	0.1266
343.4487	0.1377
343.6583	0.1136
343.8679	0.1245
344.0774	0.1296
344.287	0.1339
344.4965	0.1261
344.706	0.1281
344.9155	0.1223
345.125	0.122
345.3345	0.1362
345.544	0.1235
345.7534	0.1349
345.9629	0.1268
346.1723	0.1318
346.3817	0.1276
346.5911	0.1378
346.8005	0.1509
347.0099	0.1263
347.2193	0.124
347.4286	0.1239
347.638	0.1415
347.8473	0.1428
348.0566	0.1456
348.2659	0.1392
348.4752	0.123
348.6845	0.1258
348.8937	0.12
349.103	0.1474
349.3122	0.1283
349.5214	0.1315
349.7306	0.1462
349.9398	0.1312
350.149	0.1317
350.3582	0.1361
350.5674	0.1489
350.7765	0.1328
350.9856	0.1432
351.1948	0.1502
351.4039	0.1294
351.613	0.1289
351.822	0.15
352.0311	0.166
352.2402	0.154
352.4492	0.1553
352.6582	0.1456
352.8672	0.1349
353.0762	0.1434
353.2852	0.1445
353.4942	0.14
353.7032	0.1433
353.9121	0.143
354.1211	0.1455
354.33	0.1514
354.5389	0.1453
354.7478	0.1426
354.9567	0.1403
355.1655	0.1516
355.3744	0.1531
355.5833	0.156
355.7921	0.1644
356.0009	0.1458
356.2097	0.1609
356.4185	0.1633
356.6273	0.1616
356.8361	0.1524
357.0448	0.1407
357.2536	0.1434
357.4623	0.1645
357.671	0.1692
357.8797	0.1667
358.0884	0.1469
358.2971	0.1584
358.5057	0.1676
358.7144	0.1656
358.923	0.1594
359.1316	0.1715
359.3402	0.1601
359.5488	0.1677
359.7574	0.1472
359.966	0.1753
360.1746	0.184
360.3831	0.1744
360.5916	0.1584
360.8002	0.174
361.0087	0.1756
361.2172	0.1782
361.4256	0.177
361.6341	0.191
361.8426	0.1769
362.051	0.1781
362.2594	0.1714
362.4678	0.1854
362.6762	0.194
362.8846	0.1778
363.093	0.186
363.3014	0.1796
363.5097	0.1605
363.718	0.1961
363.9264	0.1944
364.1347	0.1895
364.343	0.1835
364.5513	0.1946
364.7595	0.1844
364.9678	0.1923
365.176	0.1969
365.3842	0.1911
365.5925	0.1973
365.8007	0.1938
366.0089	0.206
366.217	0.1923
366.4252	0.2022
366.6333	0.2053
366.8415	0.2084
367.0496	0.1883
367.2577	0.2139
367.4658	0.2128
367.6739	0.2052
367.882	0.2214
368.09	0.2022
368.2981	0.2033
368.5061	0.2065
368.7141	0.2078
368.9221	0.214
369.1301	0.2046
369.3381	0.2026
369.5461	0.2068
369.754	0.1946
369.962	0.2145
370.1699	0.2077
370.3778	0.2061
370.5857	0.1948
370.7936	0.2044
371.0015	0.2142
371.2093	0.2028
371.4172	0.2065
371.625	0.2074
371.8328	0.2084
372.0406	0.2298
372.2484	0.2122
372.4562	0.2257
372.664	0.2156
372.8717	0.2359
373.0795	0.1936
373.2872	0.2025
373.4949	0.2061
373.7026	0.2191
373.9103	0.2161
374.118	0.214
374.3256	0.2255
374.5333	0.2253
374.7409	0.2138
374.9485	0.2316
375.1561	0.2335
375.3637	0.2348
375.5713	0.2478
375.7789	0.2159
375.9864	0.2282
376.194	0.2157
376.4015	0.2257
376.609	0.2198
376.8165	0.2314
377.024	0.2243
377.2315	0.2198
377.4389	0.2336
377.6464	0.2383
377.8538	0.2448
378.0612	0.2261
378.2686	0.2421
378.476	0.2373
378.6834	0.2448
378.8908	0.236
379.0981	0.2457
379.3055	0.2427
379.5128	0.2336
379.7201	0.2376
379.9274	0.2425
380.1347	0.2346
380.342	0.2419
380.5492	0.2393
380.7565	0.2344
380.9637	0.2482
381.1709	0.2468
381.3781	0.2487
381.5853	0.2567
381.7925	0.2384
381.9997	0.2622
382.2068	0.2534
382.4139	0.2492
382.6211	0.2544
382.8282	0.2392
383.0353	0.2431
383.2424	0.2367
383.4494	0.25
383.6565	0.2543
383.8635	0.2461
384.0706	0.2503
384.2776	0.2485
384.4846	0.2421
384.6916	0.2591
384.8986	0.2471
385.1055	0.2325
385.3125	0.261
385.5194	0.2319
385.7263	0.2576
385.9333	0.2354
386.1402	0.2484
386.347	0.2407
386.5539	0.244
386.7608	0.2536
386.9676	0.2358
387.1744	0.2406
387.3813	0.2274
387.5881	0.248
387.7948	0.2445
388.0016	0.2436
388.2084	0.2347
388.4151	0.2432
388.6219	0.2506
388.8286	0.2585
389.0353	0.2631
389.242	0.2508
389.4487	0.2159
389.6553	0.2501
389.862	0.2405
390.0686	0.224
390.2753	0.2549
390.4819	0.2366
390.6885	0.2391
390.8951	0.2349
391.1016	0.2267
391.3082	0.2359
391.5147	0.2255
391.7213	0.2201
391.9278	0.2216
392.1343	0.2146
392.3408	0.2269
392.5473	0.2321
392.7537	0.2075
392.9602	0.207
393.1666	0.2308
393.373	0.2113
393.5794	0.2406
393.7858	0.227
393.9922	0.2089
394.1986	0.2167
394.4049	0.2293
394.6113	0.2046
394.8176	0.2031
395.0239	0.2106
395.2302	0.2164
395.4365	0.2066
395.6428	0.1995
395.8491	0.2173
396.0553	0.2114
396.2615	0.1892
396.4678	0.2023
396.674	0.202
396.8802	0.2249
397.0863	0.2428
397.2925	0.2014
397.4987	0.18
397.7048	0.2221
397.9109	0.2198
398.117	0.2119
398.3231	0.1995
398.5292	0.2142
398.7353	0.2284
398.9413	0.201
399.1474	0.2027
399.3534	0.2022
399.5594	0.1905
399.7654	0.215
399.9714	0.2126
400.1774	0.218
400.3833	0.1952
400.5893	0.2055
400.7952	0.2074
401.0011	0.2089
401.207	0.2275
401.4129	0.2108
401.6188	0.2124
401.8247	0.2044
402.0305	0.1904
402.2364	0.2073
402.4422	0.2104
402.648	0.2086
402.8538	0.2078
403.0596	0.205
403.2654	0.1999
403.4711	0.2045
403.6768	0.2195
403.8826	0.2098
404.0883	0.224
404.294	0.2112
404.4997	0.2213
404.7054	0.2024
404.911	0.1898
405.1167	0.2088
405.3223	0.2288
405.5279	0.2152
405.7335	0.2135
405.9391	0.2346
406.1447	0.1861
406.3502	0.2093
406.5558	0.2006
406.7613	0.2061
406.9668	0.1985
407.1724	0.2044
407.3778	0.2034
407.5833	0.2112
407.7888	0.1992
407.9942	0.2231
408.1997	0.1997
408.4051	0.1821
408.6105	0.1968
408.8159	0.2036
409.0213	0.1911
409.2267	0.2249
409.432	0.1934
409.6374	0.2133
409.8427	0.2054
410.048	0.2021
410.2533	0.2012
410.4586	0.2016
410.6639	0.1893
410.8691	0.1922
411.0744	0.1977
411.2796	0.213
411.4848	0.1967
411.69	0.1932
411.8952	0.2137
412.1004	0.2006
412.3056	0.2141
412.5107	0.2041
412.7158	0.2242
412.921	0.1871
413.1261	0.2091
413.3312	0.196
413.5362	0.1928
413.7413	0.1916
413.9464	0.1999
414.1514	0.1896
414.3564	0.2084
414.5614	0.1969
414.7664	0.2027
414.9714	0.1927
415.1764	0.209
415.3813	0.2196
415.5863	0.1963
415.7912	0.1892
415.9961	0.2094
416.201	0.1959
416.4059	0.2213
416.6108	0.202
416.8156	0.1967
417.0205	0.1867
417.2253	0.1948
417.4301	0.2054
417.6349	0.1894
417.8397	0.1931
418.0445	0.2028
418.2492	0.1898
418.454	0.1898
418.6587	0.1914
418.8634	0.1872
419.0681	0.1794
419.2728	0.1882
419.4775	0.1631
419.6822	0.1708
419.8868	0.1682
420.0915	0.1932
420.2961	0.1704
420.5007	0.1714
420.7053	0.1786
420.9099	0.1881
421.1144	0.1816
421.319	0.1842
421.5235	0.1946
421.728	0.1788
421.9325	0.1871
422.137	0.1885
422.3415	0.1898
422.546	0.1751
422.7504	0.1624
422.9549	0.1805
423.1593	0.1812
423.3637	0.1896
423.5681	0.1771
423.7725	0.1802
423.9769	0.1601
424.1812	0.1679
424.3856	0.176
424.5899	0.1714
424.7942	0.1733
424.9985	0.1659
425.2028	0.1544
425.4071	0.1778
425.6113	0.1604
425.8156	0.1716
426.0198	0.1645
426.224	0.1603
426.4282	0.1705
