Data from MonoPyChalIsomerACN10uM440nmA_Absorbance_15-27-11-594.txt Node
Date: Fri Jul 05 15:27:11 BST 2024
User: LASERRRRR
Spectrometer: FLMT03099
Trigger mode: 0
Integration Time (sec): 1.000000E-1
Scans to average: 1
Electric dark correction enabled: true
Nonlinearity correction enabled: false
Boxcar width: 0
XAxis mode: Wavelengths
Number of Pixels in Spectrum: 3648
>>>>>Begin Spectral Data<<<<<
179.3399	-0.1008
179.5586	-0.1008
179.7771	-0.1008
179.9957	-0.1646
180.2143	-0
180.4329	-0.2368
180.6514	1.2206
180.8699	-0
181.0885	0.2296
181.307	0.1176
181.5255	-0.6874
181.744	-0.385
181.9625	-0
182.181	-0
182.3994	0.0266
182.6179	-0
182.8363	0.0032
183.0547	-0.4295
183.2732	-0.0466
183.4916	0.1697
183.71	0.1044
183.9284	0.4768
184.1467	-0.0664
184.3651	0.0545
184.5835	-0.1422
184.8018	0.1707
185.0201	0.0187
185.2385	0.0143
185.4568	0.0083
185.6751	0.6607
185.8934	0.3749
186.1117	0.026
186.3299	0.0451
186.5482	0.0171
186.7664	-0.135
186.9847	0.1308
187.2029	0.033
187.4211	0.0354
187.6393	0.0609
187.8575	-0.0919
188.0757	0.1296
188.2939	0.088
188.512	-0.0253
188.7302	-0.2069
188.9483	0.1959
189.1665	0.0685
189.3846	1.1504
189.6027	0.0579
189.8208	0.1109
190.0389	0.0232
190.257	0.1026
190.475	0.3934
190.6931	0.2169
190.9111	1.4428
191.1292	0.2017
191.3472	0.4267
191.5652	0.3286
191.7832	0.3615
192.0012	0.2472
192.2192	0.4266
192.4371	0.7374
192.6551	0.1845
192.873	0.4154
193.091	0.4278
193.3089	0.7122
193.5268	0.3835
193.7447	0.5189
193.9626	0.6206
194.1805	0.6515
194.3984	0.7623
194.6162	0.4731
194.8341	0.4433
195.0519	0.4407
195.2697	0.7505
195.4875	0.7027
195.7054	0.6472
195.9231	0.6005
196.1409	0.6663
196.3587	0.6161
196.5765	0.4708
196.7942	0.4414
197.012	0.5582
197.2297	0.6016
197.4474	0.7717
197.6651	0.4248
197.8828	0.5237
198.1005	0.6963
198.3182	0.6729
198.5358	0.6317
198.7535	0.6017
198.9711	0.4965
199.1888	0.6431
199.4064	0.7183
199.624	0.6478
199.8416	0.6305
200.0592	0.6976
200.2767	0.5463
200.4943	0.6486
200.7119	0.7728
200.9294	0.6655
201.1469	0.5227
201.3645	0.6094
201.582	0.5851
201.7995	0.7283
202.017	0.5992
202.2344	0.6012
202.4519	0.7431
202.6694	0.5919
202.8868	0.658
203.1042	0.7364
203.3217	0.6743
203.5391	0.6876
203.7565	0.585
203.9739	0.6072
204.1913	0.6294
204.4086	0.6028
204.626	0.5743
204.8433	0.6438
205.0607	0.5162
205.278	0.6297
205.4953	0.5458
205.7126	0.6696
205.9299	0.7256
206.1472	0.6373
206.3644	0.6883
206.5817	0.7067
206.7989	0.6792
207.0162	0.6388
207.2334	0.7272
207.4506	0.6285
207.6678	0.6592
207.885	0.6886
208.1022	0.6488
208.3194	0.6357
208.5365	0.6125
208.7537	0.5648
208.9708	0.5519
209.1879	0.6674
209.405	0.6038
209.6222	0.7866
209.8392	0.6342
210.0563	0.6471
210.2734	0.6637
210.4905	0.6329
210.7075	0.6454
210.9245	0.6213
211.1416	0.6282
211.3586	0.6197
211.5756	0.6001
211.7926	0.6394
212.0096	0.6297
212.2265	0.5887
212.4435	0.562
212.6604	0.5689
212.8774	0.5652
213.0943	0.605
213.3112	0.5807
213.5281	0.5261
213.745	0.479
213.9619	0.5001
214.1788	0.515
214.3956	0.4304
214.6125	0.4926
214.8293	0.4325
215.0461	0.4956
215.2629	0.4569
215.4798	0.5024
215.6965	0.4184
215.9133	0.4587
216.1301	0.4014
216.3469	0.4659
216.5636	0.4417
216.7803	0.3946
216.9971	0.4336
217.2138	0.3786
217.4305	0.3894
217.6472	0.359
217.8639	0.3948
218.0805	0.3328
218.2972	0.3115
218.5138	0.3212
218.7305	0.3091
218.9471	0.2934
219.1637	0.2676
219.3803	0.2816
219.5969	0.2655
219.8135	0.2395
220.0301	0.2841
220.2466	0.2665
220.4632	0.271
220.6797	0.237
220.8962	0.2365
221.1127	0.2686
221.3292	0.2375
221.5457	0.2481
221.7622	0.2236
221.9787	0.2411
222.1951	0.2382
222.4116	0.258
222.628	0.2619
222.8444	0.2501
223.0608	0.2491
223.2772	0.2573
223.4936	0.2418
223.71	0.2528
223.9264	0.2634
224.1427	0.2448
224.3591	0.2618
224.5754	0.2653
224.7917	0.2767
225.008	0.2618
225.2243	0.2546
225.4406	0.2918
225.6569	0.2725
225.8732	0.2596
226.0894	0.2667
226.3057	0.2584
226.5219	0.2714
226.7381	0.2624
226.9543	0.2894
227.1705	0.2886
227.3867	0.2793
227.6029	0.2921
227.8191	0.3036
228.0352	0.2993
228.2513	0.313
228.4675	0.2978
228.6836	0.2994
228.8997	0.2945
229.1158	0.3109
229.3319	0.3
229.548	0.3058
229.764	0.328
229.9801	0.3202
230.1961	0.3282
230.4121	0.3354
230.6282	0.3335
230.8442	0.321
231.0602	0.345
231.2761	0.3527
231.4921	0.3301
231.7081	0.35
231.924	0.3473
232.14	0.3548
232.3559	0.3445
232.5718	0.3607
232.7877	0.3616
233.0036	0.3471
233.2195	0.3582
233.4353	0.3584
233.6512	0.3667
233.867	0.3685
234.0829	0.3481
234.2987	0.3771
234.5145	0.3693
234.7303	0.3634
234.9461	0.3729
235.1619	0.3809
235.3776	0.3814
235.5934	0.3649
235.8091	0.3594
236.0249	0.3722
236.2406	0.3688
236.4563	0.3837
236.672	0.3954
236.8877	0.4021
237.1034	0.3977
237.319	0.3822
237.5347	0.4008
237.7503	0.3915
237.966	0.4087
238.1816	0.4183
238.3972	0.4066
238.6128	0.3794
238.8284	0.3993
239.0439	0.4084
239.2595	0.3988
239.475	0.429
239.6906	0.4177
239.9061	0.4123
240.1216	0.401
240.3371	0.3855
240.5526	0.3833
240.7681	0.4098
240.9836	0.3986
241.199	0.3992
241.4145	0.3873
241.6299	0.3792
241.8453	0.365
242.0607	0.3883
242.2761	0.3451
242.4915	0.3638
242.7069	0.3536
242.9223	0.3534
243.1376	0.3487
243.353	0.3322
243.5683	0.3352
243.7836	0.3028
243.9989	0.3279
244.2142	0.2925
244.4295	0.3063
244.6448	0.2933
244.86	0.2803
245.0753	0.2978
245.2905	0.271
245.5057	0.2749
245.721	0.2617
245.9362	0.2623
246.1514	0.2615
246.3665	0.2467
246.5817	0.2439
246.7969	0.2447
247.012	0.2337
247.2271	0.2331
247.4423	0.2363
247.6574	0.2399
247.8725	0.2253
248.0876	0.2148
248.3026	0.2188
248.5177	0.2128
248.7328	0.2079
248.9478	0.1963
249.1628	0.208
249.3779	0.2238
249.5929	0.1874
249.8079	0.206
250.0228	0.1999
250.2378	0.1943
250.4528	0.2034
250.6677	0.1959
250.8827	0.1913
251.0976	0.1876
251.3125	0.1791
251.5274	0.17
251.7423	0.1801
251.9572	0.1854
252.172	0.1719
252.3869	0.1797
252.6017	0.1757
252.8166	0.1653
253.0314	0.1699
253.2462	0.1661
253.461	0.168
253.6758	0.1687
253.8906	0.1796
254.1053	0.1624
254.3201	0.1701
254.5348	0.1772
254.7496	0.174
254.9643	0.1605
255.179	0.1772
255.3937	0.1629
255.6083	0.1814
255.823	0.17
256.0377	0.1675
256.2523	0.1588
256.467	0.1475
256.6816	0.1742
256.8962	0.1742
257.1108	0.1298
257.3254	0.1687
257.54	0.1533
257.7545	0.1571
257.9691	0.1837
258.1836	0.164
258.3981	0.1699
258.6127	0.1718
258.8272	0.1667
259.0417	0.1562
259.2561	0.1666
259.4706	0.1566
259.6851	0.1638
259.8995	0.174
260.114	0.1647
260.3284	0.1683
260.5428	0.1589
260.7572	0.1585
260.9716	0.1577
261.186	0.1534
261.4003	0.1604
261.6147	0.1579
261.829	0.1681
262.0433	0.1534
262.2577	0.1607
262.472	0.1631
262.6863	0.1528
262.9005	0.1542
263.1148	0.1586
263.3291	0.143
263.5433	0.1609
263.7576	0.1541
263.9718	0.1562
264.186	0.1511
264.4002	0.154
264.6144	0.1656
264.8286	0.1637
265.0427	0.1525
265.2569	0.1644
265.471	0.1517
265.6851	0.1589
265.8993	0.1535
266.1134	0.1505
266.3275	0.148
266.5415	0.1439
266.7556	0.1639
266.9697	0.154
267.1837	0.1657
267.3978	0.1572
267.6118	0.1551
267.8258	0.1813
268.0398	0.1431
268.2538	0.1637
268.4677	0.162
268.6817	0.1533
268.8957	0.1574
269.1096	0.1537
269.3235	0.1581
269.5374	0.1479
269.7514	0.1423
269.9652	0.1403
270.1791	0.1434
270.393	0.1467
270.6068	0.1549
270.8207	0.1452
271.0345	0.1418
271.2483	0.1494
271.4622	0.1363
271.676	0.1352
271.8897	0.1283
272.1035	0.1384
272.3173	0.1336
272.531	0.1301
272.7448	0.1372
272.9585	0.1358
273.1722	0.14
273.3859	0.1508
273.5996	0.1223
273.8133	0.1298
274.0269	0.1323
274.2406	0.1223
274.4542	0.1349
274.6679	0.1255
274.8815	0.1345
275.0951	0.145
275.3087	0.1394
275.5223	0.1414
275.7358	0.1387
275.9494	0.1347
276.1629	0.1246
276.3765	0.1315
276.59	0.1457
276.8035	0.1401
277.017	0.1316
277.2305	0.1257
277.444	0.1482
277.6574	0.1207
277.8709	0.1369
278.0843	0.1179
278.2978	0.139
278.5112	0.128
278.7246	0.143
278.938	0.1353
279.1513	0.1454
279.3647	0.1505
279.5781	0.1314
279.7914	0.1461
280.0047	0.1608
280.2181	0.1308
280.4314	0.1413
280.6447	0.1456
280.8579	0.1438
281.0712	0.1454
281.2845	0.1438
281.4977	0.1528
281.711	0.1369
281.9242	0.1485
282.1374	0.1482
282.3506	0.1456
282.5638	0.1487
282.7769	0.1481
282.9901	0.1521
283.2033	0.1552
283.4164	0.1561
283.6295	0.1406
283.8426	0.1467
284.0557	0.1507
284.2688	0.1629
284.4819	0.1477
284.695	0.1491
284.908	0.1686
285.1211	0.1444
285.3341	0.1554
285.5471	0.1648
285.7601	0.1497
285.9731	0.1591
286.1861	0.1467
286.3991	0.1601
286.612	0.1593
286.825	0.1462
287.0379	0.1625
287.2508	0.1466
287.4637	0.1606
287.6766	0.157
287.8895	0.1589
288.1024	0.182
288.3152	0.1606
288.5281	0.1469
288.7409	0.1527
288.9538	0.1527
289.1666	0.1625
289.3794	0.1622
289.5922	0.1536
289.8049	0.1591
290.0177	0.1684
290.2304	0.1616
290.4432	0.164
290.6559	0.1544
290.8686	0.1757
291.0813	0.1586
291.294	0.163
291.5067	0.1706
291.7194	0.1601
291.932	0.1704
292.1447	0.1564
292.3573	0.1613
292.5699	0.1571
292.7825	0.1608
292.9951	0.1649
293.2077	0.164
293.4203	0.1663
293.6328	0.1565
293.8454	0.1805
294.0579	0.1663
294.2704	0.159
294.4829	0.154
294.6954	0.1708
294.9079	0.1676
295.1204	0.1661
295.3328	0.1671
295.5453	0.1703
295.7577	0.1705
295.9701	0.153
296.1825	0.1604
296.3949	0.1569
296.6073	0.1602
296.8197	0.1636
297.0321	0.1645
297.2444	0.1625
297.4567	0.1603
297.6691	0.1629
297.8814	0.1613
298.0937	0.1598
298.306	0.1602
298.5182	0.1674
298.7305	0.1689
298.9428	0.164
299.155	0.1628
299.3672	0.1673
299.5794	0.1657
299.7916	0.1645
300.0038	0.1659
300.216	0.1673
300.4282	0.1612
300.6403	0.1607
300.8525	0.1646
301.0646	0.1543
301.2767	0.1764
301.4888	0.1671
301.7009	0.1661
301.913	0.1652
302.125	0.17
302.3371	0.1605
302.5491	0.1734
302.7612	0.1731
302.9732	0.1678
303.1852	0.1657
303.3972	0.1547
303.6092	0.1609
303.8211	0.1528
304.0331	0.1474
304.245	0.1431
304.457	0.1538
304.6689	0.1609
304.8808	0.1529
305.0927	0.1411
305.3046	0.15
305.5164	0.1584
305.7283	0.1543
305.9401	0.1457
306.152	0.1494
306.3638	0.1454
306.5756	0.1456
306.7874	0.1429
306.9992	0.1499
307.2109	0.1362
307.4227	0.1272
307.6344	0.1378
307.8462	0.1359
308.0579	0.1353
308.2696	0.1291
308.4813	0.1308
308.693	0.1291
308.9046	0.13
309.1163	0.1174
309.328	0.115
309.5396	0.1239
309.7512	0.1227
309.9628	0.1217
310.1744	0.1139
310.386	0.1127
310.5976	0.1255
310.8091	0.122
311.0207	0.1141
311.2322	0.1122
311.4437	0.0993
311.6552	0.1076
311.8667	0.1071
312.0782	0.0984
312.2897	0.0958
312.5012	0.1051
312.7126	0.0949
312.924	0.1038
313.1355	0.1058
313.3469	0.1032
313.5583	0.1096
313.7696	0.0985
313.981	0.0928
314.1924	0.095
314.4037	0.091
314.6151	0.104
314.8264	0.091
315.0377	0.0952
315.249	0.0951
315.4603	0.0929
315.6716	0.1068
315.8828	0.0845
316.0941	0.0947
316.3053	0.09
316.5165	0.0983
316.7277	0.0936
316.9389	0.0977
317.1501	0.0837
317.3613	0.0984
317.5724	0.0822
317.7836	0.1028
317.9947	0.0906
318.2058	0.09
318.417	0.0828
318.6281	0.0768
318.8391	0.0887
319.0502	0.0855
319.2613	0.0933
319.4723	0.0996
319.6834	0.101
319.8944	0.0816
320.1054	0.084
320.3164	0.0936
320.5274	0.0849
320.7383	0.089
320.9493	0.0979
321.1602	0.0931
321.3712	0.08
321.5821	0.0921
321.793	0.0876
322.0039	0.086
322.2148	0.0906
322.4257	0.0767
322.6365	0.0942
322.8474	0.0968
323.0582	0.0915
323.269	0.0884
323.4798	0.0937
323.6906	0.0861
323.9014	0.0973
324.1122	0.0958
324.3229	0.0942
324.5337	0.0904
324.7444	0.0803
324.9551	0.1049
325.1658	0.0964
325.3765	0.1031
325.5872	0.0952
325.7979	0.0825
326.0085	0.0917
326.2192	0.1032
326.4298	0.0993
326.6404	0.0928
326.851	0.0975
327.0616	0.0896
327.2722	0.1075
327.4828	0.0943
327.6933	0.0891
327.9039	0.1132
328.1144	0.1019
328.3249	0.0949
328.5354	0.0897
328.7459	0.0874
328.9564	0.0861
329.1669	0.0968
329.3773	0.0951
329.5878	0.0938
329.7982	0.0941
330.0086	0.0856
330.219	0.094
330.4294	0.0989
330.6398	0.0976
330.8502	0.0815
331.0605	0.0957
331.2708	0.0953
331.4812	0.1046
331.6915	0.1133
331.9018	0.1002
332.1121	0.089
332.3224	0.1054
332.5326	0.1135
332.7429	0.105
332.9531	0.1205
333.1633	0.0997
333.3735	0.1114
333.5837	0.092
333.7939	0.0919
334.0041	0.1045
334.2143	0.0966
334.4244	0.1024
334.6346	0.0883
334.8447	0.1131
335.0548	0.0906
335.2649	0.0952
335.475	0.1129
335.685	0.0962
335.8951	0.1098
336.1051	0.1002
336.3152	0.1118
336.5252	0.1006
336.7352	0.1061
336.9452	0.1028
337.1552	0.1034
337.3652	0.0966
337.5751	0.1014
337.7851	0.1069
337.995	0.0894
338.2049	0.0982
338.4148	0.0934
338.6247	0.1081
338.8346	0.1028
339.0445	0.1031
339.2543	0.0959
339.4642	0.1193
339.674	0.0941
339.8838	0.1059
340.0936	0.105
340.3034	0.117
340.5132	0.1149
340.7229	0.1066
340.9327	0.0986
341.1424	0.1054
341.3522	0.1245
341.5619	0.126
341.7716	0.1018
341.9813	0.1051
342.1909	0.1058
342.4006	0.1156
342.6102	0.1208
342.8199	0.1124
343.0295	0.1087
343.2391	0.1266
343.4487	0.1302
343.6583	0.1137
343.8679	0.1061
344.0774	0.1157
344.287	0.1106
344.4965	0.1125
344.706	0.1218
344.9155	0.113
345.125	0.1165
345.3345	0.1221
345.544	0.1135
345.7534	0.118
345.9629	0.1248
346.1723	0.1168
346.3817	0.1233
346.5911	0.119
346.8005	0.1207
347.0099	0.1122
347.2193	0.1183
347.4286	0.121
347.638	0.1209
347.8473	0.139
348.0566	0.1207
348.2659	0.1283
348.4752	0.1288
348.6845	0.1265
348.8937	0.1162
349.103	0.1352
349.3122	0.1131
349.5214	0.1348
349.7306	0.1331
349.9398	0.1344
350.149	0.1256
350.3582	0.124
350.5674	0.1439
350.7765	0.1301
350.9856	0.1309
351.1948	0.1384
351.4039	0.131
351.613	0.1194
351.822	0.1384
352.0311	0.1421
352.2402	0.1417
352.4492	0.1356
352.6582	0.1442
352.8672	0.1413
353.0762	0.1561
353.2852	0.1422
353.4942	0.1428
353.7032	0.1585
353.9121	0.1473
354.1211	0.1467
354.33	0.1592
354.5389	0.1571
354.7478	0.1536
354.9567	0.1456
355.1655	0.1363
355.3744	0.1536
355.5833	0.1664
355.7921	0.1655
356.0009	0.1592
356.2097	0.1793
356.4185	0.1571
356.6273	0.1549
356.8361	0.1659
357.0448	0.1441
357.2536	0.1574
357.4623	0.1483
357.671	0.1511
357.8797	0.1578
358.0884	0.1625
358.2971	0.1584
358.5057	0.1618
358.7144	0.1736
358.923	0.1617
359.1316	0.1605
359.3402	0.1638
359.5488	0.1567
359.7574	0.1606
359.966	0.1901
360.1746	0.1696
360.3831	0.1877
360.5916	0.1712
360.8002	0.1578
361.0087	0.183
361.2172	0.1839
361.4256	0.1672
361.6341	0.1821
361.8426	0.1848
362.051	0.1799
362.2594	0.198
362.4678	0.1778
362.6762	0.1875
362.8846	0.1826
363.093	0.1807
363.3014	0.1811
363.5097	0.1703
363.718	0.1812
363.9264	0.1877
364.1347	0.1875
364.343	0.1921
364.5513	0.2092
364.7595	0.2153
364.9678	0.1983
365.176	0.2094
365.3842	0.1784
365.5925	0.2203
365.8007	0.2014
366.0089	0.1958
366.217	0.1817
366.4252	0.1999
366.6333	0.2038
366.8415	0.2032
367.0496	0.1907
367.2577	0.2114
367.4658	0.2087
367.6739	0.2089
367.882	0.2157
368.09	0.1996
368.2981	0.2102
368.5061	0.2052
368.7141	0.2031
368.9221	0.214
369.1301	0.2246
369.3381	0.2031
369.5461	0.2211
369.754	0.2071
369.962	0.2209
370.1699	0.2123
370.3778	0.2349
370.5857	0.2039
370.7936	0.2191
371.0015	0.2134
371.2093	0.2177
371.4172	0.2454
371.625	0.2187
371.8328	0.2085
372.0406	0.2268
372.2484	0.2193
372.4562	0.2201
372.664	0.2107
372.8717	0.2444
373.0795	0.2189
373.2872	0.2254
373.4949	0.2198
373.7026	0.2273
373.9103	0.2363
374.118	0.2355
374.3256	0.2211
374.5333	0.229
374.7409	0.217
374.9485	0.2464
375.1561	0.2507
375.3637	0.249
375.5713	0.2515
375.7789	0.2422
375.9864	0.2468
376.194	0.2399
376.4015	0.2674
376.609	0.2421
376.8165	0.2424
377.024	0.2268
377.2315	0.2433
377.4389	0.2475
377.6464	0.2636
377.8538	0.2452
378.0612	0.2466
378.2686	0.2515
378.476	0.2591
378.6834	0.2555
378.8908	0.2597
379.0981	0.2559
379.3055	0.263
379.5128	0.2528
379.7201	0.2471
379.9274	0.2548
380.1347	0.2512
380.342	0.2692
380.5492	0.2461
380.7565	0.2657
380.9637	0.2665
381.1709	0.2561
381.3781	0.2435
381.5853	0.2661
381.7925	0.2605
381.9997	0.2732
382.2068	0.2655
382.4139	0.2623
382.6211	0.2552
382.8282	0.2528
383.0353	0.2639
383.2424	0.2675
383.4494	0.2639
383.6565	0.2655
383.8635	0.2692
384.0706	0.258
384.2776	0.2729
384.4846	0.2574
384.6916	0.2851
384.8986	0.2662
385.1055	0.2681
385.3125	0.2595
385.5194	0.27
385.7263	0.2805
385.9333	0.2646
386.1402	0.2682
386.347	0.2769
386.5539	0.2519
386.7608	0.2956
386.9676	0.2431
387.1744	0.2666
387.3813	0.2544
387.5881	0.2554
387.7948	0.2579
388.0016	0.2673
388.2084	0.2539
388.4151	0.2543
388.6219	0.2591
388.8286	0.2577
389.0353	0.2688
389.242	0.2563
389.4487	0.2515
389.6553	0.2385
389.862	0.2296
390.0686	0.2559
390.2753	0.2601
390.4819	0.2442
390.6885	0.2503
390.8951	0.2446
391.1016	0.2613
391.3082	0.2458
391.5147	0.2495
391.7213	0.2528
391.9278	0.2494
392.1343	0.2389
392.3408	0.2393
392.5473	0.2502
392.7537	0.2403
392.9602	0.2401
393.1666	0.2499
393.373	0.2515
393.5794	0.2496
393.7858	0.2443
393.9922	0.2365
394.1986	0.2339
394.4049	0.2383
394.6113	0.2366
394.8176	0.2304
395.0239	0.2334
395.2302	0.2214
395.4365	0.2328
395.6428	0.2283
395.8491	0.2163
396.0553	0.2142
396.2615	0.2231
396.4678	0.2287
396.674	0.2076
396.8802	0.2285
397.0863	0.2432
397.2925	0.2234
397.4987	0.2414
397.7048	0.2199
397.9109	0.2186
398.117	0.2104
398.3231	0.2161
398.5292	0.2118
398.7353	0.226
398.9413	0.2122
399.1474	0.2211
399.3534	0.2196
399.5594	0.2091
399.7654	0.2386
399.9714	0.2338
400.1774	0.2139
400.3833	0.1976
400.5893	0.2251
400.7952	0.2253
401.0011	0.2249
401.207	0.2408
401.4129	0.2226
401.6188	0.228
401.8247	0.2166
402.0305	0.2117
402.2364	0.2127
402.4422	0.2215
402.648	0.2328
402.8538	0.2305
403.0596	0.2188
403.2654	0.2097
403.4711	0.2209
403.6768	0.2314
403.8826	0.2391
404.0883	0.2308
404.294	0.2329
404.4997	0.2317
404.7054	0.2142
404.911	0.2161
405.1167	0.2229
405.3223	0.2436
405.5279	0.2367
405.7335	0.2293
405.9391	0.2324
406.1447	0.2109
406.3502	0.2225
406.5558	0.2226
406.7613	0.2323
406.9668	0.2315
407.1724	0.2198
407.3778	0.2221
407.5833	0.2124
407.7888	0.229
407.9942	0.2339
408.1997	0.2292
408.4051	0.2152
408.6105	0.2301
408.8159	0.2155
409.0213	0.2287
409.2267	0.2251
409.432	0.2244
409.6374	0.238
409.8427	0.2242
410.048	0.2237
410.2533	0.2146
410.4586	0.2212
410.6639	0.222
410.8691	0.2183
411.0744	0.209
411.2796	0.2178
411.4848	0.21
411.69	0.2201
411.8952	0.2353
412.1004	0.2069
412.3056	0.2378
412.5107	0.2111
412.7158	0.2285
412.921	0.2253
413.1261	0.219
413.3312	0.2138
413.5362	0.2109
413.7413	0.2122
413.9464	0.2133
414.1514	0.2102
414.3564	0.2136
414.5614	0.1897
414.7664	0.212
414.9714	0.2218
415.1764	0.2241
415.3813	0.2144
415.5863	0.2044
415.7912	0.216
415.9961	0.2186
416.201	0.2279
416.4059	0.2129
416.6108	0.2165
416.8156	0.2226
417.0205	0.2085
417.2253	0.2148
417.4301	0.21
417.6349	0.2221
417.8397	0.2021
418.0445	0.2195
418.2492	0.2163
418.454	0.2034
418.6587	0.2056
418.8634	0.2167
419.0681	0.1786
419.2728	0.1968
419.4775	0.2101
419.6822	0.2042
419.8868	0.2031
420.0915	0.2065
420.2961	0.1996
420.5007	0.1861
420.7053	0.1956
420.9099	0.1973
421.1144	0.2034
421.319	0.1963
421.5235	0.2136
421.728	0.2072
421.9325	0.1875
422.137	0.2027
422.3415	0.2102
422.546	0.1978
422.7504	0.1904
422.9549	0.2049
423.1593	0.2026
423.3637	0.2071
423.5681	0.1887
423.7725	0.1804
423.9769	0.1757
424.1812	0.1784
424.3856	0.2
424.5899	0.1847
424.7942	0.1906
424.9985	0.1882
425.2028	0.178
425.4071	0.1989
425.6113	0.167
425.8156	0.1858
426.0198	0.1922
426.224	0.1861
426.4282	0.1778
