Data from MonoPyChalIsomerACN10uM440nmA_Absorbance_15-27-15-094.txt Node
Date: Fri Jul 05 15:27:15 BST 2024
User: LASERRRRR
Spectrometer: FLMT03099
Trigger mode: 0
Integration Time (sec): 1.000000E-1
Scans to average: 1
Electric dark correction enabled: true
Nonlinearity correction enabled: false
Boxcar width: 0
XAxis mode: Wavelengths
Number of Pixels in Spectrum: 3648
>>>>>Begin Spectral Data<<<<<
179.3399	-0.3574
179.5586	-0.3574
179.7771	-0.3574
179.9957	-0
180.2143	-0
180.4329	-0.0929
180.6514	-0
180.8699	0.0586
181.0885	-0
181.307	-0.0463
181.5255	-0.804
181.744	-0.5045
181.9625	-0
182.181	-0.3774
182.3994	0.2007
182.6179	-0
182.8363	0.0546
183.0547	0.1823
183.2732	0.0888
183.4916	0.1277
183.71	0.1106
183.9284	-0.017
184.1467	-0.0558
184.3651	0.0195
184.5835	-0.0347
184.8018	0.2779
185.0201	-0.0096
185.2385	0.0372
185.4568	0.2642
185.6751	-0
185.8934	0.0995
186.1117	0.06
186.3299	-0.0316
186.5482	-0.0302
186.7664	-0
186.9847	-0.0596
187.2029	-0.0222
187.4211	0.0759
187.6393	0.0624
187.8575	-0.066
188.0757	-0.0198
188.2939	-0.0235
188.512	0.1636
188.7302	0.0767
188.9483	-0.1403
189.1665	0.084
189.3846	0.1159
189.6027	0.1046
189.8208	0.3297
190.0389	0.0659
190.257	0.2195
190.475	0.1858
190.6931	0.2516
190.9111	0.1981
191.1292	0.1454
191.3472	0.4667
191.5652	0.0931
191.7832	0.2189
192.0012	0.2797
192.2192	0.3441
192.4371	0.5415
192.6551	0.424
192.873	0.3976
193.091	0.4629
193.3089	0.3433
193.5268	0.4986
193.7447	0.5199
193.9626	0.3498
194.1805	0.5872
194.3984	0.7957
194.6162	0.5738
194.8341	0.6513
195.0519	0.6037
195.2697	0.8143
195.4875	0.575
195.7054	0.4632
195.9231	0.5164
196.1409	0.6149
196.3587	0.5728
196.5765	0.5669
196.7942	0.6056
197.012	0.5302
197.2297	0.5335
197.4474	0.647
197.6651	0.6211
197.8828	0.6086
198.1005	0.5627
198.3182	0.6145
198.5358	0.7284
198.7535	0.5694
198.9711	0.5421
199.1888	0.6259
199.4064	0.708
199.624	0.6345
199.8416	0.6374
200.0592	0.6671
200.2767	0.6313
200.4943	0.658
200.7119	0.6695
200.9294	0.5606
201.1469	0.5401
201.3645	0.5759
201.582	0.6371
201.7995	0.6178
202.017	0.8057
202.2344	0.586
202.4519	0.5185
202.6694	0.6438
202.8868	0.5722
203.1042	0.7856
203.3217	0.754
203.5391	0.6327
203.7565	0.6479
203.9739	0.6606
204.1913	0.6061
204.4086	0.6679
204.626	0.7704
204.8433	0.6608
205.0607	0.642
205.278	0.6674
205.4953	0.6836
205.7126	0.6575
205.9299	0.6909
206.1472	0.6718
206.3644	0.6367
206.5817	0.6945
206.7989	0.7453
207.0162	0.6618
207.2334	0.7107
207.4506	0.6841
207.6678	0.6561
207.885	0.8087
208.1022	0.6459
208.3194	0.6628
208.5365	0.7187
208.7537	0.6474
208.9708	0.5238
209.1879	0.678
209.405	0.6574
209.6222	0.8302
209.8392	0.597
210.0563	0.6245
210.2734	0.6967
210.4905	0.6535
210.7075	0.6582
210.9245	0.6191
211.1416	0.6793
211.3586	0.6661
211.5756	0.6004
211.7926	0.5755
212.0096	0.5595
212.2265	0.5643
212.4435	0.5946
212.6604	0.5609
212.8774	0.6244
213.0943	0.5722
213.3112	0.5173
213.5281	0.5632
213.745	0.4578
213.9619	0.5215
214.1788	0.4936
214.3956	0.4833
214.6125	0.4943
214.8293	0.4427
215.0461	0.4828
215.2629	0.4969
215.4798	0.4734
215.6965	0.4288
215.9133	0.4719
216.1301	0.4021
216.3469	0.4551
216.5636	0.4323
216.7803	0.4152
216.9971	0.4211
217.2138	0.3468
217.4305	0.3659
217.6472	0.3571
217.8639	0.3818
218.0805	0.3334
218.2972	0.3431
218.5138	0.3416
218.7305	0.332
218.9471	0.3068
219.1637	0.2838
219.3803	0.2797
219.5969	0.2593
219.8135	0.2346
220.0301	0.2502
220.2466	0.2791
220.4632	0.2486
220.6797	0.2419
220.8962	0.2474
221.1127	0.2513
221.3292	0.2488
221.5457	0.2368
221.7622	0.2308
221.9787	0.2537
222.1951	0.2315
222.4116	0.2549
222.628	0.2533
222.8444	0.2642
223.0608	0.2498
223.2772	0.2422
223.4936	0.2726
223.71	0.2363
223.9264	0.287
224.1427	0.2502
224.3591	0.2442
224.5754	0.2509
224.7917	0.2527
225.008	0.2526
225.2243	0.2464
225.4406	0.2712
225.6569	0.2602
225.8732	0.2449
226.0894	0.2568
226.3057	0.2551
226.5219	0.2709
226.7381	0.251
226.9543	0.2655
227.1705	0.2824
227.3867	0.2706
227.6029	0.2876
227.8191	0.3042
228.0352	0.3095
228.2513	0.3169
228.4675	0.3181
228.6836	0.279
228.8997	0.2979
229.1158	0.3
229.3319	0.285
229.548	0.3198
229.764	0.3015
229.9801	0.3245
230.1961	0.3258
230.4121	0.3442
230.6282	0.3457
230.8442	0.3279
231.0602	0.3358
231.2761	0.3433
231.4921	0.342
231.7081	0.3326
231.924	0.3424
232.14	0.3722
232.3559	0.3525
232.5718	0.367
232.7877	0.3454
233.0036	0.3356
233.2195	0.3602
233.4353	0.3599
233.6512	0.3409
233.867	0.3658
234.0829	0.3774
234.2987	0.3644
234.5145	0.3691
234.7303	0.3537
234.9461	0.3942
235.1619	0.3599
235.3776	0.379
235.5934	0.3752
235.8091	0.3517
236.0249	0.3665
236.2406	0.3889
236.4563	0.3632
236.672	0.3873
236.8877	0.384
237.1034	0.3962
237.319	0.3965
237.5347	0.3966
237.7503	0.3921
237.966	0.4006
238.1816	0.4172
238.3972	0.3967
238.6128	0.3934
238.8284	0.4105
239.0439	0.4077
239.2595	0.3894
239.475	0.3923
239.6906	0.3969
239.9061	0.3907
240.1216	0.4156
240.3371	0.3961
240.5526	0.4036
240.7681	0.3989
240.9836	0.3841
241.199	0.3879
241.4145	0.3859
241.6299	0.3903
241.8453	0.3735
242.0607	0.3811
242.2761	0.366
242.4915	0.3774
242.7069	0.3662
242.9223	0.3575
243.1376	0.3448
243.353	0.3628
243.5683	0.3336
243.7836	0.3398
243.9989	0.3296
244.2142	0.3178
244.4295	0.3187
244.6448	0.2997
244.86	0.288
245.0753	0.2938
245.2905	0.2953
245.5057	0.2673
245.721	0.2663
245.9362	0.2656
246.1514	0.2759
246.3665	0.2617
246.5817	0.2497
246.7969	0.2545
247.012	0.267
247.2271	0.2173
247.4423	0.2398
247.6574	0.2462
247.8725	0.2325
248.0876	0.2234
248.3026	0.2273
248.5177	0.231
248.7328	0.2116
248.9478	0.2056
249.1628	0.2038
249.3779	0.2216
249.5929	0.2142
249.8079	0.2248
250.0228	0.1931
250.2378	0.2142
250.4528	0.199
250.6677	0.1913
250.8827	0.2007
251.0976	0.1989
251.3125	0.1771
251.5274	0.168
251.7423	0.1826
251.9572	0.1856
252.172	0.1931
252.3869	0.1901
252.6017	0.1726
252.8166	0.1683
253.0314	0.1633
253.2462	0.1647
253.461	0.1681
253.6758	0.1871
253.8906	0.1749
254.1053	0.1733
254.3201	0.1744
254.5348	0.1907
254.7496	0.1736
254.9643	0.1742
255.179	0.1648
255.3937	0.1774
255.6083	0.1687
255.823	0.1646
256.0377	0.1652
256.2523	0.1634
256.467	0.16
256.6816	0.1665
256.8962	0.1583
257.1108	0.1597
257.3254	0.1679
257.54	0.1632
257.7545	0.1674
257.9691	0.1613
258.1836	0.1677
258.3981	0.1777
258.6127	0.1731
258.8272	0.1516
259.0417	0.1608
259.2561	0.1625
259.4706	0.1587
259.6851	0.1712
259.8995	0.1663
260.114	0.16
260.3284	0.1585
260.5428	0.1653
260.7572	0.1656
260.9716	0.1679
261.186	0.1585
261.4003	0.1613
261.6147	0.1676
261.829	0.1641
262.0433	0.1635
262.2577	0.1584
262.472	0.1804
262.6863	0.1666
262.9005	0.1558
263.1148	0.1647
263.3291	0.148
263.5433	0.1626
263.7576	0.1597
263.9718	0.1585
264.186	0.1613
264.4002	0.1518
264.6144	0.1577
264.8286	0.1561
265.0427	0.1615
265.2569	0.1662
265.471	0.1548
265.6851	0.1628
265.8993	0.1465
266.1134	0.1529
266.3275	0.1546
266.5415	0.1582
266.7556	0.1638
266.9697	0.1699
267.1837	0.1523
267.3978	0.155
267.6118	0.1806
267.8258	0.1692
268.0398	0.1613
268.2538	0.1572
268.4677	0.1575
268.6817	0.1487
268.8957	0.1534
269.1096	0.1658
269.3235	0.1569
269.5374	0.154
269.7514	0.1593
269.9652	0.1485
270.1791	0.1548
270.393	0.1481
270.6068	0.1574
270.8207	0.1438
271.0345	0.1441
271.2483	0.1513
271.4622	0.1345
271.676	0.1611
271.8897	0.143
272.1035	0.1453
272.3173	0.1479
272.531	0.1446
272.7448	0.1495
272.9585	0.1409
273.1722	0.1415
273.3859	0.1434
273.5996	0.1355
273.8133	0.1478
274.0269	0.1362
274.2406	0.146
274.4542	0.1378
274.6679	0.1273
274.8815	0.1539
275.0951	0.1479
275.3087	0.145
275.5223	0.1476
275.7358	0.1481
275.9494	0.1419
276.1629	0.1334
276.3765	0.1396
276.59	0.1492
276.8035	0.1482
277.017	0.1483
277.2305	0.1438
277.444	0.1542
277.6574	0.1502
277.8709	0.1469
278.0843	0.1381
278.2978	0.1409
278.5112	0.152
278.7246	0.1457
278.938	0.1601
279.1513	0.1476
279.3647	0.1523
279.5781	0.1412
279.7914	0.1427
280.0047	0.1615
280.2181	0.1473
280.4314	0.1616
280.6447	0.1593
280.8579	0.1411
281.0712	0.152
281.2845	0.1494
281.4977	0.1437
281.711	0.1408
281.9242	0.1518
282.1374	0.1534
282.3506	0.1434
282.5638	0.1566
282.7769	0.1564
282.9901	0.1474
283.2033	0.1662
283.4164	0.1586
283.6295	0.149
283.8426	0.1466
284.0557	0.1508
284.2688	0.1652
284.4819	0.1647
284.695	0.1577
284.908	0.1568
285.1211	0.1479
285.3341	0.1561
285.5471	0.1524
285.7601	0.1448
285.9731	0.1525
286.1861	0.1435
286.3991	0.1661
286.612	0.1684
286.825	0.1634
287.0379	0.1742
287.2508	0.1521
287.4637	0.1566
287.6766	0.1512
287.8895	0.1612
288.1024	0.1816
288.3152	0.1673
288.5281	0.1447
288.7409	0.1675
288.9538	0.1651
289.1666	0.1601
289.3794	0.1713
289.5922	0.1558
289.8049	0.1539
290.0177	0.1626
290.2304	0.163
290.4432	0.1714
290.6559	0.1669
290.8686	0.1661
291.0813	0.1522
291.294	0.1647
291.5067	0.1699
291.7194	0.1635
291.932	0.1785
292.1447	0.1643
292.3573	0.1552
292.5699	0.1689
292.7825	0.1657
292.9951	0.1598
293.2077	0.1698
293.4203	0.1699
293.6328	0.1521
293.8454	0.169
294.0579	0.1627
294.2704	0.1567
294.4829	0.1525
294.6954	0.1627
294.9079	0.1666
295.1204	0.1574
295.3328	0.1614
295.5453	0.1678
295.7577	0.1668
295.9701	0.148
296.1825	0.1652
296.3949	0.1578
296.6073	0.1558
296.8197	0.1523
297.0321	0.1739
297.2444	0.1481
297.4567	0.1645
297.6691	0.1629
297.8814	0.1544
298.0937	0.1564
298.306	0.1715
298.5182	0.1676
298.7305	0.1633
298.9428	0.1613
299.155	0.1617
299.3672	0.1491
299.5794	0.156
299.7916	0.1626
300.0038	0.1664
300.216	0.1578
300.4282	0.1638
300.6403	0.1562
300.8525	0.17
301.0646	0.1637
301.2767	0.1624
301.4888	0.1604
301.7009	0.163
301.913	0.166
302.125	0.1648
302.3371	0.1515
302.5491	0.1544
302.7612	0.1652
302.9732	0.1674
303.1852	0.1548
303.3972	0.1479
303.6092	0.158
303.8211	0.159
304.0331	0.1553
304.245	0.1496
304.457	0.1429
304.6689	0.1495
304.8808	0.1568
305.0927	0.1391
305.3046	0.1547
305.5164	0.1522
305.7283	0.1476
305.9401	0.1445
306.152	0.1512
306.3638	0.1507
306.5756	0.1422
306.7874	0.1415
306.9992	0.1403
307.2109	0.1377
307.4227	0.1286
307.6344	0.125
307.8462	0.137
308.0579	0.1259
308.2696	0.1342
308.4813	0.1349
308.693	0.1301
308.9046	0.141
309.1163	0.1162
309.328	0.1261
309.5396	0.1145
309.7512	0.123
309.9628	0.1188
310.1744	0.1191
310.386	0.1149
310.5976	0.1111
310.8091	0.11
311.0207	0.1171
311.2322	0.117
311.4437	0.1154
311.6552	0.103
311.8667	0.1162
312.0782	0.0908
312.2897	0.105
312.5012	0.1141
312.7126	0.1003
312.924	0.0998
313.1355	0.1103
313.3469	0.104
313.5583	0.1035
313.7696	0.1006
313.981	0.1079
314.1924	0.1136
314.4037	0.0935
314.6151	0.1187
314.8264	0.0955
315.0377	0.0977
315.249	0.0985
315.4603	0.1139
315.6716	0.0942
315.8828	0.0945
316.0941	0.0945
316.3053	0.0894
316.5165	0.0907
316.7277	0.0899
316.9389	0.0979
317.1501	0.0949
317.3613	0.0974
317.5724	0.0843
317.7836	0.103
317.9947	0.1
318.2058	0.0965
318.417	0.0898
318.6281	0.0935
318.8391	0.0896
319.0502	0.0912
319.2613	0.0942
319.4723	0.1016
319.6834	0.0963
319.8944	0.0823
320.1054	0.1037
320.3164	0.1039
320.5274	0.0938
320.7383	0.1038
320.9493	0.0973
321.1602	0.1004
321.3712	0.0921
321.5821	0.1003
321.793	0.0934
322.0039	0.0929
322.2148	0.0996
322.4257	0.1019
322.6365	0.1039
322.8474	0.1109
323.0582	0.096
323.269	0.1175
323.4798	0.1051
323.6906	0.1018
323.9014	0.1088
324.1122	0.1108
324.3229	0.098
324.5337	0.0953
324.7444	0.0963
324.9551	0.107
325.1658	0.1063
325.3765	0.1052
325.5872	0.1053
325.7979	0.1035
326.0085	0.1036
326.2192	0.1043
326.4298	0.1034
326.6404	0.0882
326.851	0.1049
327.0616	0.0906
327.2722	0.1062
327.4828	0.1045
327.6933	0.0921
327.9039	0.1019
328.1144	0.1074
328.3249	0.1044
328.5354	0.1058
328.7459	0.1012
328.9564	0.1004
329.1669	0.1123
329.3773	0.1082
329.5878	0.1054
329.7982	0.0937
330.0086	0.1021
330.219	0.1047
330.4294	0.1052
330.6398	0.1011
330.8502	0.0966
331.0605	0.0974
331.2708	0.1059
331.4812	0.1107
331.6915	0.0966
331.9018	0.1053
332.1121	0.1012
332.3224	0.1073
332.5326	0.1141
332.7429	0.1117
332.9531	0.1161
333.1633	0.1223
333.3735	0.1031
333.5837	0.112
333.7939	0.0949
334.0041	0.1197
334.2143	0.1256
334.4244	0.1054
334.6346	0.0858
334.8447	0.111
335.0548	0.1038
335.2649	0.1081
335.475	0.1197
335.685	0.1046
335.8951	0.1207
336.1051	0.1181
336.3152	0.1127
336.5252	0.0982
336.7352	0.1172
336.9452	0.1171
337.1552	0.1185
337.3652	0.1071
337.5751	0.1115
337.7851	0.1126
337.995	0.1005
338.2049	0.1183
338.4148	0.1093
338.6247	0.1109
338.8346	0.1066
339.0445	0.0968
339.2543	0.1061
339.4642	0.1172
339.674	0.0891
339.8838	0.115
340.0936	0.1147
340.3034	0.1224
340.5132	0.123
340.7229	0.1085
340.9327	0.1111
341.1424	0.106
341.3522	0.1292
341.5619	0.1106
341.7716	0.1105
341.9813	0.1346
342.1909	0.1231
342.4006	0.1221
342.6102	0.1423
342.8199	0.1329
343.0295	0.1215
343.2391	0.1161
343.4487	0.1411
343.6583	0.1298
343.8679	0.123
344.0774	0.1217
344.287	0.1328
344.4965	0.1307
344.706	0.1311
344.9155	0.1193
345.125	0.1213
345.3345	0.1287
345.544	0.1231
345.7534	0.1349
345.9629	0.1187
346.1723	0.126
346.3817	0.111
346.5911	0.1271
346.8005	0.1258
347.0099	0.1313
347.2193	0.1289
347.4286	0.1312
347.638	0.1392
347.8473	0.1426
348.0566	0.1405
348.2659	0.1316
348.4752	0.1331
348.6845	0.1336
348.8937	0.1341
349.103	0.1412
349.3122	0.1345
349.5214	0.1315
349.7306	0.1318
349.9398	0.1316
350.149	0.1321
350.3582	0.1319
350.5674	0.1526
350.7765	0.131
350.9856	0.1429
351.1948	0.136
351.4039	0.1297
351.613	0.1358
351.822	0.1508
352.0311	0.1485
352.2402	0.1384
352.4492	0.1444
352.6582	0.1456
352.8672	0.1386
353.0762	0.1522
353.2852	0.1479
353.4942	0.1436
353.7032	0.1411
353.9121	0.1567
354.1211	0.157
354.33	0.1615
354.5389	0.1535
354.7478	0.1481
354.9567	0.1468
355.1655	0.1427
355.3744	0.1502
355.5833	0.1549
355.7921	0.1733
356.0009	0.1489
356.2097	0.1652
356.4185	0.1541
356.6273	0.1479
356.8361	0.1572
357.0448	0.1571
357.2536	0.1508
357.4623	0.1433
357.671	0.1487
357.8797	0.1789
358.0884	0.1699
358.2971	0.1538
358.5057	0.1617
358.7144	0.1777
358.923	0.1535
359.1316	0.1637
359.3402	0.1713
359.5488	0.1703
359.7574	0.1531
359.966	0.1819
360.1746	0.1707
360.3831	0.1851
360.5916	0.1656
360.8002	0.1577
361.0087	0.1887
361.2172	0.1709
361.4256	0.1713
361.6341	0.1919
361.8426	0.1714
362.051	0.1763
362.2594	0.1977
362.4678	0.1693
362.6762	0.1963
362.8846	0.196
363.093	0.1712
363.3014	0.1886
363.5097	0.173
363.718	0.1784
363.9264	0.1852
364.1347	0.1723
364.343	0.1929
364.5513	0.2016
364.7595	0.202
364.9678	0.1998
365.176	0.2038
365.3842	0.1947
365.5925	0.2041
365.8007	0.1881
366.0089	0.2035
366.217	0.2004
366.4252	0.1999
366.6333	0.1952
366.8415	0.2015
367.0496	0.1997
367.2577	0.2203
367.4658	0.2152
367.6739	0.2143
367.882	0.2075
368.09	0.2006
368.2981	0.2048
368.5061	0.2048
368.7141	0.2041
368.9221	0.2037
369.1301	0.2076
369.3381	0.2009
369.5461	0.2207
369.754	0.2106
369.962	0.2202
370.1699	0.2215
370.3778	0.2138
370.5857	0.2032
370.7936	0.2162
371.0015	0.212
371.2093	0.2228
371.4172	0.2234
371.625	0.2148
371.8328	0.2053
372.0406	0.2239
372.2484	0.213
372.4562	0.2378
372.664	0.217
372.8717	0.2211
373.0795	0.2039
373.2872	0.216
373.4949	0.2003
373.7026	0.2147
373.9103	0.2256
374.118	0.2307
374.3256	0.23
374.5333	0.2173
374.7409	0.2191
374.9485	0.2533
375.1561	0.2301
375.3637	0.2236
375.5713	0.2291
375.7789	0.2247
375.9864	0.2368
376.194	0.2214
376.4015	0.2383
376.609	0.2478
376.8165	0.2361
377.024	0.2258
377.2315	0.2331
377.4389	0.2502
377.6464	0.239
377.8538	0.2361
378.0612	0.222
378.2686	0.2626
378.476	0.2471
378.6834	0.2366
378.8908	0.2347
379.0981	0.2326
379.3055	0.2523
379.5128	0.237
379.7201	0.2266
379.9274	0.2432
380.1347	0.2281
380.342	0.2561
380.5492	0.2433
380.7565	0.2389
380.9637	0.2503
381.1709	0.2475
381.3781	0.2512
381.5853	0.2581
381.7925	0.2467
381.9997	0.2569
382.2068	0.2584
382.4139	0.2777
382.6211	0.2401
382.8282	0.2477
383.0353	0.2424
383.2424	0.2503
383.4494	0.2599
383.6565	0.252
383.8635	0.2536
384.0706	0.2284
384.2776	0.2522
384.4846	0.2281
384.6916	0.2416
384.8986	0.2437
385.1055	0.2395
385.3125	0.2439
385.5194	0.2402
385.7263	0.2434
385.9333	0.2499
386.1402	0.2438
386.347	0.2357
386.5539	0.249
386.7608	0.2503
386.9676	0.2496
387.1744	0.2501
387.3813	0.2572
387.5881	0.2466
387.7948	0.2477
388.0016	0.2328
388.2084	0.235
388.4151	0.2414
388.6219	0.2448
388.8286	0.239
389.0353	0.2614
389.242	0.2522
389.4487	0.2201
389.6553	0.2398
389.862	0.2176
390.0686	0.2273
390.2753	0.229
390.4819	0.2398
390.6885	0.2215
390.8951	0.2175
391.1016	0.2326
391.3082	0.2276
391.5147	0.2341
391.7213	0.2275
391.9278	0.2264
392.1343	0.2185
392.3408	0.2269
392.5473	0.2148
392.7537	0.2182
392.9602	0.2023
393.1666	0.2317
393.373	0.2359
393.5794	0.2351
393.7858	0.2145
393.9922	0.2155
394.1986	0.2322
394.4049	0.2188
394.6113	0.216
394.8176	0.1995
395.0239	0.1898
395.2302	0.2174
395.4365	0.2185
395.6428	0.2067
395.8491	0.2079
396.0553	0.2085
396.2615	0.2035
396.4678	0.2109
396.674	0.1988
396.8802	0.2012
397.0863	0.2276
397.2925	0.1999
397.4987	0.2047
397.7048	0.2004
397.9109	0.2051
398.117	0.2048
398.3231	0.1911
398.5292	0.2203
398.7353	0.2098
398.9413	0.2156
399.1474	0.2003
399.3534	0.2159
399.5594	0.2001
399.7654	0.222
399.9714	0.2175
400.1774	0.2165
400.3833	0.1915
400.5893	0.1979
400.7952	0.1997
401.0011	0.2062
401.207	0.2108
401.4129	0.2146
401.6188	0.2163
401.8247	0.197
402.0305	0.1928
402.2364	0.2173
402.4422	0.2238
402.648	0.2046
402.8538	0.2244
403.0596	0.1966
403.2654	0.2137
403.4711	0.2015
403.6768	0.2091
403.8826	0.2055
404.0883	0.2032
404.294	0.2195
404.4997	0.2056
404.7054	0.2013
404.911	0.198
405.1167	0.2152
405.3223	0.2193
405.5279	0.215
405.7335	0.2142
405.9391	0.2273
406.1447	0.2031
406.3502	0.2211
406.5558	0.2107
406.7613	0.2078
406.9668	0.2216
407.1724	0.2011
407.3778	0.2119
407.5833	0.2261
407.7888	0.1963
407.9942	0.2162
408.1997	0.2011
408.4051	0.2096
408.6105	0.2025
408.8159	0.2099
409.0213	0.1936
409.2267	0.2196
409.432	0.1932
409.6374	0.2112
409.8427	0.1949
410.048	0.2091
410.2533	0.2078
410.4586	0.2009
410.6639	0.1983
410.8691	0.1963
411.0744	0.2006
411.2796	0.1953
411.4848	0.2259
411.69	0.1853
411.8952	0.211
412.1004	0.1983
412.3056	0.219
412.5107	0.1818
412.7158	0.2104
412.921	0.2051
413.1261	0.2037
413.3312	0.2097
413.5362	0.2117
413.7413	0.2111
413.9464	0.1955
414.1514	0.2025
414.3564	0.2096
414.5614	0.1846
414.7664	0.1883
414.9714	0.2316
415.1764	0.2087
415.3813	0.2131
415.5863	0.1951
415.7912	0.2091
415.9961	0.1815
416.201	0.2
416.4059	0.2096
416.6108	0.1899
416.8156	0.2058
417.0205	0.1946
417.2253	0.1881
417.4301	0.2106
417.6349	0.2063
417.8397	0.1852
418.0445	0.2122
418.2492	0.2042
418.454	0.177
418.6587	0.1891
418.8634	0.2063
419.0681	0.1765
419.2728	0.1885
419.4775	0.1865
419.6822	0.1872
419.8868	0.1562
420.0915	0.1888
420.2961	0.1711
420.5007	0.1732
420.7053	0.1936
420.9099	0.1956
421.1144	0.19
421.319	0.1781
421.5235	0.1903
421.728	0.1934
421.9325	0.1759
422.137	0.1958
422.3415	0.1753
422.546	0.191
422.7504	0.1894
422.9549	0.1866
423.1593	0.1838
423.3637	0.1923
423.5681	0.1836
423.7725	0.1685
423.9769	0.1614
424.1812	0.1685
424.3856	0.1675
424.5899	0.1821
424.7942	0.1641
424.9985	0.163
425.2028	0.1708
425.4071	0.1787
425.6113	0.1479
425.8156	0.1663
426.0198	0.1859
426.224	0.1709
426.4282	0.1546
