Data from MonoPyChalIsomerACN10uM440nmA_Absorbance_15-27-14-794.txt Node
Date: Fri Jul 05 15:27:14 BST 2024
User: LASERRRRR
Spectrometer: FLMT03099
Trigger mode: 0
Integration Time (sec): 1.000000E-1
Scans to average: 1
Electric dark correction enabled: true
Nonlinearity correction enabled: false
Boxcar width: 0
XAxis mode: Wavelengths
Number of Pixels in Spectrum: 3648
>>>>>Begin Spectral Data<<<<<
179.3399	-0.2653
179.5586	-0.2653
179.7771	-0.2653
179.9957	0.5948
180.2143	-0
180.4329	-0.2467
180.6514	-0
180.8699	-0
181.0885	0.1612
181.307	0.2696
181.5255	-0.033
181.744	-0.538
181.9625	-0.4754
182.181	-0
182.3994	0.831
182.6179	0.7874
182.8363	0.1952
183.0547	-0.4511
183.2732	-0.0537
183.4916	0.2483
183.71	0.0356
183.9284	0.265
184.1467	0.2663
184.3651	-0.0832
184.5835	0.1808
184.8018	-0.0343
185.0201	-0.0809
185.2385	0.2364
185.4568	0.198
185.6751	0.2001
185.8934	0.0028
186.1117	0.2113
186.3299	0.0177
186.5482	0.0611
186.7664	-0.1024
186.9847	-0.0101
187.2029	0.0853
187.4211	-0.0194
187.6393	0.3534
187.8575	0.0355
188.0757	0.2934
188.2939	0.1365
188.512	1
188.7302	-0.1184
188.9483	0.1225
189.1665	0.1217
189.3846	-0.3717
189.6027	0.4159
189.8208	0.2129
190.0389	0.1039
190.257	0.1503
190.475	0.1415
190.6931	0.1619
190.9111	0.41
191.1292	0.6146
191.3472	0.2308
191.5652	0.3207
191.7832	0.3676
192.0012	0.458
192.2192	0.3706
192.4371	0.4919
192.6551	0.5635
192.873	0.5043
193.091	0.3753
193.3089	0.4922
193.5268	0.6374
193.7447	0.576
193.9626	0.3986
194.1805	0.6204
194.3984	0.8938
194.6162	0.7882
194.8341	0.4968
195.0519	0.6648
195.2697	0.796
195.4875	0.6465
195.7054	0.5699
195.9231	0.474
196.1409	0.5791
196.3587	0.568
196.5765	0.5434
196.7942	0.6794
197.012	0.5716
197.2297	1.0489
197.4474	0.6991
197.6651	0.6278
197.8828	0.5896
198.1005	0.7592
198.3182	0.5739
198.5358	0.8505
198.7535	0.5435
198.9711	0.6134
199.1888	0.7053
199.4064	0.6484
199.624	0.5968
199.8416	0.6654
200.0592	0.5981
200.2767	0.6191
200.4943	0.7101
200.7119	0.6234
200.9294	0.6366
201.1469	0.6656
201.3645	0.528
201.582	0.6204
201.7995	0.6424
202.017	0.7238
202.2344	0.5966
202.4519	0.6684
202.6694	0.651
202.8868	0.8052
203.1042	0.7425
203.3217	0.6508
203.5391	0.5958
203.7565	0.6151
203.9739	0.6112
204.1913	0.5813
204.4086	0.696
204.626	0.6282
204.8433	0.7236
205.0607	0.6252
205.278	0.6831
205.4953	0.6052
205.7126	0.6119
205.9299	0.8832
206.1472	0.7083
206.3644	0.6536
206.5817	0.7497
206.7989	0.7628
207.0162	0.6508
207.2334	0.6515
207.4506	0.6587
207.6678	0.7041
207.885	0.7365
208.1022	0.6522
208.3194	0.7386
208.5365	0.7281
208.7537	0.6828
208.9708	0.5957
209.1879	0.6446
209.405	0.6656
209.6222	0.6895
209.8392	0.6327
210.0563	0.6731
210.2734	0.6543
210.4905	0.6682
210.7075	0.6787
210.9245	0.6239
211.1416	0.6588
211.3586	0.5991
211.5756	0.5614
211.7926	0.6104
212.0096	0.5769
212.2265	0.5695
212.4435	0.5932
212.6604	0.539
212.8774	0.6016
213.0943	0.6288
213.3112	0.5429
213.5281	0.5141
213.745	0.5137
213.9619	0.5046
214.1788	0.5002
214.3956	0.4567
214.6125	0.4732
214.8293	0.464
215.0461	0.4947
215.2629	0.4431
215.4798	0.4711
215.6965	0.4267
215.9133	0.4572
216.1301	0.415
216.3469	0.4673
216.5636	0.4196
216.7803	0.3868
216.9971	0.4045
217.2138	0.3695
217.4305	0.37
217.6472	0.3525
217.8639	0.3926
218.0805	0.3622
218.2972	0.3255
218.5138	0.3271
218.7305	0.2962
218.9471	0.3129
219.1637	0.2888
219.3803	0.284
219.5969	0.2872
219.8135	0.2665
220.0301	0.2777
220.2466	0.2725
220.4632	0.256
220.6797	0.2408
220.8962	0.2402
221.1127	0.2581
221.3292	0.2484
221.5457	0.2407
221.7622	0.2199
221.9787	0.2368
222.1951	0.2454
222.4116	0.2628
222.628	0.239
222.8444	0.2467
223.0608	0.2457
223.2772	0.2303
223.4936	0.2631
223.71	0.2416
223.9264	0.2693
224.1427	0.2522
224.3591	0.2426
224.5754	0.2662
224.7917	0.2541
225.008	0.2654
225.2243	0.2566
225.4406	0.2837
225.6569	0.2736
225.8732	0.2563
226.0894	0.236
226.3057	0.2671
226.5219	0.2884
226.7381	0.2474
226.9543	0.2748
227.1705	0.2955
227.3867	0.2799
227.6029	0.3009
227.8191	0.3
228.0352	0.292
228.2513	0.3141
228.4675	0.3107
228.6836	0.294
228.8997	0.2929
229.1158	0.2983
229.3319	0.3058
229.548	0.3123
229.764	0.3212
229.9801	0.316
230.1961	0.3215
230.4121	0.3407
230.6282	0.341
230.8442	0.3172
231.0602	0.3491
231.2761	0.3377
231.4921	0.34
231.7081	0.3415
231.924	0.3188
232.14	0.3462
232.3559	0.3291
232.5718	0.3573
232.7877	0.3396
233.0036	0.346
233.2195	0.3456
233.4353	0.3582
233.6512	0.3549
233.867	0.3633
234.0829	0.355
234.2987	0.3501
234.5145	0.3633
234.7303	0.3669
234.9461	0.385
235.1619	0.3586
235.3776	0.3718
235.5934	0.3916
235.8091	0.3545
236.0249	0.3805
236.2406	0.3813
236.4563	0.3647
236.672	0.3848
236.8877	0.3954
237.1034	0.3863
237.319	0.3946
237.5347	0.4137
237.7503	0.3945
237.966	0.4168
238.1816	0.4191
238.3972	0.4018
238.6128	0.4002
238.8284	0.4078
239.0439	0.3947
239.2595	0.3962
239.475	0.397
239.6906	0.4216
239.9061	0.3836
240.1216	0.398
240.3371	0.4081
240.5526	0.3828
240.7681	0.4047
240.9836	0.3948
241.199	0.4123
241.4145	0.3791
241.6299	0.3859
241.8453	0.3737
242.0607	0.3793
242.2761	0.3618
242.4915	0.3698
242.7069	0.3704
242.9223	0.3574
243.1376	0.3353
243.353	0.3348
243.5683	0.3373
243.7836	0.326
243.9989	0.3329
244.2142	0.2995
244.4295	0.3088
244.6448	0.3042
244.86	0.3039
245.0753	0.2868
245.2905	0.2839
245.5057	0.282
245.721	0.2838
245.9362	0.2717
246.1514	0.2698
246.3665	0.2671
246.5817	0.2569
246.7969	0.2591
247.012	0.246
247.2271	0.2326
247.4423	0.2478
247.6574	0.2407
247.8725	0.2276
248.0876	0.2259
248.3026	0.2256
248.5177	0.2238
248.7328	0.2087
248.9478	0.2041
249.1628	0.2009
249.3779	0.2099
249.5929	0.2007
249.8079	0.2194
250.0228	0.1983
250.2378	0.199
250.4528	0.1959
250.6677	0.197
250.8827	0.189
251.0976	0.197
251.3125	0.1835
251.5274	0.1709
251.7423	0.1812
251.9572	0.1876
252.172	0.1747
252.3869	0.1895
252.6017	0.1795
252.8166	0.17
253.0314	0.1717
253.2462	0.1627
253.461	0.1812
253.6758	0.1681
253.8906	0.1712
254.1053	0.1658
254.3201	0.1653
254.5348	0.1737
254.7496	0.185
254.9643	0.1617
255.179	0.1698
255.3937	0.1531
255.6083	0.1594
255.823	0.1652
256.0377	0.1596
256.2523	0.1666
256.467	0.154
256.6816	0.1677
256.8962	0.1635
257.1108	0.1552
257.3254	0.1751
257.54	0.1634
257.7545	0.1695
257.9691	0.176
258.1836	0.1697
258.3981	0.1809
258.6127	0.1708
258.8272	0.1543
259.0417	0.1661
259.2561	0.1653
259.4706	0.1598
259.6851	0.1662
259.8995	0.1614
260.114	0.1662
260.3284	0.163
260.5428	0.1552
260.7572	0.1626
260.9716	0.1695
261.186	0.1581
261.4003	0.1643
261.6147	0.1705
261.829	0.1665
262.0433	0.1708
262.2577	0.1671
262.472	0.166
262.6863	0.1502
262.9005	0.1687
263.1148	0.1603
263.3291	0.1446
263.5433	0.1702
263.7576	0.1613
263.9718	0.1612
264.186	0.1552
264.4002	0.1554
264.6144	0.1569
264.8286	0.1739
265.0427	0.1647
265.2569	0.1731
265.471	0.1477
265.6851	0.1455
265.8993	0.1478
266.1134	0.1542
266.3275	0.1598
266.5415	0.16
266.7556	0.1628
266.9697	0.1531
267.1837	0.1588
267.3978	0.1572
267.6118	0.1655
267.8258	0.1657
268.0398	0.1522
268.2538	0.1747
268.4677	0.1585
268.6817	0.1597
268.8957	0.1711
269.1096	0.1496
269.3235	0.1753
269.5374	0.1644
269.7514	0.1548
269.9652	0.1563
270.1791	0.1413
270.393	0.1463
270.6068	0.1511
270.8207	0.1503
271.0345	0.1539
271.2483	0.1476
271.4622	0.1461
271.676	0.1592
271.8897	0.1478
272.1035	0.1462
272.3173	0.1428
272.531	0.1469
272.7448	0.1382
272.9585	0.1281
273.1722	0.1348
273.3859	0.1522
273.5996	0.1282
273.8133	0.1345
274.0269	0.1504
274.2406	0.1318
274.4542	0.1566
274.6679	0.1368
274.8815	0.1445
275.0951	0.1458
275.3087	0.1473
275.5223	0.1478
275.7358	0.1499
275.9494	0.1399
276.1629	0.1406
276.3765	0.1402
276.59	0.142
276.8035	0.1509
277.017	0.1457
277.2305	0.1502
277.444	0.1502
277.6574	0.138
277.8709	0.1532
278.0843	0.1487
278.2978	0.1503
278.5112	0.1394
278.7246	0.149
278.938	0.1473
279.1513	0.1557
279.3647	0.1491
279.5781	0.1432
279.7914	0.1549
280.0047	0.1558
280.2181	0.1509
280.4314	0.1598
280.6447	0.1508
280.8579	0.1624
281.0712	0.1605
281.2845	0.1645
281.4977	0.1586
281.711	0.1394
281.9242	0.1578
282.1374	0.1491
282.3506	0.1509
282.5638	0.1418
282.7769	0.1518
282.9901	0.144
283.2033	0.1702
283.4164	0.1514
283.6295	0.1446
283.8426	0.1525
284.0557	0.1541
284.2688	0.1605
284.4819	0.1626
284.695	0.1452
284.908	0.1661
285.1211	0.1486
285.3341	0.1588
285.5471	0.174
285.7601	0.149
285.9731	0.1536
286.1861	0.1506
286.3991	0.1589
286.612	0.1684
286.825	0.1584
287.0379	0.1638
287.2508	0.1591
287.4637	0.1571
287.6766	0.1592
287.8895	0.1625
288.1024	0.1706
288.3152	0.17
288.5281	0.1588
288.7409	0.1583
288.9538	0.1583
289.1666	0.1634
289.3794	0.1589
289.5922	0.1672
289.8049	0.1656
290.0177	0.1529
290.2304	0.1596
290.4432	0.1744
290.6559	0.163
290.8686	0.1635
291.0813	0.1594
291.294	0.1589
291.5067	0.1632
291.7194	0.1625
291.932	0.1797
292.1447	0.1589
292.3573	0.1549
292.5699	0.166
292.7825	0.1684
292.9951	0.1469
293.2077	0.1645
293.4203	0.1579
293.6328	0.1551
293.8454	0.1692
294.0579	0.1649
294.2704	0.1657
294.4829	0.1503
294.6954	0.1698
294.9079	0.1653
295.1204	0.1659
295.3328	0.1548
295.5453	0.1669
295.7577	0.1745
295.9701	0.1545
296.1825	0.16
296.3949	0.1595
296.6073	0.1567
296.8197	0.1557
297.0321	0.1688
297.2444	0.1534
297.4567	0.1661
297.6691	0.1668
297.8814	0.1496
298.0937	0.1559
298.306	0.1716
298.5182	0.1576
298.7305	0.1734
298.9428	0.1468
299.155	0.159
299.3672	0.1626
299.5794	0.156
299.7916	0.1663
300.0038	0.1575
300.216	0.1614
300.4282	0.1586
300.6403	0.1569
300.8525	0.1672
301.0646	0.1547
301.2767	0.16
301.4888	0.1643
301.7009	0.1564
301.913	0.1576
302.125	0.1617
302.3371	0.1559
302.5491	0.169
302.7612	0.1876
302.9732	0.159
303.1852	0.1552
303.3972	0.1551
303.6092	0.1474
303.8211	0.1617
304.0331	0.1451
304.245	0.1486
304.457	0.1495
304.6689	0.1488
304.8808	0.1584
305.0927	0.1479
305.3046	0.1518
305.5164	0.1523
305.7283	0.143
305.9401	0.1387
306.152	0.1394
306.3638	0.1606
306.5756	0.1471
306.7874	0.1466
306.9992	0.1497
307.2109	0.134
307.4227	0.1289
307.6344	0.1442
307.8462	0.1311
308.0579	0.129
308.2696	0.1394
308.4813	0.1267
308.693	0.1262
308.9046	0.1358
309.1163	0.1188
309.328	0.1204
309.5396	0.117
309.7512	0.1217
309.9628	0.1177
310.1744	0.1182
310.386	0.1203
310.5976	0.1169
310.8091	0.1223
311.0207	0.1122
311.2322	0.1283
311.4437	0.1182
311.6552	0.1114
311.8667	0.1208
312.0782	0.0983
312.2897	0.1044
312.5012	0.1025
312.7126	0.0972
312.924	0.0946
313.1355	0.1165
313.3469	0.1082
313.5583	0.1107
313.7696	0.1135
313.981	0.1094
314.1924	0.1006
314.4037	0.1022
314.6151	0.1102
314.8264	0.1017
315.0377	0.1023
315.249	0.0962
315.4603	0.1101
315.6716	0.0984
315.8828	0.0865
316.0941	0.0982
316.3053	0.092
316.5165	0.0959
316.7277	0.0862
316.9389	0.1023
317.1501	0.0932
317.3613	0.0986
317.5724	0.0936
317.7836	0.0955
317.9947	0.0985
318.2058	0.0931
318.417	0.0938
318.6281	0.0872
318.8391	0.0984
319.0502	0.0945
319.2613	0.0957
319.4723	0.1013
319.6834	0.0953
319.8944	0.0949
320.1054	0.098
320.3164	0.1034
320.5274	0.0974
320.7383	0.0943
320.9493	0.0947
321.1602	0.1081
321.3712	0.0918
321.5821	0.0982
321.793	0.1028
322.0039	0.0862
322.2148	0.0935
322.4257	0.1014
322.6365	0.1066
322.8474	0.102
323.0582	0.1067
323.269	0.1001
323.4798	0.1084
323.6906	0.1029
323.9014	0.0899
324.1122	0.1078
324.3229	0.0875
324.5337	0.1102
324.7444	0.0885
324.9551	0.1159
325.1658	0.1061
325.3765	0.1076
325.5872	0.1016
325.7979	0.1027
326.0085	0.1053
326.2192	0.11
326.4298	0.1103
326.6404	0.0942
326.851	0.0991
327.0616	0.0998
327.2722	0.1101
327.4828	0.1132
327.6933	0.1131
327.9039	0.1006
328.1144	0.1058
328.3249	0.1151
328.5354	0.1059
328.7459	0.1022
328.9564	0.1018
329.1669	0.1015
329.3773	0.0938
329.5878	0.0989
329.7982	0.1018
330.0086	0.1166
330.219	0.1143
330.4294	0.1001
330.6398	0.1007
330.8502	0.1011
331.0605	0.1093
331.2708	0.1165
331.4812	0.1094
331.6915	0.114
331.9018	0.1094
332.1121	0.0988
332.3224	0.1025
332.5326	0.1089
332.7429	0.1079
332.9531	0.1125
333.1633	0.1167
333.3735	0.1143
333.5837	0.1045
333.7939	0.1072
334.0041	0.1157
334.2143	0.1108
334.4244	0.1061
334.6346	0.0921
334.8447	0.125
335.0548	0.0973
335.2649	0.1012
335.475	0.1164
335.685	0.102
335.8951	0.1176
336.1051	0.1129
336.3152	0.0994
336.5252	0.1041
336.7352	0.1173
336.9452	0.114
337.1552	0.1115
337.3652	0.0945
337.5751	0.1147
337.7851	0.1141
337.995	0.1026
338.2049	0.1135
338.4148	0.1168
338.6247	0.1093
338.8346	0.1063
339.0445	0.1039
339.2543	0.1037
339.4642	0.1169
339.674	0.1011
339.8838	0.1139
340.0936	0.1103
340.3034	0.1326
340.5132	0.1259
340.7229	0.1171
340.9327	0.1207
341.1424	0.1136
341.3522	0.1265
341.5619	0.1265
341.7716	0.1227
341.9813	0.1314
342.1909	0.119
342.4006	0.1315
342.6102	0.1286
342.8199	0.1104
343.0295	0.1234
343.2391	0.126
343.4487	0.1295
343.6583	0.1311
343.8679	0.1216
344.0774	0.1395
344.287	0.1356
344.4965	0.122
344.706	0.1259
344.9155	0.122
345.125	0.1171
345.3345	0.133
345.544	0.1178
345.7534	0.1377
345.9629	0.1313
346.1723	0.1342
346.3817	0.1365
346.5911	0.1336
346.8005	0.1436
347.0099	0.1259
347.2193	0.1388
347.4286	0.1265
347.638	0.1447
347.8473	0.1349
348.0566	0.1216
348.2659	0.1294
348.4752	0.1403
348.6845	0.1331
348.8937	0.1196
349.103	0.1374
349.3122	0.129
349.5214	0.1334
349.7306	0.1341
349.9398	0.1386
350.149	0.1367
350.3582	0.131
350.5674	0.1478
350.7765	0.1342
350.9856	0.1314
351.1948	0.1325
351.4039	0.116
351.613	0.1342
351.822	0.1375
352.0311	0.1461
352.2402	0.143
352.4492	0.1529
352.6582	0.1641
352.8672	0.1371
353.0762	0.1525
353.2852	0.1347
353.4942	0.1329
353.7032	0.1495
353.9121	0.1412
354.1211	0.1463
354.33	0.1539
354.5389	0.1433
354.7478	0.159
354.9567	0.1444
355.1655	0.1508
355.3744	0.1553
355.5833	0.1607
355.7921	0.17
356.0009	0.1526
356.2097	0.1702
356.4185	0.1608
356.6273	0.1573
356.8361	0.1665
357.0448	0.1553
357.2536	0.1633
357.4623	0.1349
357.671	0.1767
357.8797	0.1583
358.0884	0.1652
358.2971	0.1614
358.5057	0.1612
358.7144	0.1656
358.923	0.1689
359.1316	0.1756
359.3402	0.164
359.5488	0.1651
359.7574	0.1633
359.966	0.1746
360.1746	0.182
360.3831	0.1733
360.5916	0.1612
360.8002	0.166
361.0087	0.1868
361.2172	0.17
361.4256	0.1772
361.6341	0.1933
361.8426	0.1815
362.051	0.1804
362.2594	0.1794
362.4678	0.1859
362.6762	0.2081
362.8846	0.1888
363.093	0.1862
363.3014	0.1878
363.5097	0.1619
363.718	0.1754
363.9264	0.1811
364.1347	0.1756
364.343	0.1951
364.5513	0.1925
364.7595	0.2108
364.9678	0.1971
365.176	0.1936
365.3842	0.1886
365.5925	0.1973
365.8007	0.1917
366.0089	0.185
366.217	0.1796
366.4252	0.2075
366.6333	0.2145
366.8415	0.2041
367.0496	0.211
367.2577	0.2129
367.4658	0.2089
367.6739	0.181
367.882	0.2191
368.09	0.2041
368.2981	0.2085
368.5061	0.2008
368.7141	0.2278
368.9221	0.2189
369.1301	0.2206
369.3381	0.2008
369.5461	0.1931
369.754	0.2058
369.962	0.2111
370.1699	0.2094
370.3778	0.2146
370.5857	0.1989
370.7936	0.2223
371.0015	0.2224
371.2093	0.2237
371.4172	0.2165
371.625	0.2
371.8328	0.2065
372.0406	0.2194
372.2484	0.2142
372.4562	0.2157
372.664	0.2064
372.8717	0.2231
373.0795	0.2079
373.2872	0.2171
373.4949	0.2213
373.7026	0.2187
373.9103	0.2264
374.118	0.2067
374.3256	0.2161
374.5333	0.2142
374.7409	0.227
374.9485	0.2436
375.1561	0.2367
375.3637	0.222
375.5713	0.2223
375.7789	0.2402
375.9864	0.245
376.194	0.2314
376.4015	0.2344
376.609	0.2281
376.8165	0.2373
377.024	0.2261
377.2315	0.2271
377.4389	0.2553
377.6464	0.2382
377.8538	0.247
378.0612	0.2326
378.2686	0.2493
378.476	0.2404
378.6834	0.2486
378.8908	0.2549
379.0981	0.2406
379.3055	0.2546
379.5128	0.2456
379.7201	0.2382
379.9274	0.2408
380.1347	0.2588
380.342	0.2536
380.5492	0.2484
380.7565	0.2371
380.9637	0.2425
381.1709	0.2532
381.3781	0.2489
381.5853	0.2569
381.7925	0.2652
381.9997	0.2555
382.2068	0.2472
382.4139	0.2551
382.6211	0.2435
382.8282	0.2423
383.0353	0.2415
383.2424	0.2455
383.4494	0.2531
383.6565	0.2443
383.8635	0.2387
384.0706	0.251
384.2776	0.2517
384.4846	0.2516
384.6916	0.2569
384.8986	0.2495
385.1055	0.2527
385.3125	0.2336
385.5194	0.2225
385.7263	0.281
385.9333	0.2462
386.1402	0.2442
386.347	0.2652
386.5539	0.2458
386.7608	0.2762
386.9676	0.2429
387.1744	0.2587
387.3813	0.2434
387.5881	0.2573
387.7948	0.2462
388.0016	0.2484
388.2084	0.2546
388.4151	0.2466
388.6219	0.2626
388.8286	0.2328
389.0353	0.2691
389.242	0.2549
389.4487	0.2284
389.6553	0.2289
389.862	0.2243
390.0686	0.2404
390.2753	0.2565
390.4819	0.2365
390.6885	0.2384
390.8951	0.2481
391.1016	0.2283
391.3082	0.2407
391.5147	0.2245
391.7213	0.2283
391.9278	0.2127
392.1343	0.2336
392.3408	0.2356
392.5473	0.2273
392.7537	0.231
392.9602	0.2241
393.1666	0.2209
393.373	0.218
393.5794	0.2272
393.7858	0.2153
393.9922	0.2087
394.1986	0.2308
394.4049	0.2308
394.6113	0.2223
394.8176	0.2028
395.0239	0.2146
395.2302	0.2281
395.4365	0.215
395.6428	0.2249
395.8491	0.209
396.0553	0.2156
396.2615	0.2241
396.4678	0.1882
396.674	0.1943
396.8802	0.2183
397.0863	0.2205
397.2925	0.2155
397.4987	0.1899
397.7048	0.2225
397.9109	0.205
398.117	0.1893
398.3231	0.2059
398.5292	0.2178
398.7353	0.2104
398.9413	0.2196
399.1474	0.2115
399.3534	0.1978
399.5594	0.2138
399.7654	0.2124
399.9714	0.2263
400.1774	0.2101
400.3833	0.2036
400.5893	0.2003
400.7952	0.2038
401.0011	0.2137
401.207	0.2296
401.4129	0.2216
401.6188	0.2174
401.8247	0.1962
402.0305	0.1987
402.2364	0.2043
402.4422	0.2137
402.648	0.2214
402.8538	0.2253
403.0596	0.2147
403.2654	0.2129
403.4711	0.1998
403.6768	0.2145
403.8826	0.2099
404.0883	0.2049
404.294	0.2127
404.4997	0.1997
404.7054	0.1993
404.911	0.1995
405.1167	0.2241
405.3223	0.2144
405.5279	0.2221
405.7335	0.2014
405.9391	0.2192
406.1447	0.2309
406.3502	0.2032
406.5558	0.2071
406.7613	0.2147
406.9668	0.2044
407.1724	0.1934
407.3778	0.2058
407.5833	0.1982
407.7888	0.1977
407.9942	0.2266
408.1997	0.2022
408.4051	0.2046
408.6105	0.2151
408.8159	0.1866
409.0213	0.1911
409.2267	0.2185
409.432	0.1946
409.6374	0.2109
409.8427	0.2037
410.048	0.2061
410.2533	0.2159
410.4586	0.1951
410.6639	0.172
410.8691	0.1877
411.0744	0.2033
411.2796	0.1958
411.4848	0.1993
411.69	0.1934
411.8952	0.2227
412.1004	0.198
412.3056	0.224
412.5107	0.196
412.7158	0.2225
412.921	0.2143
413.1261	0.2025
413.3312	0.1901
413.5362	0.1874
413.7413	0.2132
413.9464	0.202
414.1514	0.2047
414.3564	0.2133
414.5614	0.1932
414.7664	0.2115
414.9714	0.2028
415.1764	0.1954
415.3813	0.2139
415.5863	0.1922
415.7912	0.2
415.9961	0.2072
416.201	0.2053
416.4059	0.2083
416.6108	0.1855
416.8156	0.2188
417.0205	0.2005
417.2253	0.2055
417.4301	0.2097
417.6349	0.1906
417.8397	0.1968
418.0445	0.2081
418.2492	0.2064
418.454	0.1874
418.6587	0.2072
418.8634	0.1857
419.0681	0.1816
419.2728	0.1789
419.4775	0.1945
419.6822	0.193
419.8868	0.1889
420.0915	0.1986
420.2961	0.1645
420.5007	0.1927
420.7053	0.1938
420.9099	0.1977
421.1144	0.1811
421.319	0.1584
421.5235	0.2008
421.728	0.1793
421.9325	0.1898
422.137	0.194
422.3415	0.1773
422.546	0.1813
422.7504	0.1803
422.9549	0.1967
423.1593	0.1805
423.3637	0.1833
423.5681	0.1875
423.7725	0.161
423.9769	0.156
424.1812	0.1689
424.3856	0.1844
424.5899	0.1714
424.7942	0.1786
424.9985	0.167
425.2028	0.1559
425.4071	0.1896
425.6113	0.1628
425.8156	0.1669
426.0198	0.1801
426.224	0.1635
426.4282	0.1558
426.6324	0.1507
