Data from MonoPyChalIsomerACN10uM440nmA_Absorbance_15-27-14-294.txt Node
Date: Fri Jul 05 15:27:14 BST 2024
User: LASERRRRR
Spectrometer: FLMT03099
Trigger mode: 0
Integration Time (sec): 1.000000E-1
Scans to average: 1
Electric dark correction enabled: true
Nonlinearity correction enabled: false
Boxcar width: 0
XAxis mode: Wavelengths
Number of Pixels in Spectrum: 3648
>>>>>Begin Spectral Data<<<<<
179.3399	-0
179.5586	-0
179.7771	-0
179.9957	0.3778
180.2143	-0
180.4329	-0.1615
180.6514	-0
180.8699	-0
181.0885	-0.1328
181.307	0.0264
181.5255	-0.0435
181.744	-0.2623
181.9625	0.3112
182.181	-0.6419
182.3994	0.4165
182.6179	0.1027
182.8363	0.1772
183.0547	-0.0602
183.2732	-0.0881
183.4916	0.3636
183.71	0.1797
183.9284	0.0162
184.1467	-0.0429
184.3651	-0.1027
184.5835	0.0122
184.8018	0.2963
185.0201	0.1982
185.2385	-0.1011
185.4568	0.4143
185.6751	-0.0076
185.8934	0.1851
186.1117	-0.0086
186.3299	0.0447
186.5482	0.349
186.7664	0.0434
186.9847	-0.0105
187.2029	0.1924
187.4211	0.0456
187.6393	0.0854
187.8575	0.0898
188.0757	0.2296
188.2939	0.0324
188.512	-0.188
188.7302	0.0813
188.9483	0.1218
189.1665	0.2635
189.3846	0.8804
189.6027	0.2847
189.8208	0.2715
190.0389	0.1036
190.257	0.1987
190.475	0.0738
190.6931	0.1003
190.9111	0.1744
191.1292	0.4174
191.3472	0.4591
191.5652	0.3698
191.7832	0.1452
192.0012	0.6477
192.2192	0.2602
192.4371	0.4431
192.6551	0.3707
192.873	0.3749
193.091	0.3628
193.3089	0.3658
193.5268	0.8563
193.7447	0.636
193.9626	0.4702
194.1805	0.7601
194.3984	1.391
194.6162	0.443
194.8341	0.4138
195.0519	0.7954
195.2697	0.9033
195.4875	0.6567
195.7054	0.4269
195.9231	0.643
196.1409	0.479
196.3587	0.5911
196.5765	0.6302
196.7942	0.9324
197.012	0.5612
197.2297	0.6646
197.4474	0.9488
197.6651	0.587
197.8828	0.5663
198.1005	0.7287
198.3182	0.5258
198.5358	0.8245
198.7535	0.6473
198.9711	0.5138
199.1888	0.649
199.4064	0.7747
199.624	0.5597
199.8416	0.6065
200.0592	0.8463
200.2767	0.6481
200.4943	0.6629
200.7119	0.9096
200.9294	0.6173
201.1469	0.6297
201.3645	0.689
201.582	0.5545
201.7995	0.6509
202.017	0.6469
202.2344	0.6469
202.4519	0.7126
202.6694	0.6105
202.8868	0.6882
203.1042	0.7271
203.3217	0.6849
203.5391	0.5621
203.7565	0.6678
203.9739	0.6444
204.1913	0.6697
204.4086	0.7484
204.626	0.7203
204.8433	0.6518
205.0607	0.6055
205.278	0.6829
205.4953	0.4906
205.7126	0.6062
205.9299	0.6746
206.1472	0.7279
206.3644	0.7076
206.5817	0.6557
206.7989	0.749
207.0162	0.6684
207.2334	0.7563
207.4506	0.6432
207.6678	0.7
207.885	0.6401
208.1022	0.6746
208.3194	0.628
208.5365	0.6698
208.7537	0.6912
208.9708	0.5398
209.1879	0.6573
209.405	0.7057
209.6222	0.7433
209.8392	0.68
210.0563	0.6377
210.2734	0.6667
210.4905	0.7253
210.7075	0.6989
210.9245	0.6379
211.1416	0.6663
211.3586	0.6882
211.5756	0.6547
211.7926	0.6202
212.0096	0.6133
212.2265	0.5933
212.4435	0.575
212.6604	0.67
212.8774	0.6425
213.0943	0.5469
213.3112	0.5505
213.5281	0.5251
213.745	0.4661
213.9619	0.4842
214.1788	0.4924
214.3956	0.4598
214.6125	0.508
214.8293	0.4731
215.0461	0.4571
215.2629	0.4676
215.4798	0.4992
215.6965	0.4234
215.9133	0.4323
216.1301	0.4277
216.3469	0.4337
216.5636	0.4327
216.7803	0.3826
216.9971	0.424
217.2138	0.4068
217.4305	0.3716
217.6472	0.3421
217.8639	0.356
218.0805	0.374
218.2972	0.3358
218.5138	0.3225
218.7305	0.2924
218.9471	0.3106
219.1637	0.2935
219.3803	0.3011
219.5969	0.267
219.8135	0.2635
220.0301	0.2818
220.2466	0.2717
220.4632	0.2658
220.6797	0.237
220.8962	0.2463
221.1127	0.2633
221.3292	0.2535
221.5457	0.2188
221.7622	0.2205
221.9787	0.2433
222.1951	0.246
222.4116	0.2505
222.628	0.2495
222.8444	0.2622
223.0608	0.2352
223.2772	0.2334
223.4936	0.256
223.71	0.2313
223.9264	0.2653
224.1427	0.2433
224.3591	0.2621
224.5754	0.2435
224.7917	0.2449
225.008	0.2476
225.2243	0.2609
225.4406	0.2879
225.6569	0.2807
225.8732	0.2612
226.0894	0.2785
226.3057	0.2708
226.5219	0.283
226.7381	0.2705
226.9543	0.2604
227.1705	0.2803
227.3867	0.2742
227.6029	0.2892
227.8191	0.2808
228.0352	0.2849
228.2513	0.313
228.4675	0.3107
228.6836	0.2913
228.8997	0.2915
229.1158	0.3143
229.3319	0.3175
229.548	0.315
229.764	0.3143
229.9801	0.3244
230.1961	0.3333
230.4121	0.3382
230.6282	0.3453
230.8442	0.3336
231.0602	0.3375
231.2761	0.3412
231.4921	0.353
231.7081	0.3558
231.924	0.3429
232.14	0.3758
232.3559	0.3445
232.5718	0.3649
232.7877	0.3613
233.0036	0.3511
233.2195	0.3723
233.4353	0.343
233.6512	0.37
233.867	0.3603
234.0829	0.3604
234.2987	0.3603
234.5145	0.3876
234.7303	0.3647
234.9461	0.3938
235.1619	0.3596
235.3776	0.36
235.5934	0.391
235.8091	0.3463
236.0249	0.3708
236.2406	0.387
236.4563	0.3737
236.672	0.391
236.8877	0.3884
237.1034	0.3983
237.319	0.4111
237.5347	0.3876
237.7503	0.3996
237.966	0.4005
238.1816	0.4219
238.3972	0.4028
238.6128	0.3931
238.8284	0.4131
239.0439	0.4247
239.2595	0.4031
239.475	0.4086
239.6906	0.3991
239.9061	0.4177
240.1216	0.3926
240.3371	0.3932
240.5526	0.4075
240.7681	0.4029
240.9836	0.4101
241.199	0.3941
241.4145	0.3794
241.6299	0.3683
241.8453	0.388
242.0607	0.3779
242.2761	0.3556
242.4915	0.3654
242.7069	0.3441
242.9223	0.3593
243.1376	0.3533
243.353	0.351
243.5683	0.3454
243.7836	0.3247
243.9989	0.3242
244.2142	0.3084
244.4295	0.3132
244.6448	0.3107
244.86	0.3075
245.0753	0.2889
245.2905	0.292
245.5057	0.2676
245.721	0.2777
245.9362	0.265
246.1514	0.2767
246.3665	0.2587
246.5817	0.2541
246.7969	0.2534
247.012	0.25
247.2271	0.2359
247.4423	0.2468
247.6574	0.2329
247.8725	0.2462
248.0876	0.2224
248.3026	0.2228
248.5177	0.2225
248.7328	0.2062
248.9478	0.2111
249.1628	0.217
249.3779	0.2177
249.5929	0.2085
249.8079	0.2229
250.0228	0.1954
250.2378	0.1945
250.4528	0.2048
250.6677	0.1855
250.8827	0.1907
251.0976	0.195
251.3125	0.1892
251.5274	0.1821
251.7423	0.1772
251.9572	0.1748
252.172	0.1757
252.3869	0.1883
252.6017	0.1818
252.8166	0.1683
253.0314	0.1759
253.2462	0.1667
253.461	0.1747
253.6758	0.1876
253.8906	0.1749
254.1053	0.1613
254.3201	0.1745
254.5348	0.1681
254.7496	0.1675
254.9643	0.1672
255.179	0.1778
255.3937	0.1633
255.6083	0.1799
255.823	0.159
256.0377	0.1644
256.2523	0.1683
256.467	0.1559
256.6816	0.174
256.8962	0.161
257.1108	0.159
257.3254	0.1735
257.54	0.1611
257.7545	0.1682
257.9691	0.1752
258.1836	0.1634
258.3981	0.1763
258.6127	0.1714
258.8272	0.1526
259.0417	0.1684
259.2561	0.1571
259.4706	0.1667
259.6851	0.1677
259.8995	0.1651
260.114	0.1554
260.3284	0.1516
260.5428	0.1582
260.7572	0.1631
260.9716	0.1585
261.186	0.1582
261.4003	0.1625
261.6147	0.1632
261.829	0.1618
262.0433	0.1547
262.2577	0.1615
262.472	0.1652
262.6863	0.1631
262.9005	0.161
263.1148	0.1645
263.3291	0.1544
263.5433	0.1669
263.7576	0.1678
263.9718	0.1559
264.186	0.1622
264.4002	0.1559
264.6144	0.1589
264.8286	0.1653
265.0427	0.1612
265.2569	0.1528
265.471	0.161
265.6851	0.1554
265.8993	0.1641
266.1134	0.1522
266.3275	0.1668
266.5415	0.1575
266.7556	0.1565
266.9697	0.1618
267.1837	0.1508
267.3978	0.1634
267.6118	0.1692
267.8258	0.1605
268.0398	0.1525
268.2538	0.1673
268.4677	0.1613
268.6817	0.1466
268.8957	0.1547
269.1096	0.1637
269.3235	0.1604
269.5374	0.1565
269.7514	0.1555
269.9652	0.1478
270.1791	0.1437
270.393	0.1511
270.6068	0.1538
270.8207	0.1466
271.0345	0.1306
271.2483	0.1491
271.4622	0.147
271.676	0.1522
271.8897	0.1385
272.1035	0.1363
272.3173	0.142
272.531	0.1461
272.7448	0.1432
272.9585	0.1434
273.1722	0.1578
273.3859	0.144
273.5996	0.1298
273.8133	0.142
274.0269	0.1338
274.2406	0.1413
274.4542	0.1362
274.6679	0.1488
274.8815	0.1399
275.0951	0.1464
275.3087	0.1529
275.5223	0.1495
275.7358	0.1395
275.9494	0.1415
276.1629	0.134
276.3765	0.1548
276.59	0.1448
276.8035	0.1406
277.017	0.1376
277.2305	0.145
277.444	0.1493
277.6574	0.1311
277.8709	0.1661
278.0843	0.1296
278.2978	0.1368
278.5112	0.139
278.7246	0.1554
278.938	0.1545
279.1513	0.1488
279.3647	0.1593
279.5781	0.1539
279.7914	0.1481
280.0047	0.1463
280.2181	0.17
280.4314	0.156
280.6447	0.1502
280.8579	0.1545
281.0712	0.1475
281.2845	0.146
281.4977	0.1562
281.711	0.1392
281.9242	0.1542
282.1374	0.1535
282.3506	0.1574
282.5638	0.16
282.7769	0.1612
282.9901	0.1526
283.2033	0.165
283.4164	0.1531
283.6295	0.1414
283.8426	0.1544
284.0557	0.1567
284.2688	0.173
284.4819	0.1625
284.695	0.1565
284.908	0.1561
285.1211	0.1555
285.3341	0.1529
285.5471	0.16
285.7601	0.1563
285.9731	0.1491
286.1861	0.1516
286.3991	0.1667
286.612	0.165
286.825	0.1657
287.0379	0.1599
287.2508	0.1569
287.4637	0.1643
287.6766	0.1515
287.8895	0.1694
288.1024	0.1765
288.3152	0.1622
288.5281	0.1572
288.7409	0.1601
288.9538	0.1648
289.1666	0.1624
289.3794	0.1658
289.5922	0.1556
289.8049	0.1584
290.0177	0.1533
290.2304	0.1644
290.4432	0.1579
290.6559	0.167
290.8686	0.175
291.0813	0.1659
291.294	0.1748
291.5067	0.1701
291.7194	0.1556
291.932	0.1712
292.1447	0.1685
292.3573	0.1482
292.5699	0.1697
292.7825	0.1615
292.9951	0.1519
293.2077	0.1554
293.4203	0.157
293.6328	0.1597
293.8454	0.1652
294.0579	0.1619
294.2704	0.1575
294.4829	0.1496
294.6954	0.1675
294.9079	0.1632
295.1204	0.1708
295.3328	0.1573
295.5453	0.1722
295.7577	0.1673
295.9701	0.1551
296.1825	0.168
296.3949	0.1447
296.6073	0.1651
296.8197	0.1484
297.0321	0.1728
297.2444	0.1523
297.4567	0.1568
297.6691	0.1724
297.8814	0.1556
298.0937	0.165
298.306	0.1522
298.5182	0.1518
298.7305	0.17
298.9428	0.1625
299.155	0.1687
299.3672	0.1629
299.5794	0.1601
299.7916	0.1578
300.0038	0.1611
300.216	0.1627
300.4282	0.158
300.6403	0.1551
300.8525	0.1634
301.0646	0.1507
301.2767	0.1617
301.4888	0.1613
301.7009	0.1628
301.913	0.1586
302.125	0.1601
302.3371	0.1535
302.5491	0.1601
302.7612	0.1794
302.9732	0.1559
303.1852	0.1734
303.3972	0.1586
303.6092	0.1498
303.8211	0.1424
304.0331	0.1562
304.245	0.1609
304.457	0.1668
304.6689	0.1487
304.8808	0.1665
305.0927	0.145
305.3046	0.1491
305.5164	0.1573
305.7283	0.1445
305.9401	0.1476
306.152	0.1532
306.3638	0.1567
306.5756	0.1412
306.7874	0.1448
306.9992	0.1494
307.2109	0.1339
307.4227	0.1238
307.6344	0.1401
307.8462	0.1258
308.0579	0.1401
308.2696	0.1264
308.4813	0.1318
308.693	0.1324
308.9046	0.1367
309.1163	0.1293
309.328	0.1242
309.5396	0.113
309.7512	0.1264
309.9628	0.1157
310.1744	0.1197
310.386	0.119
310.5976	0.1187
310.8091	0.1197
311.0207	0.1216
311.2322	0.1254
311.4437	0.0991
311.6552	0.1083
311.8667	0.117
312.0782	0.0924
312.2897	0.1043
312.5012	0.1145
312.7126	0.109
312.924	0.097
313.1355	0.1145
313.3469	0.1061
313.5583	0.1093
313.7696	0.1124
313.981	0.1045
314.1924	0.0978
314.4037	0.1046
314.6151	0.114
314.8264	0.1008
315.0377	0.1042
315.249	0.1025
315.4603	0.0982
315.6716	0.1031
315.8828	0.094
316.0941	0.094
316.3053	0.0857
316.5165	0.0837
316.7277	0.0978
316.9389	0.11
317.1501	0.0878
317.3613	0.1029
317.5724	0.0842
317.7836	0.101
317.9947	0.102
318.2058	0.1019
318.417	0.0845
318.6281	0.0944
318.8391	0.0873
319.0502	0.0967
319.2613	0.0876
319.4723	0.1058
319.6834	0.0993
319.8944	0.0929
320.1054	0.095
320.3164	0.0903
320.5274	0.094
320.7383	0.0989
320.9493	0.0954
321.1602	0.1124
321.3712	0.0848
321.5821	0.0958
321.793	0.1111
322.0039	0.0915
322.2148	0.0894
322.4257	0.0955
322.6365	0.1069
322.8474	0.1049
323.0582	0.0959
323.269	0.1087
323.4798	0.1023
323.6906	0.0961
323.9014	0.1051
324.1122	0.0972
324.3229	0.0911
324.5337	0.1071
324.7444	0.0862
324.9551	0.1132
325.1658	0.0996
325.3765	0.1034
325.5872	0.0996
325.7979	0.1041
326.0085	0.0994
326.2192	0.1061
326.4298	0.0975
326.6404	0.0973
326.851	0.1043
327.0616	0.1014
327.2722	0.1016
327.4828	0.1089
327.6933	0.102
327.9039	0.1072
328.1144	0.1031
328.3249	0.115
328.5354	0.0993
328.7459	0.0983
328.9564	0.0922
329.1669	0.1092
329.3773	0.0968
329.5878	0.1013
329.7982	0.1003
330.0086	0.101
330.219	0.1096
330.4294	0.1082
330.6398	0.0994
330.8502	0.1004
331.0605	0.106
331.2708	0.1096
331.4812	0.1153
331.6915	0.1119
331.9018	0.1109
332.1121	0.1048
332.3224	0.1132
332.5326	0.115
332.7429	0.1016
332.9531	0.1146
333.1633	0.1177
333.3735	0.1069
333.5837	0.1124
333.7939	0.1033
334.0041	0.1125
334.2143	0.1173
334.4244	0.1133
334.6346	0.0996
334.8447	0.1201
335.0548	0.1004
335.2649	0.1033
335.475	0.1166
335.685	0.105
335.8951	0.118
336.1051	0.1112
336.3152	0.1137
336.5252	0.0938
336.7352	0.1172
336.9452	0.1057
337.1552	0.1136
337.3652	0.1147
337.5751	0.1195
337.7851	0.1121
337.995	0.1085
338.2049	0.1226
338.4148	0.1206
338.6247	0.13
338.8346	0.1028
339.0445	0.1077
339.2543	0.1106
339.4642	0.1158
339.674	0.095
339.8838	0.1142
340.0936	0.1131
340.3034	0.1268
340.5132	0.1161
340.7229	0.1156
340.9327	0.1221
341.1424	0.1179
341.3522	0.1289
341.5619	0.1209
341.7716	0.1246
341.9813	0.1267
342.1909	0.1206
342.4006	0.1348
342.6102	0.1263
342.8199	0.1201
343.0295	0.1175
343.2391	0.1225
343.4487	0.1339
343.6583	0.1155
343.8679	0.123
344.0774	0.1276
344.287	0.1335
344.4965	0.1237
344.706	0.1345
344.9155	0.1205
345.125	0.1258
345.3345	0.1239
345.544	0.1194
345.7534	0.1341
345.9629	0.1356
346.1723	0.1227
346.3817	0.1198
346.5911	0.1162
346.8005	0.1296
347.0099	0.1364
347.2193	0.1267
347.4286	0.13
347.638	0.1505
347.8473	0.1432
348.0566	0.1368
348.2659	0.1372
348.4752	0.1268
348.6845	0.122
348.8937	0.1225
349.103	0.136
349.3122	0.1277
349.5214	0.1229
349.7306	0.1388
349.9398	0.138
350.149	0.14
350.3582	0.1245
350.5674	0.1433
350.7765	0.1457
350.9856	0.1355
351.1948	0.1412
351.4039	0.1173
351.613	0.1331
351.822	0.1421
352.0311	0.1543
352.2402	0.14
352.4492	0.1474
352.6582	0.1591
352.8672	0.1444
353.0762	0.1404
353.2852	0.1492
353.4942	0.1296
353.7032	0.1415
353.9121	0.1447
354.1211	0.1446
354.33	0.1467
354.5389	0.155
354.7478	0.1543
354.9567	0.1479
355.1655	0.1375
355.3744	0.161
355.5833	0.1504
355.7921	0.1808
356.0009	0.1617
356.2097	0.169
356.4185	0.1662
356.6273	0.1678
356.8361	0.1675
357.0448	0.1548
357.2536	0.1499
357.4623	0.1648
357.671	0.1619
357.8797	0.1644
358.0884	0.1667
358.2971	0.1679
358.5057	0.1827
358.7144	0.1748
358.923	0.1624
359.1316	0.1613
359.3402	0.1786
359.5488	0.1644
359.7574	0.1616
359.966	0.1638
360.1746	0.1618
360.3831	0.1771
360.5916	0.1592
360.8002	0.1714
361.0087	0.1785
361.2172	0.1763
361.4256	0.1903
361.6341	0.1872
361.8426	0.1799
362.051	0.1807
362.2594	0.183
362.4678	0.1741
362.6762	0.2007
362.8846	0.2007
363.093	0.1683
363.3014	0.1892
363.5097	0.1674
363.718	0.1834
363.9264	0.1882
364.1347	0.1742
364.343	0.2096
364.5513	0.1989
364.7595	0.2077
364.9678	0.1771
365.176	0.198
365.3842	0.181
365.5925	0.1962
365.8007	0.1917
366.0089	0.1982
366.217	0.1928
366.4252	0.2146
366.6333	0.2143
366.8415	0.192
367.0496	0.1825
367.2577	0.2052
367.4658	0.2026
367.6739	0.2114
367.882	0.2009
368.09	0.1882
368.2981	0.2019
368.5061	0.2082
368.7141	0.201
368.9221	0.224
369.1301	0.2184
369.3381	0.2085
369.5461	0.205
369.754	0.2143
369.962	0.2161
370.1699	0.2169
370.3778	0.2237
370.5857	0.2035
370.7936	0.2072
371.0015	0.2095
371.2093	0.2177
371.4172	0.2173
371.625	0.1966
371.8328	0.2077
372.0406	0.2287
372.2484	0.2166
372.4562	0.2201
372.664	0.2195
372.8717	0.2352
373.0795	0.2011
373.2872	0.2258
373.4949	0.2194
373.7026	0.2195
373.9103	0.241
374.118	0.2348
374.3256	0.2314
374.5333	0.2328
374.7409	0.2221
374.9485	0.2471
375.1561	0.2411
375.3637	0.2413
375.5713	0.2347
375.7789	0.2424
375.9864	0.2212
376.194	0.2275
376.4015	0.2481
376.609	0.2448
376.8165	0.2249
377.024	0.2286
377.2315	0.2243
377.4389	0.2506
377.6464	0.2527
377.8538	0.2432
378.0612	0.2326
378.2686	0.2414
378.476	0.2462
378.6834	0.253
378.8908	0.2439
379.0981	0.2477
379.3055	0.2354
379.5128	0.2617
379.7201	0.2448
379.9274	0.2446
380.1347	0.2514
380.342	0.275
380.5492	0.2399
380.7565	0.2611
380.9637	0.2468
381.1709	0.2568
381.3781	0.2559
381.5853	0.2677
381.7925	0.2525
381.9997	0.2718
382.2068	0.2565
382.4139	0.2556
382.6211	0.2437
382.8282	0.2635
383.0353	0.2352
383.2424	0.2587
383.4494	0.2587
383.6565	0.2418
383.8635	0.2552
384.0706	0.2701
384.2776	0.2606
384.4846	0.252
384.6916	0.2597
384.8986	0.2608
385.1055	0.2433
385.3125	0.2726
385.5194	0.2509
385.7263	0.2657
385.9333	0.2496
386.1402	0.2654
386.347	0.2573
386.5539	0.2384
386.7608	0.2689
386.9676	0.2546
387.1744	0.2594
387.3813	0.234
387.5881	0.2675
387.7948	0.2489
388.0016	0.2408
388.2084	0.2471
388.4151	0.2375
388.6219	0.2526
388.8286	0.2501
389.0353	0.2611
389.242	0.2608
389.4487	0.2414
389.6553	0.2341
389.862	0.2157
390.0686	0.2408
390.2753	0.2484
390.4819	0.2449
390.6885	0.2689
390.8951	0.2478
391.1016	0.2298
391.3082	0.2424
391.5147	0.2461
391.7213	0.2397
391.9278	0.2205
392.1343	0.2449
392.3408	0.2333
392.5473	0.2419
392.7537	0.2328
392.9602	0.2201
393.1666	0.2287
393.373	0.2506
393.5794	0.234
393.7858	0.2315
393.9922	0.2196
394.1986	0.2288
394.4049	0.2339
394.6113	0.2071
394.8176	0.2185
395.0239	0.227
395.2302	0.2303
395.4365	0.2112
395.6428	0.2207
395.8491	0.2177
396.0553	0.2203
396.2615	0.2168
396.4678	0.2095
396.674	0.2029
396.8802	0.2253
397.0863	0.2158
397.2925	0.2035
397.4987	0.2069
397.7048	0.1943
397.9109	0.2253
398.117	0.1996
398.3231	0.2093
398.5292	0.2327
398.7353	0.2183
398.9413	0.2118
399.1474	0.2023
399.3534	0.2248
399.5594	0.2095
399.7654	0.2241
399.9714	0.2191
400.1774	0.205
400.3833	0.2069
400.5893	0.2237
400.7952	0.2142
401.0011	0.2293
401.207	0.2349
401.4129	0.2255
401.6188	0.2128
401.8247	0.2023
402.0305	0.2162
402.2364	0.2196
402.4422	0.2219
402.648	0.2209
402.8538	0.2211
403.0596	0.2054
403.2654	0.2122
403.4711	0.2026
403.6768	0.2152
403.8826	0.2233
404.0883	0.2192
404.294	0.2174
404.4997	0.2175
404.7054	0.2208
404.911	0.2023
405.1167	0.2092
405.3223	0.205
405.5279	0.2076
405.7335	0.2262
405.9391	0.2327
406.1447	0.2111
406.3502	0.2354
406.5558	0.2028
406.7613	0.2258
406.9668	0.2167
407.1724	0.2175
407.3778	0.2141
407.5833	0.2196
407.7888	0.1964
407.9942	0.2185
408.1997	0.2152
408.4051	0.2149
408.6105	0.2133
408.8159	0.1991
409.0213	0.2037
409.2267	0.2238
409.432	0.1891
409.6374	0.2178
409.8427	0.2079
410.048	0.2068
410.2533	0.2105
410.4586	0.2164
410.6639	0.1897
410.8691	0.1965
411.0744	0.2082
411.2796	0.1955
411.4848	0.2067
411.69	0.1997
411.8952	0.2232
412.1004	0.2046
412.3056	0.2022
412.5107	0.2038
412.7158	0.2313
412.921	0.2097
413.1261	0.1933
413.3312	0.2111
413.5362	0.1989
413.7413	0.208
413.9464	0.1979
414.1514	0.2169
414.3564	0.2044
414.5614	0.2073
414.7664	0.2014
414.9714	0.2168
415.1764	0.2142
415.3813	0.2071
415.5863	0.2227
415.7912	0.2005
415.9961	0.2209
416.201	0.2165
416.4059	0.2194
416.6108	0.1855
416.8156	0.203
417.0205	0.1977
417.2253	0.1887
417.4301	0.2144
417.6349	0.1911
417.8397	0.193
418.0445	0.2055
418.2492	0.2013
418.454	0.1922
418.6587	0.1985
418.8634	0.1997
419.0681	0.1808
419.2728	0.1838
419.4775	0.1997
419.6822	0.2044
419.8868	0.1682
420.0915	0.1897
420.2961	0.1813
420.5007	0.1812
420.7053	0.1971
420.9099	0.1817
421.1144	0.2086
421.319	0.195
421.5235	0.2059
421.728	0.1973
421.9325	0.1818
422.137	0.1933
422.3415	0.1776
422.546	0.1839
422.7504	0.1842
422.9549	0.2018
423.1593	0.1882
423.3637	0.2034
423.5681	0.1948
423.7725	0.1895
423.9769	0.1564
424.1812	0.1902
424.3856	0.1663
424.5899	0.1853
424.7942	0.1839
424.9985	0.1882
425.2028	0.1626
425.4071	0.1953
425.6113	0.1578
425.8156	0.1639
426.0198	0.1789
426.224	0.1547
426.4282	0.1757
426.6324	0.162
426.8366	0.1716
