Data from MonoPyChalIsomerACN10uM440nmA_Absorbance_15-27-11-494.txt Node
Date: Fri Jul 05 15:27:11 BST 2024
User: LASERRRRR
Spectrometer: FLMT03099
Trigger mode: 0
Integration Time (sec): 1.000000E-1
Scans to average: 1
Electric dark correction enabled: true
Nonlinearity correction enabled: false
Boxcar width: 0
XAxis mode: Wavelengths
Number of Pixels in Spectrum: 3648
>>>>>Begin Spectral Data<<<<<
179.3399	0.4914
179.5586	0.4914
179.7771	0.4914
179.9957	-0.2005
180.2143	-0
180.4329	-0.0251
180.6514	-0
180.8699	-0
181.0885	1.9518
181.307	0.2293
181.5255	-0.6657
181.744	-0
181.9625	-0
182.181	-0.4175
182.3994	0.0422
182.6179	-0
182.8363	-0.0064
183.0547	-0.4829
183.2732	-0.1202
183.4916	-0.0361
183.71	-0.032
183.9284	0.2875
184.1467	-0.1812
184.3651	0.0121
184.5835	-0.0531
184.8018	0.0988
185.0201	-0.012
185.2385	-0.0413
185.4568	0.0525
185.6751	0.1463
185.8934	0.2515
186.1117	-0.1489
186.3299	0.1046
186.5482	0.0159
186.7664	-0.0254
186.9847	-0.0536
187.2029	0.0612
187.4211	0.152
187.6393	0.0534
187.8575	-0.0785
188.0757	0.1405
188.2939	0.0711
188.512	0.004
188.7302	-0.2004
188.9483	-0.0095
189.1665	0.2515
189.3846	0.4667
189.6027	0.0158
189.8208	0.0957
190.0389	0.2834
190.257	0.0797
190.475	0.0395
190.6931	0.2103
190.9111	0.2808
191.1292	0.1711
191.3472	0.395
191.5652	0.297
191.7832	0.141
192.0012	0.378
192.2192	0.3274
192.4371	0.5711
192.6551	0.4987
192.873	0.4586
193.091	0.3582
193.3089	0.4839
193.5268	0.447
193.7447	0.4824
193.9626	0.3154
194.1805	0.4604
194.3984	0.7384
194.6162	0.4879
194.8341	0.3659
195.0519	0.5169
195.2697	0.5419
195.4875	0.9029
195.7054	0.5069
195.9231	0.6247
196.1409	0.595
196.3587	0.5633
196.5765	0.5927
196.7942	0.5613
197.012	0.5256
197.2297	0.436
197.4474	0.8722
197.6651	0.5007
197.8828	0.5081
198.1005	0.6525
198.3182	0.5198
198.5358	0.8139
198.7535	0.5455
198.9711	0.6017
199.1888	0.6363
199.4064	0.757
199.624	0.6057
199.8416	0.473
200.0592	0.5805
200.2767	0.757
200.4943	0.5941
200.7119	0.674
200.9294	0.653
201.1469	0.5306
201.3645	0.5236
201.582	0.4798
201.7995	0.5875
202.017	0.4785
202.2344	0.6315
202.4519	0.6496
202.6694	0.5755
202.8868	0.5632
203.1042	0.6922
203.3217	0.7398
203.5391	0.695
203.7565	0.6336
203.9739	0.6087
204.1913	0.5701
204.4086	0.6576
204.626	0.7078
204.8433	0.6835
205.0607	0.6207
205.278	0.6462
205.4953	0.6429
205.7126	0.669
205.9299	0.7299
206.1472	0.7799
206.3644	0.6192
206.5817	0.7127
206.7989	0.8239
207.0162	0.5784
207.2334	0.6027
207.4506	0.6217
207.6678	0.6844
207.885	0.6125
208.1022	0.7019
208.3194	0.6735
208.5365	0.6326
208.7537	0.5994
208.9708	0.6176
209.1879	0.6538
209.405	0.6997
209.6222	0.7816
209.8392	0.7056
210.0563	0.6047
210.2734	0.668
210.4905	0.6079
210.7075	0.6638
210.9245	0.6049
211.1416	0.693
211.3586	0.6181
211.5756	0.5925
211.7926	0.6483
212.0096	0.657
212.2265	0.5804
212.4435	0.6655
212.6604	0.6216
212.8774	0.6002
213.0943	0.6136
213.3112	0.5213
213.5281	0.5277
213.745	0.5492
213.9619	0.5081
214.1788	0.4865
214.3956	0.4845
214.6125	0.4643
214.8293	0.4474
215.0461	0.4495
215.2629	0.5138
215.4798	0.5069
215.6965	0.417
215.9133	0.4479
216.1301	0.418
216.3469	0.4216
216.5636	0.3974
216.7803	0.386
216.9971	0.4177
217.2138	0.3883
217.4305	0.3467
217.6472	0.3666
217.8639	0.3837
218.0805	0.3526
218.2972	0.3333
218.5138	0.3184
218.7305	0.309
218.9471	0.3119
219.1637	0.3047
219.3803	0.2691
219.5969	0.2759
219.8135	0.2649
220.0301	0.2721
220.2466	0.2867
220.4632	0.2624
220.6797	0.2366
220.8962	0.2442
221.1127	0.2467
221.3292	0.257
221.5457	0.2194
221.7622	0.2306
221.9787	0.2554
222.1951	0.2292
222.4116	0.2773
222.628	0.2389
222.8444	0.2673
223.0608	0.2469
223.2772	0.2511
223.4936	0.2652
223.71	0.2315
223.9264	0.2514
224.1427	0.2688
224.3591	0.2308
224.5754	0.2501
224.7917	0.2619
225.008	0.2556
225.2243	0.2585
225.4406	0.2731
225.6569	0.2425
225.8732	0.2556
226.0894	0.2524
226.3057	0.2477
226.5219	0.281
226.7381	0.2724
226.9543	0.2714
227.1705	0.2728
227.3867	0.2844
227.6029	0.2934
227.8191	0.3061
228.0352	0.2749
228.2513	0.3127
228.4675	0.3126
228.6836	0.2827
228.8997	0.2956
229.1158	0.3013
229.3319	0.3198
229.548	0.3295
229.764	0.3407
229.9801	0.3204
230.1961	0.3237
230.4121	0.3469
230.6282	0.3107
230.8442	0.311
231.0602	0.337
231.2761	0.3445
231.4921	0.3311
231.7081	0.3422
231.924	0.3365
232.14	0.3612
232.3559	0.3442
232.5718	0.3603
232.7877	0.3495
233.0036	0.3524
233.2195	0.3445
233.4353	0.3592
233.6512	0.3636
233.867	0.3571
234.0829	0.3705
234.2987	0.3597
234.5145	0.3836
234.7303	0.3896
234.9461	0.3803
235.1619	0.385
235.3776	0.3762
235.5934	0.3704
235.8091	0.368
236.0249	0.374
236.2406	0.3823
236.4563	0.3752
236.672	0.4053
236.8877	0.4205
237.1034	0.4029
237.319	0.3669
237.5347	0.4015
237.7503	0.4182
237.966	0.4012
238.1816	0.4143
238.3972	0.402
238.6128	0.4001
238.8284	0.4098
239.0439	0.4101
239.2595	0.4101
239.475	0.4104
239.6906	0.41
239.9061	0.3894
240.1216	0.4038
240.3371	0.4003
240.5526	0.3862
240.7681	0.4046
240.9836	0.3929
241.199	0.4065
241.4145	0.3865
241.6299	0.374
241.8453	0.3739
242.0607	0.3907
242.2761	0.362
242.4915	0.3707
242.7069	0.3505
242.9223	0.3406
243.1376	0.3434
243.353	0.338
243.5683	0.336
243.7836	0.3128
243.9989	0.321
244.2142	0.2942
244.4295	0.294
244.6448	0.2908
244.86	0.2957
245.0753	0.2823
245.2905	0.261
245.5057	0.2694
245.721	0.2643
245.9362	0.2557
246.1514	0.2627
246.3665	0.2553
246.5817	0.2463
246.7969	0.2402
247.012	0.2363
247.2271	0.2332
247.4423	0.2276
247.6574	0.2267
247.8725	0.2234
248.0876	0.214
248.3026	0.2097
248.5177	0.2134
248.7328	0.2131
248.9478	0.2
249.1628	0.2067
249.3779	0.2064
249.5929	0.1931
249.8079	0.2063
250.0228	0.1919
250.2378	0.1924
250.4528	0.2042
250.6677	0.1875
250.8827	0.1856
251.0976	0.1831
251.3125	0.1914
251.5274	0.1739
251.7423	0.1785
251.9572	0.1724
252.172	0.172
252.3869	0.174
252.6017	0.1815
252.8166	0.158
253.0314	0.1535
253.2462	0.1675
253.461	0.175
253.6758	0.1678
253.8906	0.162
254.1053	0.1626
254.3201	0.1623
254.5348	0.1662
254.7496	0.1668
254.9643	0.1665
255.179	0.1688
255.3937	0.1548
255.6083	0.171
255.823	0.1644
256.0377	0.1569
256.2523	0.168
256.467	0.1476
256.6816	0.1731
256.8962	0.1686
257.1108	0.1507
257.3254	0.1633
257.54	0.1603
257.7545	0.1572
257.9691	0.1701
258.1836	0.1599
258.3981	0.1666
258.6127	0.1711
258.8272	0.1559
259.0417	0.1548
259.2561	0.1654
259.4706	0.1661
259.6851	0.158
259.8995	0.1605
260.114	0.1583
260.3284	0.1647
260.5428	0.1551
260.7572	0.1591
260.9716	0.1583
261.186	0.1618
261.4003	0.1471
261.6147	0.1583
261.829	0.1623
262.0433	0.1537
262.2577	0.1533
262.472	0.1706
262.6863	0.162
262.9005	0.1648
263.1148	0.1628
263.3291	0.1411
263.5433	0.1576
263.7576	0.1651
263.9718	0.159
264.186	0.1547
264.4002	0.1632
264.6144	0.1468
264.8286	0.1637
265.0427	0.1523
265.2569	0.1572
265.471	0.1461
265.6851	0.1498
265.8993	0.152
266.1134	0.1513
266.3275	0.149
266.5415	0.1576
266.7556	0.1605
266.9697	0.1504
267.1837	0.1629
267.3978	0.151
267.6118	0.1658
267.8258	0.1722
268.0398	0.136
268.2538	0.1558
268.4677	0.1525
268.6817	0.1416
268.8957	0.1535
269.1096	0.1574
269.3235	0.1676
269.5374	0.1453
269.7514	0.146
269.9652	0.141
270.1791	0.1461
270.393	0.1389
270.6068	0.1536
270.8207	0.1421
271.0345	0.1359
271.2483	0.1349
271.4622	0.1413
271.676	0.1453
271.8897	0.1244
272.1035	0.1269
272.3173	0.1213
272.531	0.133
272.7448	0.1374
272.9585	0.1308
273.1722	0.122
273.3859	0.1371
273.5996	0.1264
273.8133	0.141
274.0269	0.1295
274.2406	0.129
274.4542	0.1312
274.6679	0.1226
274.8815	0.1347
275.0951	0.1428
275.3087	0.1479
275.5223	0.1483
275.7358	0.1305
275.9494	0.1328
276.1629	0.1289
276.3765	0.1236
276.59	0.1335
276.8035	0.1409
277.017	0.1264
277.2305	0.126
277.444	0.1347
277.6574	0.1338
277.8709	0.1393
278.0843	0.1222
278.2978	0.1251
278.5112	0.1312
278.7246	0.1412
278.938	0.1431
279.1513	0.1427
279.3647	0.1455
279.5781	0.1407
279.7914	0.1335
280.0047	0.1516
280.2181	0.1374
280.4314	0.1412
280.6447	0.1441
280.8579	0.134
281.0712	0.1396
281.2845	0.1512
281.4977	0.1387
281.711	0.1344
281.9242	0.1492
282.1374	0.1397
282.3506	0.1456
282.5638	0.1492
282.7769	0.1476
282.9901	0.1436
283.2033	0.158
283.4164	0.1562
283.6295	0.1265
283.8426	0.1418
284.0557	0.1487
284.2688	0.1613
284.4819	0.1591
284.695	0.1398
284.908	0.1585
285.1211	0.1413
285.3341	0.1575
285.5471	0.1648
285.7601	0.156
285.9731	0.1511
286.1861	0.1416
286.3991	0.1554
286.612	0.166
286.825	0.1552
287.0379	0.157
287.2508	0.1527
287.4637	0.1628
287.6766	0.1463
287.8895	0.1647
288.1024	0.1706
288.3152	0.1625
288.5281	0.161
288.7409	0.1615
288.9538	0.1606
289.1666	0.147
289.3794	0.1644
289.5922	0.154
289.8049	0.1594
290.0177	0.1543
290.2304	0.1594
290.4432	0.166
290.6559	0.1651
290.8686	0.1648
291.0813	0.1636
291.294	0.163
291.5067	0.1628
291.7194	0.1602
291.932	0.1746
292.1447	0.1622
292.3573	0.1621
292.5699	0.1625
292.7825	0.161
292.9951	0.1507
293.2077	0.1569
293.4203	0.1661
293.6328	0.1541
293.8454	0.169
294.0579	0.1692
294.2704	0.1628
294.4829	0.1529
294.6954	0.1598
294.9079	0.1587
295.1204	0.1601
295.3328	0.1617
295.5453	0.1621
295.7577	0.1612
295.9701	0.1454
296.1825	0.1718
296.3949	0.1677
296.6073	0.1572
296.8197	0.1541
297.0321	0.1651
297.2444	0.1603
297.4567	0.167
297.6691	0.1601
297.8814	0.1562
298.0937	0.16
298.306	0.1575
298.5182	0.1679
298.7305	0.1738
298.9428	0.1661
299.155	0.17
299.3672	0.1803
299.5794	0.1558
299.7916	0.1556
300.0038	0.1731
300.216	0.1632
300.4282	0.174
300.6403	0.1678
300.8525	0.1728
301.0646	0.1543
301.2767	0.1712
301.4888	0.166
301.7009	0.1722
301.913	0.1658
302.125	0.1684
302.3371	0.1507
302.5491	0.1564
302.7612	0.1676
302.9732	0.1583
303.1852	0.1703
303.3972	0.1514
303.6092	0.1557
303.8211	0.1488
304.0331	0.1521
304.245	0.1541
304.457	0.1521
304.6689	0.1543
304.8808	0.1675
305.0927	0.1513
305.3046	0.1507
305.5164	0.1508
305.7283	0.1415
305.9401	0.1585
306.152	0.1491
306.3638	0.1539
306.5756	0.1424
306.7874	0.1487
306.9992	0.1419
307.2109	0.1329
307.4227	0.1264
307.6344	0.1439
307.8462	0.13
308.0579	0.1322
308.2696	0.1335
308.4813	0.1404
308.693	0.1283
308.9046	0.1391
309.1163	0.1244
309.328	0.1193
309.5396	0.1171
309.7512	0.1099
309.9628	0.1204
310.1744	0.1194
310.386	0.1147
310.5976	0.1104
310.8091	0.1095
311.0207	0.1172
311.2322	0.1143
311.4437	0.1038
311.6552	0.1112
311.8667	0.1126
312.0782	0.0873
312.2897	0.0885
312.5012	0.1049
312.7126	0.0921
312.924	0.0933
313.1355	0.1101
313.3469	0.0957
313.5583	0.1116
313.7696	0.0981
313.981	0.1063
314.1924	0.0932
314.4037	0.0975
314.6151	0.1045
314.8264	0.0869
315.0377	0.0944
315.249	0.0927
315.4603	0.1013
315.6716	0.0937
315.8828	0.0868
316.0941	0.0876
316.3053	0.087
316.5165	0.088
316.7277	0.0845
316.9389	0.09
317.1501	0.0857
317.3613	0.0955
317.5724	0.0838
317.7836	0.0976
317.9947	0.0856
318.2058	0.0909
318.417	0.0745
318.6281	0.086
318.8391	0.0857
319.0502	0.0846
319.2613	0.0934
319.4723	0.0865
319.6834	0.1023
319.8944	0.0777
320.1054	0.0961
320.3164	0.0863
320.5274	0.0787
320.7383	0.0877
320.9493	0.0878
321.1602	0.0973
321.3712	0.0856
321.5821	0.0966
321.793	0.0936
322.0039	0.0883
322.2148	0.0862
322.4257	0.0893
322.6365	0.0951
322.8474	0.0898
323.0582	0.0972
323.269	0.0876
323.4798	0.1041
323.6906	0.0855
323.9014	0.097
324.1122	0.0886
324.3229	0.0796
324.5337	0.0887
324.7444	0.0831
324.9551	0.0966
325.1658	0.1013
325.3765	0.0928
325.5872	0.0864
325.7979	0.0868
326.0085	0.0866
326.2192	0.0901
326.4298	0.0884
326.6404	0.0812
326.851	0.0915
327.0616	0.0956
327.2722	0.0948
327.4828	0.0979
327.6933	0.0948
327.9039	0.1041
328.1144	0.0974
328.3249	0.1044
328.5354	0.0874
328.7459	0.0997
328.9564	0.0863
329.1669	0.0887
329.3773	0.1026
329.5878	0.1028
329.7982	0.0926
330.0086	0.0914
330.219	0.0865
330.4294	0.1038
330.6398	0.0986
330.8502	0.0896
331.0605	0.1038
331.2708	0.1032
331.4812	0.0938
331.6915	0.0987
331.9018	0.0917
332.1121	0.0901
332.3224	0.0888
332.5326	0.1112
332.7429	0.1024
332.9531	0.1069
333.1633	0.094
333.3735	0.0982
333.5837	0.0981
333.7939	0.0945
334.0041	0.1178
334.2143	0.096
334.4244	0.1063
334.6346	0.0715
334.8447	0.109
335.0548	0.0969
335.2649	0.0892
335.475	0.1169
335.685	0.0939
335.8951	0.1058
336.1051	0.0996
336.3152	0.1042
336.5252	0.096
336.7352	0.0993
336.9452	0.1043
337.1552	0.1026
337.3652	0.1067
337.5751	0.0978
337.7851	0.1115
337.995	0.0915
338.2049	0.1004
338.4148	0.1097
338.6247	0.1153
338.8346	0.0988
339.0445	0.0934
339.2543	0.1039
339.4642	0.0999
339.674	0.1026
339.8838	0.0971
340.0936	0.0908
340.3034	0.1095
340.5132	0.1039
340.7229	0.1086
340.9327	0.0943
341.1424	0.1034
341.3522	0.1138
341.5619	0.1225
341.7716	0.1124
341.9813	0.1119
342.1909	0.107
342.4006	0.1224
342.6102	0.1157
342.8199	0.1154
343.0295	0.1179
343.2391	0.1216
343.4487	0.1224
343.6583	0.1172
343.8679	0.1156
344.0774	0.1121
344.287	0.1219
344.4965	0.1163
344.706	0.1267
344.9155	0.1133
345.125	0.1153
345.3345	0.1203
345.544	0.1096
345.7534	0.109
345.9629	0.1088
346.1723	0.1215
346.3817	0.1194
346.5911	0.1091
346.8005	0.118
347.0099	0.1094
347.2193	0.1167
347.4286	0.1169
347.638	0.1305
347.8473	0.1256
348.0566	0.1298
348.2659	0.1109
348.4752	0.1357
348.6845	0.123
348.8937	0.1346
349.103	0.1338
349.3122	0.1163
349.5214	0.1223
349.7306	0.1376
349.9398	0.1247
350.149	0.1158
350.3582	0.127
350.5674	0.1361
350.7765	0.1224
350.9856	0.1184
351.1948	0.146
351.4039	0.1198
351.613	0.1289
351.822	0.1416
352.0311	0.1376
352.2402	0.1487
352.4492	0.149
352.6582	0.1402
352.8672	0.151
353.0762	0.1365
353.2852	0.1335
353.4942	0.1363
353.7032	0.1618
353.9121	0.1456
354.1211	0.1419
354.33	0.1422
354.5389	0.1396
354.7478	0.1428
354.9567	0.1376
355.1655	0.1365
355.3744	0.1432
355.5833	0.1678
355.7921	0.1716
356.0009	0.1575
356.2097	0.1589
356.4185	0.1623
356.6273	0.1397
356.8361	0.1624
357.0448	0.154
357.2536	0.1577
357.4623	0.1571
357.671	0.1664
357.8797	0.1521
358.0884	0.1572
358.2971	0.1657
358.5057	0.1661
358.7144	0.1654
358.923	0.167
359.1316	0.1609
359.3402	0.1657
359.5488	0.1638
359.7574	0.1578
359.966	0.1754
360.1746	0.1692
360.3831	0.1736
360.5916	0.1482
360.8002	0.1737
361.0087	0.1796
361.2172	0.1835
361.4256	0.1754
361.6341	0.1873
361.8426	0.1779
362.051	0.1776
362.2594	0.1868
362.4678	0.173
362.6762	0.2066
362.8846	0.1851
363.093	0.1797
363.3014	0.1894
363.5097	0.1636
363.718	0.1993
363.9264	0.1914
364.1347	0.1715
364.343	0.1897
364.5513	0.1942
364.7595	0.1965
364.9678	0.1927
365.176	0.1872
365.3842	0.2062
365.5925	0.1836
365.8007	0.2002
366.0089	0.1876
366.217	0.1784
366.4252	0.2178
366.6333	0.2079
366.8415	0.2121
367.0496	0.1959
367.2577	0.2063
367.4658	0.2138
367.6739	0.2055
367.882	0.2313
368.09	0.2056
368.2981	0.2178
368.5061	0.1985
368.7141	0.1992
368.9221	0.2194
369.1301	0.2108
369.3381	0.2158
369.5461	0.2162
369.754	0.2088
369.962	0.2326
370.1699	0.2062
370.3778	0.2189
370.5857	0.2017
370.7936	0.218
371.0015	0.2105
371.2093	0.2345
371.4172	0.2237
371.625	0.2126
371.8328	0.2058
372.0406	0.2221
372.2484	0.2223
372.4562	0.2221
372.664	0.2287
372.8717	0.2254
373.0795	0.208
373.2872	0.2185
373.4949	0.2193
373.7026	0.2573
373.9103	0.2373
374.118	0.2412
374.3256	0.2428
374.5333	0.2206
374.7409	0.2204
374.9485	0.2466
375.1561	0.2321
375.3637	0.249
375.5713	0.2418
375.7789	0.2345
375.9864	0.2369
376.194	0.2287
376.4015	0.2455
376.609	0.2545
376.8165	0.2326
377.024	0.2445
377.2315	0.2301
377.4389	0.2367
377.6464	0.246
377.8538	0.2438
378.0612	0.2439
378.2686	0.2558
378.476	0.2776
378.6834	0.2611
378.8908	0.2546
379.0981	0.245
379.3055	0.2584
379.5128	0.2462
379.7201	0.2674
379.9274	0.2357
380.1347	0.2543
380.342	0.2675
380.5492	0.2386
380.7565	0.2597
380.9637	0.2488
381.1709	0.254
381.3781	0.2676
381.5853	0.2434
381.7925	0.2675
381.9997	0.2683
382.2068	0.2791
382.4139	0.2778
382.6211	0.2466
382.8282	0.2536
383.0353	0.2686
383.2424	0.2635
383.4494	0.2774
383.6565	0.2614
383.8635	0.2597
384.0706	0.2762
384.2776	0.274
384.4846	0.2706
384.6916	0.2821
384.8986	0.2515
385.1055	0.2644
385.3125	0.2634
385.5194	0.2479
385.7263	0.2717
385.9333	0.2726
386.1402	0.2666
386.347	0.2702
386.5539	0.2441
386.7608	0.2686
386.9676	0.2471
387.1744	0.2548
387.3813	0.2479
387.5881	0.2687
387.7948	0.2489
388.0016	0.274
388.2084	0.2704
388.4151	0.2484
388.6219	0.2696
388.8286	0.2542
389.0353	0.2642
389.242	0.258
389.4487	0.2616
389.6553	0.2495
389.862	0.2329
390.0686	0.2707
390.2753	0.2659
390.4819	0.2669
390.6885	0.2476
390.8951	0.2552
391.1016	0.2483
391.3082	0.252
391.5147	0.2354
391.7213	0.241
391.9278	0.2417
392.1343	0.2451
392.3408	0.2478
392.5473	0.2408
392.7537	0.2398
392.9602	0.2313
393.1666	0.2432
393.373	0.2418
393.5794	0.2366
393.7858	0.2379
393.9922	0.2237
394.1986	0.2493
394.4049	0.2249
394.6113	0.2462
394.8176	0.2201
395.0239	0.2198
395.2302	0.2249
395.4365	0.2384
395.6428	0.2278
395.8491	0.2314
396.0553	0.2297
396.2615	0.2292
396.4678	0.2093
396.674	0.1959
396.8802	0.2173
397.0863	0.2339
397.2925	0.2072
397.4987	0.2157
397.7048	0.2194
397.9109	0.228
398.117	0.2165
398.3231	0.2364
398.5292	0.2385
398.7353	0.2276
398.9413	0.2183
399.1474	0.2316
399.3534	0.2303
399.5594	0.1856
399.7654	0.2103
399.9714	0.2278
400.1774	0.2198
400.3833	0.2044
400.5893	0.2391
400.7952	0.2155
401.0011	0.2406
401.207	0.2243
401.4129	0.2326
401.6188	0.2425
401.8247	0.227
402.0305	0.2157
402.2364	0.217
402.4422	0.2148
402.648	0.2386
402.8538	0.2398
403.0596	0.2163
403.2654	0.2143
403.4711	0.2262
403.6768	0.237
403.8826	0.234
404.0883	0.2355
404.294	0.2406
404.4997	0.2124
404.7054	0.218
404.911	0.2237
405.1167	0.2258
405.3223	0.2393
405.5279	0.2255
405.7335	0.2246
405.9391	0.2336
406.1447	0.2145
406.3502	0.2337
406.5558	0.2287
406.7613	0.2152
406.9668	0.2207
407.1724	0.2275
407.3778	0.2272
407.5833	0.2186
407.7888	0.2059
407.9942	0.2441
408.1997	0.2207
408.4051	0.2254
408.6105	0.217
408.8159	0.2097
409.0213	0.2044
409.2267	0.2253
409.432	0.214
409.6374	0.2222
409.8427	0.2127
410.048	0.2212
410.2533	0.2289
410.4586	0.2245
410.6639	0.1989
410.8691	0.2182
411.0744	0.2005
411.2796	0.2141
411.4848	0.2224
411.69	0.2195
411.8952	0.218
412.1004	0.2151
412.3056	0.2357
412.5107	0.2162
412.7158	0.2352
412.921	0.2382
413.1261	0.1968
413.3312	0.2174
413.5362	0.2128
413.7413	0.2302
413.9464	0.2125
414.1514	0.2122
414.3564	0.1919
414.5614	0.1861
414.7664	0.2109
414.9714	0.2053
415.1764	0.2022
415.3813	0.2267
415.5863	0.1977
415.7912	0.2116
415.9961	0.2148
416.201	0.2377
416.4059	0.2085
416.6108	0.2195
416.8156	0.2175
417.0205	0.2009
417.2253	0.2022
417.4301	0.2042
417.6349	0.2011
417.8397	0.2008
418.0445	0.2262
418.2492	0.2105
418.454	0.2113
418.6587	0.206
418.8634	0.2216
419.0681	0.1955
419.2728	0.1962
419.4775	0.2024
419.6822	0.1971
419.8868	0.1825
420.0915	0.2019
420.2961	0.1904
420.5007	0.1861
420.7053	0.1962
420.9099	0.2046
421.1144	0.208
421.319	0.2056
421.5235	0.2227
421.728	0.2022
421.9325	0.2009
422.137	0.2102
422.3415	0.1922
422.546	0.2063
422.7504	0.1935
422.9549	0.2112
423.1593	0.1911
423.3637	0.2198
423.5681	0.1975
423.7725	0.1897
423.9769	0.1862
424.1812	0.1815
424.3856	0.1963
424.5899	0.1839
424.7942	0.1796
424.9985	0.196
425.2028	0.1752
425.4071	0.205
425.6113	0.1847
425.8156	0.1859
426.0198	0.1914
426.224	0.1703
426.4282	0.181
426.6324	0.1683
