Data from MonoPyChalIsomerACN10uM440nmA_Absorbance_15-27-15-994.txt Node
Date: Fri Jul 05 15:27:15 BST 2024
User: LASERRRRR
Spectrometer: FLMT03099
Trigger mode: 0
Integration Time (sec): 1.000000E-1
Scans to average: 1
Electric dark correction enabled: true
Nonlinearity correction enabled: false
Boxcar width: 0
XAxis mode: Wavelengths
Number of Pixels in Spectrum: 3648
>>>>>Begin Spectral Data<<<<<
179.3399	-0.3755
179.5586	-0.3755
179.7771	-0.3755
179.9957	0.6094
180.2143	0.0173
180.4329	0.4155
180.6514	-0
180.8699	-0
181.0885	-0.0856
181.307	-0.0967
181.5255	-0.7212
181.744	-0.6473
181.9625	-0
182.181	-0.7999
182.3994	0.8509
182.6179	0.1085
182.8363	0.475
183.0547	-0.1549
183.2732	0.0766
183.4916	-0.0066
183.71	0.1671
183.9284	0.3809
184.1467	-0.0535
184.3651	0.0321
184.5835	-0.1494
184.8018	-0.0611
185.0201	0.0656
185.2385	0.0129
185.4568	0.5904
185.6751	0.2359
185.8934	0.5965
186.1117	0.029
186.3299	0.0018
186.5482	0.1702
186.7664	0.0072
186.9847	0.2101
187.2029	0.0883
187.4211	0.2147
187.6393	0.3748
187.8575	0.0276
188.0757	0.4082
188.2939	0.0872
188.512	0.0377
188.7302	-0.1659
188.9483	0.0958
189.1665	0.3036
189.3846	-0.126
189.6027	0.3476
189.8208	0.5682
190.0389	0.038
190.257	0.1328
190.475	0.2365
190.6931	0.5403
190.9111	0.2808
191.1292	0.1711
191.3472	0.3999
191.5652	0.5438
191.7832	0.1597
192.0012	0.5087
192.2192	0.5115
192.4371	0.3271
192.6551	0.2905
192.873	0.3957
193.091	0.4266
193.3089	0.4711
193.5268	0.5065
193.7447	0.5892
193.9626	0.5677
194.1805	0.5956
194.3984	0.8812
194.6162	0.4352
194.8341	0.5524
195.0519	0.5395
195.2697	0.721
195.4875	0.4918
195.7054	0.5103
195.9231	0.441
196.1409	0.595
196.3587	0.6193
196.5765	0.622
196.7942	0.5996
197.012	0.4709
197.2297	0.589
197.4474	0.8016
197.6651	0.751
197.8828	0.604
198.1005	0.5989
198.3182	0.6921
198.5358	0.9908
198.7535	0.6072
198.9711	0.5831
199.1888	0.5775
199.4064	0.7783
199.624	0.6578
199.8416	0.6177
200.0592	0.7226
200.2767	0.5831
200.4943	0.6963
200.7119	0.8033
200.9294	0.6618
201.1469	0.539
201.3645	0.6481
201.582	0.5656
201.7995	0.7527
202.017	0.6695
202.2344	0.5871
202.4519	0.7455
202.6694	0.6638
202.8868	0.6623
203.1042	0.7705
203.3217	0.7997
203.5391	0.695
203.7565	0.6272
203.9739	0.6969
204.1913	0.6455
204.4086	0.6248
204.626	0.6714
204.8433	0.6791
205.0607	0.6307
205.278	0.7516
205.4953	0.6471
205.7126	0.6886
205.9299	0.6551
206.1472	0.7275
206.3644	0.659
206.5817	0.7282
206.7989	0.7834
207.0162	0.6469
207.2334	0.7422
207.4506	0.6688
207.6678	0.6197
207.885	0.6208
208.1022	0.6925
208.3194	0.6604
208.5365	0.7138
208.7537	0.6577
208.9708	0.5743
209.1879	0.6033
209.405	0.683
209.6222	0.7771
209.8392	0.6507
210.0563	0.6313
210.2734	0.654
210.4905	0.6513
210.7075	0.702
210.9245	0.6497
211.1416	0.6979
211.3586	0.6013
211.5756	0.6315
211.7926	0.6551
212.0096	0.607
212.2265	0.5816
212.4435	0.5543
212.6604	0.6256
212.8774	0.6071
213.0943	0.6136
213.3112	0.5572
213.5281	0.4979
213.745	0.5134
213.9619	0.5306
214.1788	0.4662
214.3956	0.4628
214.6125	0.4752
214.8293	0.4317
215.0461	0.488
215.2629	0.4881
215.4798	0.4885
215.6965	0.4784
215.9133	0.47
216.1301	0.4123
216.3469	0.4388
216.5636	0.3979
216.7803	0.3819
216.9971	0.4283
217.2138	0.3661
217.4305	0.3704
217.6472	0.3759
217.8639	0.3595
218.0805	0.3536
218.2972	0.3343
218.5138	0.3025
218.7305	0.3147
218.9471	0.3203
219.1637	0.3061
219.3803	0.2803
219.5969	0.2805
219.8135	0.2514
220.0301	0.2588
220.2466	0.2561
220.4632	0.2516
220.6797	0.2431
220.8962	0.2295
221.1127	0.2532
221.3292	0.2476
221.5457	0.2288
221.7622	0.2182
221.9787	0.263
222.1951	0.2616
222.4116	0.2517
222.628	0.2498
222.8444	0.2494
223.0608	0.246
223.2772	0.2477
223.4936	0.2602
223.71	0.2506
223.9264	0.2714
224.1427	0.2595
224.3591	0.2348
224.5754	0.2698
224.7917	0.2643
225.008	0.2425
225.2243	0.2521
225.4406	0.3027
225.6569	0.2609
225.8732	0.2523
226.0894	0.2527
226.3057	0.2488
226.5219	0.2858
226.7381	0.275
226.9543	0.2662
227.1705	0.2739
227.3867	0.292
227.6029	0.294
227.8191	0.2765
228.0352	0.2884
228.2513	0.3015
228.4675	0.271
228.6836	0.2945
228.8997	0.2925
229.1158	0.2949
229.3319	0.3038
229.548	0.3109
229.764	0.3265
229.9801	0.3271
230.1961	0.312
230.4121	0.3254
230.6282	0.3156
230.8442	0.3018
231.0602	0.349
231.2761	0.3362
231.4921	0.3453
231.7081	0.3494
231.924	0.3537
232.14	0.3477
232.3559	0.3109
232.5718	0.368
232.7877	0.3518
233.0036	0.3237
233.2195	0.3647
233.4353	0.3459
233.6512	0.3639
233.867	0.3795
234.0829	0.3672
234.2987	0.3616
234.5145	0.3673
234.7303	0.3676
234.9461	0.388
235.1619	0.3936
235.3776	0.3765
235.5934	0.395
235.8091	0.3598
236.0249	0.3769
236.2406	0.3794
236.4563	0.3805
236.672	0.3737
236.8877	0.3881
237.1034	0.3841
237.319	0.3796
237.5347	0.3957
237.7503	0.3909
237.966	0.401
238.1816	0.3984
238.3972	0.4084
238.6128	0.3831
238.8284	0.4268
239.0439	0.4031
239.2595	0.406
239.475	0.4178
239.6906	0.4202
239.9061	0.3848
240.1216	0.4032
240.3371	0.3939
240.5526	0.404
240.7681	0.41
240.9836	0.369
241.199	0.4123
241.4145	0.3803
241.6299	0.377
241.8453	0.3781
242.0607	0.3767
242.2761	0.365
242.4915	0.3747
242.7069	0.3749
242.9223	0.3613
243.1376	0.3438
243.353	0.3402
243.5683	0.3309
243.7836	0.3356
243.9989	0.3312
244.2142	0.3026
244.4295	0.3212
244.6448	0.3171
244.86	0.2946
245.0753	0.2853
245.2905	0.2961
245.5057	0.278
245.721	0.2824
245.9362	0.2715
246.1514	0.2795
246.3665	0.2592
246.5817	0.258
246.7969	0.256
247.012	0.2396
247.2271	0.2342
247.4423	0.2416
247.6574	0.2448
247.8725	0.2369
248.0876	0.2346
248.3026	0.223
248.5177	0.2108
248.7328	0.2051
248.9478	0.2098
249.1628	0.2083
249.3779	0.2204
249.5929	0.1921
249.8079	0.2199
250.0228	0.1957
250.2378	0.2028
250.4528	0.2038
250.6677	0.1869
250.8827	0.1904
251.0976	0.196
251.3125	0.1884
251.5274	0.1734
251.7423	0.1838
251.9572	0.186
252.172	0.178
252.3869	0.185
252.6017	0.1718
252.8166	0.1699
253.0314	0.1678
253.2462	0.1644
253.461	0.1722
253.6758	0.1743
253.8906	0.1738
254.1053	0.1652
254.3201	0.1783
254.5348	0.1772
254.7496	0.169
254.9643	0.1685
255.179	0.1735
255.3937	0.1726
255.6083	0.1838
255.823	0.1883
256.0377	0.1645
256.2523	0.1676
256.467	0.1591
256.6816	0.1737
256.8962	0.1709
257.1108	0.152
257.3254	0.1792
257.54	0.1654
257.7545	0.1645
257.9691	0.177
258.1836	0.1658
258.3981	0.1867
258.6127	0.1714
258.8272	0.1596
259.0417	0.1612
259.2561	0.1667
259.4706	0.1757
259.6851	0.169
259.8995	0.1601
260.114	0.1637
260.3284	0.1596
260.5428	0.158
260.7572	0.1736
260.9716	0.1671
261.186	0.159
261.4003	0.1607
261.6147	0.1661
261.829	0.1684
262.0433	0.1698
262.2577	0.1684
262.472	0.1715
262.6863	0.1541
262.9005	0.1628
263.1148	0.1743
263.3291	0.1404
263.5433	0.1654
263.7576	0.1638
263.9718	0.1537
264.186	0.1613
264.4002	0.1598
264.6144	0.1595
264.8286	0.1673
265.0427	0.1677
265.2569	0.1551
265.471	0.1579
265.6851	0.1564
265.8993	0.1653
266.1134	0.1604
266.3275	0.1573
266.5415	0.1514
266.7556	0.1667
266.9697	0.1699
267.1837	0.1703
267.3978	0.1568
267.6118	0.1757
267.8258	0.1767
268.0398	0.1635
268.2538	0.1661
268.4677	0.1637
268.6817	0.1616
268.8957	0.166
269.1096	0.1514
269.3235	0.1713
269.5374	0.1554
269.7514	0.1509
269.9652	0.1605
270.1791	0.149
270.393	0.1447
270.6068	0.1543
270.8207	0.1586
271.0345	0.1321
271.2483	0.1584
271.4622	0.1461
271.676	0.1564
271.8897	0.1499
272.1035	0.139
272.3173	0.1425
272.531	0.1516
272.7448	0.139
272.9585	0.149
273.1722	0.1434
273.3859	0.142
273.5996	0.1414
273.8133	0.1544
274.0269	0.1408
274.2406	0.1418
274.4542	0.1429
274.6679	0.1269
274.8815	0.1498
275.0951	0.1605
275.3087	0.1579
275.5223	0.1504
275.7358	0.1539
275.9494	0.1465
276.1629	0.1531
276.3765	0.154
276.59	0.1418
276.8035	0.1365
277.017	0.1418
277.2305	0.1399
277.444	0.1479
277.6574	0.137
277.8709	0.1418
278.0843	0.134
278.2978	0.1524
278.5112	0.1382
278.7246	0.1421
278.938	0.1564
279.1513	0.1556
279.3647	0.1596
279.5781	0.1443
279.7914	0.1532
280.0047	0.1628
280.2181	0.1581
280.4314	0.1552
280.6447	0.1488
280.8579	0.1519
281.0712	0.1514
281.2845	0.1594
281.4977	0.1484
281.711	0.1483
281.9242	0.1565
282.1374	0.1537
282.3506	0.1458
282.5638	0.1565
282.7769	0.1551
282.9901	0.1363
283.2033	0.1585
283.4164	0.1647
283.6295	0.1457
283.8426	0.1485
284.0557	0.1584
284.2688	0.1455
284.4819	0.1672
284.695	0.1465
284.908	0.16
285.1211	0.1541
285.3341	0.1614
285.5471	0.1697
285.7601	0.1713
285.9731	0.1514
286.1861	0.1456
286.3991	0.155
286.612	0.1702
286.825	0.1558
287.0379	0.1639
287.2508	0.1597
287.4637	0.1619
287.6766	0.1568
287.8895	0.165
288.1024	0.1839
288.3152	0.1631
288.5281	0.1465
288.7409	0.1614
288.9538	0.1533
289.1666	0.1459
289.3794	0.15
289.5922	0.1591
289.8049	0.1682
290.0177	0.1616
290.2304	0.1602
290.4432	0.1557
290.6559	0.165
290.8686	0.1508
291.0813	0.1577
291.294	0.1628
291.5067	0.1674
291.7194	0.1613
291.932	0.1695
292.1447	0.1507
292.3573	0.1495
292.5699	0.1577
292.7825	0.1603
292.9951	0.1461
293.2077	0.1621
293.4203	0.1639
293.6328	0.1579
293.8454	0.1803
294.0579	0.1507
294.2704	0.1536
294.4829	0.1573
294.6954	0.1656
294.9079	0.156
295.1204	0.1643
295.3328	0.1676
295.5453	0.1664
295.7577	0.1532
295.9701	0.1491
296.1825	0.1607
296.3949	0.1537
296.6073	0.1502
296.8197	0.1593
297.0321	0.16
297.2444	0.1475
297.4567	0.163
297.6691	0.1589
297.8814	0.1457
298.0937	0.1587
298.306	0.1628
298.5182	0.1546
298.7305	0.1596
298.9428	0.152
299.155	0.1545
299.3672	0.154
299.5794	0.1627
299.7916	0.1639
300.0038	0.1533
300.216	0.1595
300.4282	0.1694
300.6403	0.1526
300.8525	0.1622
301.0646	0.1498
301.2767	0.1611
301.4888	0.1466
301.7009	0.1562
301.913	0.1509
302.125	0.1588
302.3371	0.1571
302.5491	0.1564
302.7612	0.1667
302.9732	0.157
303.1852	0.1679
303.3972	0.1548
303.6092	0.1619
303.8211	0.1487
304.0331	0.1492
304.245	0.1496
304.457	0.1423
304.6689	0.1581
304.8808	0.1581
305.0927	0.1539
305.3046	0.1527
305.5164	0.159
305.7283	0.1453
305.9401	0.1532
306.152	0.1435
306.3638	0.1544
306.5756	0.1361
306.7874	0.1414
306.9992	0.153
307.2109	0.1314
307.4227	0.1241
307.6344	0.1283
307.8462	0.1341
308.0579	0.1298
308.2696	0.1342
308.4813	0.1248
308.693	0.1371
308.9046	0.1289
309.1163	0.128
309.328	0.1182
309.5396	0.1185
309.7512	0.1269
309.9628	0.1194
310.1744	0.1187
310.386	0.1306
310.5976	0.12
310.8091	0.1215
311.0207	0.1197
311.2322	0.1162
311.4437	0.1105
311.6552	0.1087
311.8667	0.1173
312.0782	0.0965
312.2897	0.1031
312.5012	0.1144
312.7126	0.0935
312.924	0.1075
313.1355	0.1043
313.3469	0.1035
313.5583	0.1013
313.7696	0.1038
313.981	0.1082
314.1924	0.0942
314.4037	0.0973
314.6151	0.1054
314.8264	0.0877
315.0377	0.1042
315.249	0.1031
315.4603	0.1112
315.6716	0.1121
315.8828	0.0938
316.0941	0.1022
316.3053	0.1016
316.5165	0.0981
316.7277	0.0873
316.9389	0.1122
317.1501	0.1019
317.3613	0.1007
317.5724	0.0873
317.7836	0.1067
317.9947	0.0963
318.2058	0.094
318.417	0.0902
318.6281	0.0852
318.8391	0.0962
319.0502	0.1005
319.2613	0.1047
319.4723	0.0986
319.6834	0.0958
319.8944	0.0921
320.1054	0.0977
320.3164	0.0984
320.5274	0.1008
320.7383	0.1005
320.9493	0.103
321.1602	0.113
321.3712	0.0829
321.5821	0.0977
321.793	0.099
322.0039	0.0853
322.2148	0.0886
322.4257	0.0997
322.6365	0.1168
322.8474	0.1118
323.0582	0.0973
323.269	0.0987
323.4798	0.1104
323.6906	0.1075
323.9014	0.1057
324.1122	0.102
324.3229	0.0905
324.5337	0.0957
324.7444	0.092
324.9551	0.1057
325.1658	0.1104
325.3765	0.1105
325.5872	0.0891
325.7979	0.1078
326.0085	0.1117
326.2192	0.1132
326.4298	0.1082
326.6404	0.0881
326.851	0.102
327.0616	0.1002
327.2722	0.11
327.4828	0.1072
327.6933	0.1054
327.9039	0.1051
328.1144	0.1102
328.3249	0.0973
328.5354	0.1029
328.7459	0.1043
328.9564	0.1068
329.1669	0.1006
329.3773	0.0976
329.5878	0.1107
329.7982	0.1042
330.0086	0.1102
330.219	0.1076
330.4294	0.1056
330.6398	0.1054
330.8502	0.1074
331.0605	0.1022
331.2708	0.0947
331.4812	0.1126
331.6915	0.1074
331.9018	0.1148
332.1121	0.0988
332.3224	0.1012
332.5326	0.1084
332.7429	0.0979
332.9531	0.119
333.1633	0.1037
333.3735	0.107
333.5837	0.1019
333.7939	0.1088
334.0041	0.1206
334.2143	0.1229
334.4244	0.1034
334.6346	0.0973
334.8447	0.1232
335.0548	0.1105
335.2649	0.1029
335.475	0.1168
335.685	0.0933
335.8951	0.12
336.1051	0.1192
336.3152	0.1168
336.5252	0.102
336.7352	0.1147
336.9452	0.1125
337.1552	0.1157
337.3652	0.1035
337.5751	0.1115
337.7851	0.1201
337.995	0.102
338.2049	0.1147
338.4148	0.1169
338.6247	0.1093
338.8346	0.1131
339.0445	0.1097
339.2543	0.1168
339.4642	0.114
339.674	0.1131
339.8838	0.1111
340.0936	0.1014
340.3034	0.1248
340.5132	0.1123
340.7229	0.1109
340.9327	0.1128
341.1424	0.1172
341.3522	0.1317
341.5619	0.1323
341.7716	0.1262
341.9813	0.1246
342.1909	0.1278
342.4006	0.1232
342.6102	0.1286
342.8199	0.1264
343.0295	0.1268
343.2391	0.1234
343.4487	0.1329
343.6583	0.1258
343.8679	0.1226
344.0774	0.1304
344.287	0.1268
344.4965	0.1125
344.706	0.1334
344.9155	0.1306
345.125	0.1239
345.3345	0.1286
345.544	0.1275
345.7534	0.1268
345.9629	0.1309
346.1723	0.1256
346.3817	0.1337
346.5911	0.126
346.8005	0.1284
347.0099	0.1214
347.2193	0.1377
347.4286	0.1242
347.638	0.1296
347.8473	0.1342
348.0566	0.1326
348.2659	0.1265
348.4752	0.1304
348.6845	0.1309
348.8937	0.1191
349.103	0.1499
349.3122	0.1231
349.5214	0.1332
349.7306	0.1324
349.9398	0.133
350.149	0.1391
350.3582	0.1282
350.5674	0.1475
350.7765	0.1481
350.9856	0.1445
351.1948	0.1314
351.4039	0.1415
351.613	0.1337
351.822	0.1394
352.0311	0.1526
352.2402	0.1535
352.4492	0.1534
352.6582	0.1452
352.8672	0.1467
353.0762	0.1526
353.2852	0.1427
353.4942	0.1487
353.7032	0.1499
353.9121	0.1592
354.1211	0.1395
354.33	0.1434
354.5389	0.1471
354.7478	0.1593
354.9567	0.1374
355.1655	0.1361
355.3744	0.1548
355.5833	0.1656
355.7921	0.1655
356.0009	0.1625
356.2097	0.1665
356.4185	0.1691
356.6273	0.1538
356.8361	0.1649
357.0448	0.1623
357.2536	0.1539
357.4623	0.1517
357.671	0.1724
357.8797	0.1643
358.0884	0.1609
358.2971	0.1567
358.5057	0.161
358.7144	0.1828
358.923	0.1698
359.1316	0.1631
359.3402	0.1705
359.5488	0.1673
359.7574	0.1597
359.966	0.1596
360.1746	0.1811
360.3831	0.1751
360.5916	0.1889
360.8002	0.1711
361.0087	0.18
361.2172	0.186
361.4256	0.1869
361.6341	0.1909
361.8426	0.1727
362.051	0.1802
362.2594	0.1722
362.4678	0.1705
362.6762	0.2028
362.8846	0.1702
363.093	0.1814
363.3014	0.1828
363.5097	0.1723
363.718	0.1849
363.9264	0.1697
364.1347	0.1811
364.343	0.1799
364.5513	0.188
364.7595	0.2054
364.9678	0.1811
365.176	0.1899
365.3842	0.1874
365.5925	0.1939
365.8007	0.1928
366.0089	0.1779
366.217	0.181
366.4252	0.1974
366.6333	0.2023
366.8415	0.2009
367.0496	0.1825
367.2577	0.2114
367.4658	0.2075
367.6739	0.2091
367.882	0.2055
368.09	0.1934
368.2981	0.2043
368.5061	0.1978
368.7141	0.1914
368.9221	0.2041
369.1301	0.2088
369.3381	0.2079
369.5461	0.1973
369.754	0.2215
369.962	0.213
370.1699	0.2148
370.3778	0.2158
370.5857	0.2043
370.7936	0.2244
371.0015	0.2015
371.2093	0.2057
371.4172	0.2258
371.625	0.2114
371.8328	0.2038
372.0406	0.2026
372.2484	0.2158
372.4562	0.2203
372.664	0.2043
372.8717	0.2341
373.0795	0.1987
373.2872	0.2163
373.4949	0.2098
373.7026	0.2325
373.9103	0.2251
374.118	0.2282
374.3256	0.2261
374.5333	0.211
374.7409	0.2273
374.9485	0.2275
375.1561	0.2287
375.3637	0.2275
375.5713	0.2334
375.7789	0.2343
375.9864	0.2301
376.194	0.2244
376.4015	0.253
376.609	0.2339
376.8165	0.2354
377.024	0.2227
377.2315	0.2253
377.4389	0.2553
377.6464	0.2305
377.8538	0.2317
378.0612	0.2221
378.2686	0.2338
378.476	0.2504
378.6834	0.2257
378.8908	0.2496
379.0981	0.2505
379.3055	0.2297
379.5128	0.2439
379.7201	0.2302
379.9274	0.2282
380.1347	0.2438
380.342	0.2356
380.5492	0.2358
380.7565	0.2444
380.9637	0.2279
381.1709	0.2378
381.3781	0.2113
381.5853	0.2507
381.7925	0.2251
381.9997	0.2421
382.2068	0.2516
382.4139	0.2502
382.6211	0.2191
382.8282	0.2413
383.0353	0.2414
383.2424	0.2403
383.4494	0.2409
383.6565	0.2532
383.8635	0.2377
384.0706	0.2375
384.2776	0.2446
384.4846	0.2326
384.6916	0.2451
384.8986	0.2477
385.1055	0.2486
385.3125	0.244
385.5194	0.2242
385.7263	0.2374
385.9333	0.2553
386.1402	0.2425
386.347	0.2451
386.5539	0.2575
386.7608	0.2562
386.9676	0.2199
387.1744	0.2338
387.3813	0.2114
387.5881	0.2435
387.7948	0.2381
388.0016	0.2349
388.2084	0.2493
388.4151	0.2272
388.6219	0.2521
388.8286	0.2281
389.0353	0.2519
389.242	0.2497
389.4487	0.2473
389.6553	0.2358
389.862	0.209
390.0686	0.2432
390.2753	0.2359
390.4819	0.2465
390.6885	0.2241
390.8951	0.2411
391.1016	0.2387
391.3082	0.2249
391.5147	0.247
391.7213	0.2362
391.9278	0.2121
392.1343	0.2254
392.3408	0.2188
392.5473	0.2278
392.7537	0.2282
392.9602	0.214
393.1666	0.2295
393.373	0.2194
393.5794	0.219
393.7858	0.2182
393.9922	0.2084
394.1986	0.214
394.4049	0.2168
394.6113	0.2098
394.8176	0.2126
395.0239	0.201
395.2302	0.214
395.4365	0.2065
395.6428	0.2111
395.8491	0.211
396.0553	0.22
396.2615	0.2131
396.4678	0.2151
396.674	0.189
396.8802	0.2023
397.0863	0.2222
397.2925	0.1987
397.4987	0.1982
397.7048	0.2063
397.9109	0.2135
398.117	0.1986
398.3231	0.1912
398.5292	0.1921
398.7353	0.2134
398.9413	0.2068
399.1474	0.1963
399.3534	0.2086
399.5594	0.1753
399.7654	0.209
399.9714	0.2131
400.1774	0.1964
400.3833	0.1882
400.5893	0.2016
400.7952	0.2123
401.0011	0.2114
401.207	0.2146
401.4129	0.204
401.6188	0.2111
401.8247	0.2138
402.0305	0.1993
402.2364	0.2023
402.4422	0.2034
402.648	0.2216
402.8538	0.203
403.0596	0.1972
403.2654	0.2182
403.4711	0.174
403.6768	0.2201
403.8826	0.207
404.0883	0.1888
404.294	0.2056
404.4997	0.1802
404.7054	0.1911
404.911	0.1972
405.1167	0.195
405.3223	0.2004
405.5279	0.2043
405.7335	0.206
405.9391	0.2171
406.1447	0.2013
406.3502	0.2191
406.5558	0.208
406.7613	0.2013
406.9668	0.2156
407.1724	0.1962
407.3778	0.1911
407.5833	0.1991
407.7888	0.188
407.9942	0.2199
408.1997	0.2072
408.4051	0.1792
408.6105	0.2101
408.8159	0.1883
409.0213	0.1767
409.2267	0.213
409.432	0.2036
409.6374	0.2161
409.8427	0.2108
410.048	0.2105
410.2533	0.1923
410.4586	0.2001
410.6639	0.1741
410.8691	0.1964
411.0744	0.203
411.2796	0.194
411.4848	0.2125
411.69	0.1876
411.8952	0.2071
412.1004	0.1785
412.3056	0.2123
412.5107	0.1931
412.7158	0.2154
412.921	0.1863
413.1261	0.1986
413.3312	0.1767
413.5362	0.1901
413.7413	0.1887
413.9464	0.188
414.1514	0.1991
414.3564	0.1834
414.5614	0.1989
414.7664	0.2094
414.9714	0.1921
415.1764	0.1851
415.3813	0.224
415.5863	0.1941
415.7912	0.191
415.9961	0.213
416.201	0.1874
416.4059	0.2131
416.6108	0.1895
416.8156	0.1863
417.0205	0.1915
417.2253	0.1816
417.4301	0.2128
417.6349	0.2064
417.8397	0.1771
418.0445	0.1912
418.2492	0.1969
418.454	0.1945
418.6587	0.2045
418.8634	0.1851
419.0681	0.186
419.2728	0.1893
419.4775	0.1681
419.6822	0.1893
419.8868	0.1698
420.0915	0.1771
420.2961	0.1914
420.5007	0.172
420.7053	0.1683
420.9099	0.1922
421.1144	0.1835
421.319	0.1708
421.5235	0.1821
421.728	0.1811
421.9325	0.1695
422.137	0.1922
422.3415	0.1673
422.546	0.1761
422.7504	0.184
422.9549	0.189
423.1593	0.1897
423.3637	0.1817
423.5681	0.164
423.7725	0.1635
423.9769	0.1543
424.1812	0.1502
424.3856	0.1665
424.5899	0.1883
424.7942	0.1575
424.9985	0.1755
425.2028	0.1739
425.4071	0.1872
425.6113	0.1553
425.8156	0.166
426.0198	0.1819
426.224	0.1572
426.4282	0.1565
426.6324	0.1499
