Data from MonoPyChalIsomerACN10uM440nmA_Absorbance_15-27-14-094.txt Node
Date: Fri Jul 05 15:27:14 BST 2024
User: LASERRRRR
Spectrometer: FLMT03099
Trigger mode: 0
Integration Time (sec): 1.000000E-1
Scans to average: 1
Electric dark correction enabled: true
Nonlinearity correction enabled: false
Boxcar width: 0
XAxis mode: Wavelengths
Number of Pixels in Spectrum: 3648
>>>>>Begin Spectral Data<<<<<
179.3399	0.2584
179.5586	0.2584
179.7771	0.2584
179.9957	0.8463
180.2143	-0
180.4329	-0.2781
180.6514	0.4984
180.8699	-0
181.0885	0.1903
181.307	0.2653
181.5255	-0
181.744	-0.5845
181.9625	-0
182.181	-0.2382
182.3994	0.2714
182.6179	-0
182.8363	-0.0965
183.0547	0.2961
183.2732	-0.0332
183.4916	0.3222
183.71	0.0342
183.9284	0.11
184.1467	-0.0905
184.3651	0.0317
184.5835	-0.0767
184.8018	0.2408
185.0201	-0.1281
185.2385	0.2164
185.4568	0.0164
185.6751	-0.14
185.8934	0.2576
186.1117	-0.0708
186.3299	0.024
186.5482	0.0019
186.7664	-0.1566
186.9847	-0.0659
187.2029	0.0046
187.4211	0.0518
187.6393	-0.0286
187.8575	0.1103
188.0757	0.013
188.2939	-0.0069
188.512	-0.0972
188.7302	-0.078
188.9483	-0.0458
189.1665	0.1717
189.3846	0.0458
189.6027	0.0412
189.8208	0.1436
190.0389	0.0314
190.257	0.2367
190.475	0.2534
190.6931	0.142
190.9111	0.3457
191.1292	0.1707
191.3472	0.5118
191.5652	0.2349
191.7832	0.191
192.0012	0.6748
192.2192	0.6041
192.4371	0.5014
192.6551	0.346
192.873	0.4141
193.091	0.3618
193.3089	0.5539
193.5268	0.4068
193.7447	0.6346
193.9626	0.5102
194.1805	0.3877
194.3984	0.6251
194.6162	0.3515
194.8341	0.4226
195.0519	0.4849
195.2697	0.9434
195.4875	0.8486
195.7054	0.7058
195.9231	0.5385
196.1409	0.5946
196.3587	0.6933
196.5765	0.4974
196.7942	0.5192
197.012	0.6404
197.2297	0.5087
197.4474	0.6179
197.6651	0.6114
197.8828	0.6627
198.1005	0.5542
198.3182	0.4847
198.5358	1.005
198.7535	0.5677
198.9711	0.5383
199.1888	0.6099
199.4064	0.8386
199.624	0.4987
199.8416	0.5269
200.0592	0.6207
200.2767	0.536
200.4943	0.6067
200.7119	0.7116
200.9294	0.6859
201.1469	0.5389
201.3645	0.4253
201.582	0.5214
201.7995	0.5484
202.017	0.6163
202.2344	0.6566
202.4519	0.7032
202.6694	0.7004
202.8868	0.6475
203.1042	0.6401
203.3217	0.6814
203.5391	0.6289
203.7565	0.6719
203.9739	0.6776
204.1913	0.5825
204.4086	0.6418
204.626	0.7172
204.8433	0.6082
205.0607	0.6166
205.278	0.646
205.4953	0.7284
205.7126	0.6441
205.9299	0.6171
206.1472	0.7599
206.3644	0.6245
206.5817	0.685
206.7989	0.8081
207.0162	0.5753
207.2334	0.6715
207.4506	0.5649
207.6678	0.6658
207.885	0.7061
208.1022	0.6724
208.3194	0.7577
208.5365	0.6166
208.7537	0.6388
208.9708	0.6233
209.1879	0.6488
209.405	0.6581
209.6222	0.6329
209.8392	0.5907
210.0563	0.6514
210.2734	0.6857
210.4905	0.6254
210.7075	0.5865
210.9245	0.6171
211.1416	0.7449
211.3586	0.5874
211.5756	0.6288
211.7926	0.5793
212.0096	0.6422
212.2265	0.5404
212.4435	0.5939
212.6604	0.5817
212.8774	0.5944
213.0943	0.5555
213.3112	0.5304
213.5281	0.5093
213.745	0.4828
213.9619	0.5191
214.1788	0.4856
214.3956	0.4511
214.6125	0.4558
214.8293	0.4323
215.0461	0.4953
215.2629	0.4511
215.4798	0.4744
215.6965	0.4509
215.9133	0.4396
216.1301	0.4129
216.3469	0.45
216.5636	0.4194
216.7803	0.4129
216.9971	0.4073
217.2138	0.3929
217.4305	0.3881
217.6472	0.3372
217.8639	0.3919
218.0805	0.362
218.2972	0.3122
218.5138	0.3224
218.7305	0.3155
218.9471	0.3207
219.1637	0.2563
219.3803	0.2831
219.5969	0.2998
219.8135	0.2477
220.0301	0.2873
220.2466	0.2664
220.4632	0.2624
220.6797	0.2516
220.8962	0.2268
221.1127	0.2504
221.3292	0.2577
221.5457	0.244
221.7622	0.211
221.9787	0.2509
222.1951	0.2365
222.4116	0.2704
222.628	0.2534
222.8444	0.2719
223.0608	0.2481
223.2772	0.2328
223.4936	0.2432
223.71	0.2135
223.9264	0.2615
224.1427	0.2494
224.3591	0.2425
224.5754	0.2824
224.7917	0.2651
225.008	0.2553
225.2243	0.256
225.4406	0.2728
225.6569	0.2558
225.8732	0.2545
226.0894	0.2563
226.3057	0.2635
226.5219	0.2872
226.7381	0.2687
226.9543	0.2836
227.1705	0.296
227.3867	0.2649
227.6029	0.2731
227.8191	0.2883
228.0352	0.2972
228.2513	0.3037
228.4675	0.3199
228.6836	0.3065
228.8997	0.3085
229.1158	0.2941
229.3319	0.3096
229.548	0.2995
229.764	0.3189
229.9801	0.314
230.1961	0.3318
230.4121	0.3278
230.6282	0.33
230.8442	0.3179
231.0602	0.3567
231.2761	0.3376
231.4921	0.3507
231.7081	0.353
231.924	0.3422
232.14	0.3615
232.3559	0.3436
232.5718	0.3679
232.7877	0.3494
233.0036	0.3295
233.2195	0.3474
233.4353	0.3486
233.6512	0.3647
233.867	0.3573
234.0829	0.3533
234.2987	0.3859
234.5145	0.355
234.7303	0.3549
234.9461	0.3988
235.1619	0.3711
235.3776	0.3909
235.5934	0.3956
235.8091	0.3712
236.0249	0.3645
236.2406	0.3941
236.4563	0.3708
236.672	0.3928
236.8877	0.3897
237.1034	0.3806
237.319	0.3819
237.5347	0.4161
237.7503	0.388
237.966	0.4132
238.1816	0.4294
238.3972	0.3865
238.6128	0.3915
238.8284	0.4037
239.0439	0.3848
239.2595	0.3954
239.475	0.4191
239.6906	0.4065
239.9061	0.403
240.1216	0.3974
240.3371	0.3972
240.5526	0.3975
240.7681	0.3953
240.9836	0.3786
241.199	0.3963
241.4145	0.386
241.6299	0.3721
241.8453	0.378
242.0607	0.386
242.2761	0.3595
242.4915	0.3594
242.7069	0.3572
242.9223	0.3479
243.1376	0.3253
243.353	0.3581
243.5683	0.3594
243.7836	0.3284
243.9989	0.3212
244.2142	0.3067
244.4295	0.3087
244.6448	0.2917
244.86	0.2872
245.0753	0.2836
245.2905	0.2613
245.5057	0.2796
245.721	0.2761
245.9362	0.272
246.1514	0.2702
246.3665	0.2582
246.5817	0.2594
246.7969	0.2491
247.012	0.2589
247.2271	0.2302
247.4423	0.2319
247.6574	0.2345
247.8725	0.2279
248.0876	0.2241
248.3026	0.2174
248.5177	0.2089
248.7328	0.2135
248.9478	0.2126
249.1628	0.2077
249.3779	0.2212
249.5929	0.2057
249.8079	0.2198
250.0228	0.2005
250.2378	0.2082
250.4528	0.2061
250.6677	0.1773
250.8827	0.1971
251.0976	0.197
251.3125	0.19
251.5274	0.1715
251.7423	0.1835
251.9572	0.1818
252.172	0.1726
252.3869	0.1774
252.6017	0.1809
252.8166	0.1616
253.0314	0.1714
253.2462	0.1549
253.461	0.1856
253.6758	0.1526
253.8906	0.1938
254.1053	0.1647
254.3201	0.1667
254.5348	0.1801
254.7496	0.1766
254.9643	0.1667
255.179	0.1656
255.3937	0.1552
255.6083	0.1676
255.823	0.1793
256.0377	0.1611
256.2523	0.1747
256.467	0.1519
256.6816	0.1744
256.8962	0.164
257.1108	0.1577
257.3254	0.1747
257.54	0.1589
257.7545	0.1647
257.9691	0.1602
258.1836	0.1606
258.3981	0.1755
258.6127	0.164
258.8272	0.1565
259.0417	0.157
259.2561	0.1696
259.4706	0.1713
259.6851	0.1723
259.8995	0.152
260.114	0.1602
260.3284	0.1679
260.5428	0.1556
260.7572	0.1644
260.9716	0.1685
261.186	0.1612
261.4003	0.162
261.6147	0.1701
261.829	0.1532
262.0433	0.1598
262.2577	0.1636
262.472	0.1627
262.6863	0.1476
262.9005	0.1749
263.1148	0.1642
263.3291	0.162
263.5433	0.1705
263.7576	0.1651
263.9718	0.1666
264.186	0.1546
264.4002	0.159
264.6144	0.1614
264.8286	0.1735
265.0427	0.149
265.2569	0.1628
265.471	0.1571
265.6851	0.1539
265.8993	0.168
266.1134	0.1573
266.3275	0.1538
266.5415	0.1543
266.7556	0.1621
266.9697	0.162
267.1837	0.1697
267.3978	0.1679
267.6118	0.1714
267.8258	0.1628
268.0398	0.1693
268.2538	0.1722
268.4677	0.1538
268.6817	0.1595
268.8957	0.1668
269.1096	0.1654
269.3235	0.1613
269.5374	0.1602
269.7514	0.1616
269.9652	0.1465
270.1791	0.1446
270.393	0.1365
270.6068	0.1627
270.8207	0.1466
271.0345	0.1234
271.2483	0.1472
271.4622	0.1452
271.676	0.1548
271.8897	0.1311
272.1035	0.1393
272.3173	0.1385
272.531	0.1347
272.7448	0.1362
272.9585	0.1279
273.1722	0.1457
273.3859	0.1519
273.5996	0.1382
273.8133	0.1505
274.0269	0.1316
274.2406	0.1335
274.4542	0.1461
274.6679	0.1304
274.8815	0.1446
275.0951	0.1501
275.3087	0.1594
275.5223	0.1453
275.7358	0.1387
275.9494	0.1448
276.1629	0.1458
276.3765	0.1355
276.59	0.1426
276.8035	0.143
277.017	0.1403
277.2305	0.1402
277.444	0.1457
277.6574	0.1276
277.8709	0.1385
278.0843	0.1302
278.2978	0.1465
278.5112	0.1278
278.7246	0.143
278.938	0.1473
279.1513	0.1463
279.3647	0.1552
279.5781	0.1349
279.7914	0.1487
280.0047	0.1569
280.2181	0.155
280.4314	0.1417
280.6447	0.1395
280.8579	0.1609
281.0712	0.1625
281.2845	0.1529
281.4977	0.155
281.711	0.1402
281.9242	0.1452
282.1374	0.1454
282.3506	0.1515
282.5638	0.1634
282.7769	0.1573
282.9901	0.1557
283.2033	0.1556
283.4164	0.1607
283.6295	0.151
283.8426	0.1483
284.0557	0.1625
284.2688	0.1672
284.4819	0.1462
284.695	0.1643
284.908	0.1582
285.1211	0.1416
285.3341	0.1579
285.5471	0.158
285.7601	0.1575
285.9731	0.1604
286.1861	0.1579
286.3991	0.1684
286.612	0.1619
286.825	0.1485
287.0379	0.1568
287.2508	0.168
287.4637	0.1572
287.6766	0.1533
287.8895	0.1605
288.1024	0.1769
288.3152	0.165
288.5281	0.157
288.7409	0.1693
288.9538	0.1575
289.1666	0.1638
289.3794	0.1545
289.5922	0.1596
289.8049	0.1629
290.0177	0.1603
290.2304	0.1582
290.4432	0.1711
290.6559	0.1581
290.8686	0.1644
291.0813	0.1561
291.294	0.1711
291.5067	0.1709
291.7194	0.1613
291.932	0.1823
292.1447	0.1547
292.3573	0.1498
292.5699	0.1676
292.7825	0.1761
292.9951	0.161
293.2077	0.1667
293.4203	0.1539
293.6328	0.1558
293.8454	0.172
294.0579	0.1708
294.2704	0.1551
294.4829	0.1552
294.6954	0.1634
294.9079	0.1679
295.1204	0.1597
295.3328	0.1575
295.5453	0.169
295.7577	0.1627
295.9701	0.1601
296.1825	0.1579
296.3949	0.1603
296.6073	0.1595
296.8197	0.1615
297.0321	0.1679
297.2444	0.1611
297.4567	0.1697
297.6691	0.1593
297.8814	0.1582
298.0937	0.1583
298.306	0.1658
298.5182	0.1562
298.7305	0.1726
298.9428	0.1443
299.155	0.1752
299.3672	0.1597
299.5794	0.1585
299.7916	0.1635
300.0038	0.1615
300.216	0.1727
300.4282	0.1705
300.6403	0.1652
300.8525	0.1654
301.0646	0.1564
301.2767	0.1681
301.4888	0.1569
301.7009	0.1656
301.913	0.1599
302.125	0.1679
302.3371	0.1488
302.5491	0.1612
302.7612	0.169
302.9732	0.1673
303.1852	0.1628
303.3972	0.1571
303.6092	0.16
303.8211	0.153
304.0331	0.155
304.245	0.1447
304.457	0.1533
304.6689	0.152
304.8808	0.1681
305.0927	0.1388
305.3046	0.1525
305.5164	0.1686
305.7283	0.1462
305.9401	0.1468
306.152	0.1419
306.3638	0.1452
306.5756	0.1379
306.7874	0.1489
306.9992	0.143
307.2109	0.1484
307.4227	0.1288
307.6344	0.1459
307.8462	0.1399
308.0579	0.1261
308.2696	0.131
308.4813	0.1269
308.693	0.1313
308.9046	0.1363
309.1163	0.1236
309.328	0.1295
309.5396	0.111
309.7512	0.1154
309.9628	0.1278
310.1744	0.1187
310.386	0.1186
310.5976	0.1242
310.8091	0.1107
311.0207	0.1112
311.2322	0.113
311.4437	0.1152
311.6552	0.1022
311.8667	0.1223
312.0782	0.095
312.2897	0.1085
312.5012	0.1076
312.7126	0.1
312.924	0.1095
313.1355	0.106
313.3469	0.1003
313.5583	0.1109
313.7696	0.1013
313.981	0.1075
314.1924	0.0948
314.4037	0.0959
314.6151	0.111
314.8264	0.102
315.0377	0.0974
315.249	0.1031
315.4603	0.1087
315.6716	0.097
315.8828	0.0939
316.0941	0.0962
316.3053	0.0907
316.5165	0.087
316.7277	0.0983
316.9389	0.1078
317.1501	0.0997
317.3613	0.101
317.5724	0.0869
317.7836	0.0925
317.9947	0.089
318.2058	0.0948
318.417	0.0889
318.6281	0.087
318.8391	0.0959
319.0502	0.0943
319.2613	0.0977
319.4723	0.1033
319.6834	0.1036
319.8944	0.0892
320.1054	0.0993
320.3164	0.0908
320.5274	0.0874
320.7383	0.0898
320.9493	0.0859
321.1602	0.1024
321.3712	0.0858
321.5821	0.1074
321.793	0.1024
322.0039	0.0953
322.2148	0.0831
322.4257	0.0976
322.6365	0.1141
322.8474	0.1015
323.0582	0.093
323.269	0.0999
323.4798	0.1011
323.6906	0.1005
323.9014	0.0935
324.1122	0.0941
324.3229	0.0942
324.5337	0.1039
324.7444	0.0882
324.9551	0.1203
325.1658	0.1078
325.3765	0.1033
325.5872	0.1049
325.7979	0.0906
326.0085	0.1006
326.2192	0.1037
326.4298	0.0984
326.6404	0.0943
326.851	0.0927
327.0616	0.096
327.2722	0.1079
327.4828	0.1101
327.6933	0.0968
327.9039	0.1045
328.1144	0.1099
328.3249	0.1027
328.5354	0.0889
328.7459	0.0986
328.9564	0.0902
329.1669	0.0924
329.3773	0.0988
329.5878	0.0992
329.7982	0.0919
330.0086	0.1099
330.219	0.1079
330.4294	0.1024
330.6398	0.1049
330.8502	0.1023
331.0605	0.1068
331.2708	0.0927
331.4812	0.1111
331.6915	0.1089
331.9018	0.1081
332.1121	0.0984
332.3224	0.101
332.5326	0.1069
332.7429	0.1119
332.9531	0.1165
333.1633	0.1085
333.3735	0.1067
333.5837	0.1069
333.7939	0.1026
334.0041	0.113
334.2143	0.1133
334.4244	0.0971
334.6346	0.0824
334.8447	0.1107
335.0548	0.1037
335.2649	0.0966
335.475	0.1105
335.685	0.1066
335.8951	0.1066
336.1051	0.1039
336.3152	0.1218
336.5252	0.1024
336.7352	0.1028
336.9452	0.1129
337.1552	0.1179
337.3652	0.1042
337.5751	0.1133
337.7851	0.1111
337.995	0.1007
338.2049	0.1123
338.4148	0.112
338.6247	0.1216
338.8346	0.1019
339.0445	0.1045
339.2543	0.1014
339.4642	0.1128
339.674	0.0891
339.8838	0.112
340.0936	0.1105
340.3034	0.1153
340.5132	0.1124
340.7229	0.1093
340.9327	0.104
341.1424	0.1105
341.3522	0.1256
341.5619	0.114
341.7716	0.1118
341.9813	0.1278
342.1909	0.1152
342.4006	0.1338
342.6102	0.1274
342.8199	0.1234
343.0295	0.1286
343.2391	0.1103
343.4487	0.1155
343.6583	0.1238
343.8679	0.1196
344.0774	0.1245
344.287	0.1252
344.4965	0.1131
344.706	0.1217
344.9155	0.1245
345.125	0.1184
345.3345	0.1218
345.544	0.1251
345.7534	0.1246
345.9629	0.1245
346.1723	0.1347
346.3817	0.1186
346.5911	0.1396
346.8005	0.1277
347.0099	0.1265
347.2193	0.1269
347.4286	0.1257
347.638	0.1273
347.8473	0.1318
348.0566	0.1464
348.2659	0.1339
348.4752	0.1246
348.6845	0.1402
348.8937	0.1285
349.103	0.1305
349.3122	0.1349
349.5214	0.1375
349.7306	0.145
349.9398	0.1381
350.149	0.1364
350.3582	0.1382
350.5674	0.144
350.7765	0.14
350.9856	0.1369
351.1948	0.1378
351.4039	0.1292
351.613	0.1386
351.822	0.1264
352.0311	0.1374
352.2402	0.1391
352.4492	0.1466
352.6582	0.1404
352.8672	0.1393
353.0762	0.1512
353.2852	0.1363
353.4942	0.1473
353.7032	0.1543
353.9121	0.1489
354.1211	0.1406
354.33	0.1508
354.5389	0.1513
354.7478	0.1466
354.9567	0.1454
355.1655	0.1347
355.3744	0.1465
355.5833	0.1453
355.7921	0.1759
356.0009	0.1473
356.2097	0.1737
356.4185	0.1677
356.6273	0.1661
356.8361	0.1699
357.0448	0.1562
357.2536	0.1582
357.4623	0.1638
357.671	0.1499
357.8797	0.1724
358.0884	0.1586
358.2971	0.1616
358.5057	0.1741
358.7144	0.1635
358.923	0.169
359.1316	0.1705
359.3402	0.1764
359.5488	0.1815
359.7574	0.1651
359.966	0.174
360.1746	0.1745
360.3831	0.1775
360.5916	0.1699
360.8002	0.1545
361.0087	0.1783
361.2172	0.1803
361.4256	0.1673
361.6341	0.1788
361.8426	0.1829
362.051	0.1865
362.2594	0.1727
362.4678	0.1937
362.6762	0.1902
362.8846	0.1872
363.093	0.1871
363.3014	0.1734
363.5097	0.1806
363.718	0.1921
363.9264	0.1858
364.1347	0.1747
364.343	0.1888
364.5513	0.1912
364.7595	0.197
364.9678	0.2013
365.176	0.1908
365.3842	0.1893
365.5925	0.1906
365.8007	0.1952
366.0089	0.1963
366.217	0.1902
366.4252	0.2019
366.6333	0.215
366.8415	0.2029
367.0496	0.1825
367.2577	0.2172
367.4658	0.2129
367.6739	0.2119
367.882	0.2103
368.09	0.2056
368.2981	0.2138
368.5061	0.2026
368.7141	0.2184
368.9221	0.21
369.1301	0.2187
369.3381	0.2194
369.5461	0.205
369.754	0.2099
369.962	0.2178
370.1699	0.2285
370.3778	0.206
370.5857	0.2093
370.7936	0.2304
371.0015	0.2105
371.2093	0.2388
371.4172	0.2358
371.625	0.2167
371.8328	0.208
372.0406	0.2248
372.2484	0.2209
372.4562	0.217
372.664	0.2138
372.8717	0.2228
373.0795	0.2095
373.2872	0.2195
373.4949	0.218
373.7026	0.2371
373.9103	0.2371
374.118	0.2439
374.3256	0.2275
374.5333	0.2144
374.7409	0.2236
374.9485	0.244
375.1561	0.2366
375.3637	0.2452
375.5713	0.2379
375.7789	0.2369
375.9864	0.2351
376.194	0.2302
376.4015	0.2402
376.609	0.242
376.8165	0.2334
377.024	0.2225
377.2315	0.2227
377.4389	0.2481
377.6464	0.2315
377.8538	0.2421
378.0612	0.2398
378.2686	0.2429
378.476	0.2417
378.6834	0.2536
378.8908	0.2486
379.0981	0.2401
379.3055	0.2409
379.5128	0.2466
379.7201	0.2494
379.9274	0.2429
380.1347	0.2483
380.342	0.26
380.5492	0.2278
380.7565	0.2536
380.9637	0.2529
381.1709	0.2418
381.3781	0.2591
381.5853	0.2527
381.7925	0.2619
381.9997	0.2608
382.2068	0.2682
382.4139	0.2515
382.6211	0.2677
382.8282	0.2565
383.0353	0.2466
383.2424	0.2647
383.4494	0.2715
383.6565	0.2355
383.8635	0.2439
384.0706	0.2573
384.2776	0.2415
384.4846	0.255
384.6916	0.2562
384.8986	0.2463
385.1055	0.2521
385.3125	0.2663
385.5194	0.2426
385.7263	0.2686
385.9333	0.2524
386.1402	0.2456
386.347	0.2646
386.5539	0.2365
386.7608	0.2379
386.9676	0.2543
387.1744	0.2601
387.3813	0.2395
387.5881	0.2599
387.7948	0.235
388.0016	0.2381
388.2084	0.2468
388.4151	0.2543
388.6219	0.2478
388.8286	0.2379
389.0353	0.2671
389.242	0.2484
389.4487	0.2364
389.6553	0.249
389.862	0.2359
390.0686	0.2459
390.2753	0.2493
390.4819	0.2257
390.6885	0.2319
390.8951	0.2568
391.1016	0.2413
391.3082	0.2324
391.5147	0.2335
391.7213	0.2394
391.9278	0.2263
392.1343	0.2194
392.3408	0.2376
392.5473	0.2362
392.7537	0.2162
392.9602	0.2304
393.1666	0.2419
393.373	0.2356
393.5794	0.2291
393.7858	0.2255
393.9922	0.2179
394.1986	0.2449
394.4049	0.226
394.6113	0.2288
394.8176	0.2369
395.0239	0.2148
395.2302	0.2161
395.4365	0.2301
395.6428	0.2204
395.8491	0.2055
396.0553	0.2146
396.2615	0.2189
396.4678	0.2055
396.674	0.2104
396.8802	0.2207
397.0863	0.233
397.2925	0.2056
397.4987	0.2064
397.7048	0.2211
397.9109	0.2084
398.117	0.2017
398.3231	0.1967
398.5292	0.2195
398.7353	0.2267
398.9413	0.2161
399.1474	0.2076
399.3534	0.2061
399.5594	0.2032
399.7654	0.2221
399.9714	0.2269
400.1774	0.2239
400.3833	0.2042
400.5893	0.202
400.7952	0.21
401.0011	0.2063
401.207	0.2331
401.4129	0.1984
401.6188	0.2246
401.8247	0.2068
402.0305	0.1912
402.2364	0.2067
402.4422	0.2161
402.648	0.2181
402.8538	0.2194
403.0596	0.2041
403.2654	0.2129
403.4711	0.1886
403.6768	0.2235
403.8826	0.2244
404.0883	0.2224
404.294	0.208
404.4997	0.1989
404.7054	0.2205
404.911	0.208
405.1167	0.2122
405.3223	0.2289
405.5279	0.2212
405.7335	0.2255
405.9391	0.2198
406.1447	0.2015
406.3502	0.2282
406.5558	0.2053
406.7613	0.2245
406.9668	0.2148
407.1724	0.2089
407.3778	0.2083
407.5833	0.1998
407.7888	0.2121
407.9942	0.2208
408.1997	0.2199
408.4051	0.1926
408.6105	0.2175
408.8159	0.2007
409.0213	0.2098
409.2267	0.2359
409.432	0.2017
409.6374	0.2122
409.8427	0.2053
410.048	0.2303
410.2533	0.2153
410.4586	0.2252
410.6639	0.1989
410.8691	0.2115
411.0744	0.1983
411.2796	0.2032
411.4848	0.1997
411.69	0.1885
411.8952	0.2296
412.1004	0.1927
412.3056	0.2239
412.5107	0.2016
412.7158	0.225
412.921	0.2082
413.1261	0.2158
413.3312	0.1954
413.5362	0.2152
413.7413	0.2124
413.9464	0.215
414.1514	0.2003
414.3564	0.2053
414.5614	0.1901
414.7664	0.2028
414.9714	0.2183
415.1764	0.2024
415.3813	0.2114
415.5863	0.2127
415.7912	0.223
415.9961	0.2158
416.201	0.2047
416.4059	0.2123
416.6108	0.1913
416.8156	0.2071
417.0205	0.1979
417.2253	0.1889
417.4301	0.1955
417.6349	0.1891
417.8397	0.1878
418.0445	0.2095
418.2492	0.2112
418.454	0.2018
418.6587	0.1992
418.8634	0.2046
419.0681	0.1815
419.2728	0.1683
419.4775	0.1986
419.6822	0.1761
419.8868	0.1881
420.0915	0.2016
420.2961	0.1961
420.5007	0.1832
420.7053	0.2036
420.9099	0.1959
421.1144	0.1951
421.319	0.1843
421.5235	0.199
421.728	0.184
421.9325	0.1971
422.137	0.2093
422.3415	0.1776
422.546	0.188
422.7504	0.1761
422.9549	0.1919
423.1593	0.2006
423.3637	0.1897
423.5681	0.1734
423.7725	0.1805
423.9769	0.1723
424.1812	0.1819
424.3856	0.1703
424.5899	0.1709
424.7942	0.1828
424.9985	0.1935
425.2028	0.1617
425.4071	0.2095
425.6113	0.1623
425.8156	0.1766
426.0198	0.1832
426.224	0.1576
426.4282	0.1609
