Data from MonoPyChalIsomerACN10uM440nmA_Absorbance_15-27-13-194.txt Node
Date: Fri Jul 05 15:27:13 BST 2024
User: LASERRRRR
Spectrometer: FLMT03099
Trigger mode: 0
Integration Time (sec): 1.000000E-1
Scans to average: 1
Electric dark correction enabled: true
Nonlinearity correction enabled: false
Boxcar width: 0
XAxis mode: Wavelengths
Number of Pixels in Spectrum: 3648
>>>>>Begin Spectral Data<<<<<
179.3399	-0.3767
179.5586	-0.3767
179.7771	-0.3767
179.9957	-0
180.2143	-0
180.4329	-0.4349
180.6514	-0
180.8699	-0
181.0885	-0.2925
181.307	0.1861
181.5255	-0.8886
181.744	0.1814
181.9625	-0
182.181	-0
182.3994	0.3604
182.6179	-0
182.8363	0.399
183.0547	-0.1532
183.2732	-0.1197
183.4916	0.1961
183.71	0.3096
183.9284	0.1714
184.1467	-0.1806
184.3651	0.0178
184.5835	0.0169
184.8018	0.0275
185.0201	-0.0064
185.2385	-0.0017
185.4568	0.0697
185.6751	0.0532
185.8934	0.2085
186.1117	-0.0159
186.3299	0.3319
186.5482	-0.0439
186.7664	-0.0913
186.9847	0.0031
187.2029	0.1011
187.4211	-0.0166
187.6393	0.3072
187.8575	0.366
188.0757	0.1788
188.2939	0.1326
188.512	-0.0334
188.7302	0.1845
188.9483	0.0518
189.1665	0.2363
189.3846	-0.2028
189.6027	0.1589
189.8208	0.2313
190.0389	0.0581
190.257	0.1215
190.475	0.3049
190.6931	0.1906
190.9111	0.2654
191.1292	0.18
191.3472	0.4263
191.5652	0.2831
191.7832	0.2131
192.0012	0.4514
192.2192	0.4597
192.4371	0.7366
192.6551	0.5198
192.873	0.4766
193.091	0.3471
193.3089	0.7456
193.5268	0.4164
193.7447	0.7897
193.9626	0.5484
194.1805	0.4488
194.3984	0.5843
194.6162	0.4614
194.8341	0.508
195.0519	0.6251
195.2697	1.1795
195.4875	0.6732
195.7054	0.7526
195.9231	0.4009
196.1409	0.6762
196.3587	0.5565
196.5765	0.604
196.7942	0.6695
197.012	0.4964
197.2297	0.5032
197.4474	0.7143
197.6651	0.531
197.8828	0.5338
198.1005	0.6217
198.3182	0.6133
198.5358	0.6679
198.7535	0.5194
198.9711	0.6511
199.1888	0.5779
199.4064	0.6513
199.624	0.5097
199.8416	0.6212
200.0592	0.6495
200.2767	0.6481
200.4943	0.7974
200.7119	0.7919
200.9294	0.6477
201.1469	0.6141
201.3645	0.5239
201.582	0.5368
201.7995	0.5854
202.017	0.67
202.2344	0.5513
202.4519	0.7185
202.6694	0.6642
202.8868	0.7411
203.1042	0.701
203.3217	0.6635
203.5391	0.7094
203.7565	0.5849
203.9739	0.6254
204.1913	0.5998
204.4086	0.6467
204.626	0.6567
204.8433	0.5762
205.0607	0.6371
205.278	0.7548
205.4953	0.5993
205.7126	0.6934
205.9299	0.8331
206.1472	0.7347
206.3644	0.6249
206.5817	0.6713
206.7989	0.6847
207.0162	0.614
207.2334	0.6569
207.4506	0.6872
207.6678	0.6136
207.885	0.5918
208.1022	0.6985
208.3194	0.6417
208.5365	0.6264
208.7537	0.6376
208.9708	0.6094
209.1879	0.6843
209.405	0.7233
209.6222	0.7516
209.8392	0.6556
210.0563	0.6346
210.2734	0.609
210.4905	0.6385
210.7075	0.6515
210.9245	0.62
211.1416	0.6694
211.3586	0.6455
211.5756	0.6124
211.7926	0.6091
212.0096	0.5734
212.2265	0.5706
212.4435	0.6156
212.6604	0.597
212.8774	0.5835
213.0943	0.5854
213.3112	0.54
213.5281	0.5479
213.745	0.5279
213.9619	0.4672
214.1788	0.5149
214.3956	0.4757
214.6125	0.4797
214.8293	0.477
215.0461	0.481
215.2629	0.5212
215.4798	0.4954
215.6965	0.4228
215.9133	0.4607
216.1301	0.4264
216.3469	0.4468
216.5636	0.4147
216.7803	0.3903
216.9971	0.4178
217.2138	0.3797
217.4305	0.37
217.6472	0.354
217.8639	0.4247
218.0805	0.3527
218.2972	0.3358
218.5138	0.294
218.7305	0.3241
218.9471	0.3267
219.1637	0.2896
219.3803	0.2727
219.5969	0.288
219.8135	0.2578
220.0301	0.2859
220.2466	0.271
220.4632	0.2513
220.6797	0.2373
220.8962	0.2432
221.1127	0.2658
221.3292	0.2613
221.5457	0.2427
221.7622	0.2411
221.9787	0.2405
222.1951	0.2529
222.4116	0.2592
222.628	0.2486
222.8444	0.2356
223.0608	0.2454
223.2772	0.2454
223.4936	0.24
223.71	0.2413
223.9264	0.2917
224.1427	0.2386
224.3591	0.2459
224.5754	0.247
224.7917	0.2658
225.008	0.2502
225.2243	0.2577
225.4406	0.2737
225.6569	0.2727
225.8732	0.2392
226.0894	0.2794
226.3057	0.2668
226.5219	0.2733
226.7381	0.2574
226.9543	0.2848
227.1705	0.2809
227.3867	0.285
227.6029	0.2901
227.8191	0.2905
228.0352	0.3046
228.2513	0.3037
228.4675	0.3135
228.6836	0.2951
228.8997	0.2809
229.1158	0.2912
229.3319	0.3124
229.548	0.3025
229.764	0.312
229.9801	0.3241
230.1961	0.3282
230.4121	0.3276
230.6282	0.3349
230.8442	0.3047
231.0602	0.3634
231.2761	0.3474
231.4921	0.3467
231.7081	0.3489
231.924	0.342
232.14	0.3545
232.3559	0.3478
232.5718	0.3482
232.7877	0.3638
233.0036	0.336
233.2195	0.3493
233.4353	0.3562
233.6512	0.3782
233.867	0.3563
234.0829	0.3719
234.2987	0.3558
234.5145	0.3652
234.7303	0.3779
234.9461	0.378
235.1619	0.3897
235.3776	0.3825
235.5934	0.393
235.8091	0.3604
236.0249	0.3772
236.2406	0.3857
236.4563	0.3732
236.672	0.4017
236.8877	0.3887
237.1034	0.392
237.319	0.3972
237.5347	0.397
237.7503	0.3817
237.966	0.4063
238.1816	0.4103
238.3972	0.4081
238.6128	0.3811
238.8284	0.4038
239.0439	0.4187
239.2595	0.4147
239.475	0.4078
239.6906	0.4139
239.9061	0.3829
240.1216	0.4007
240.3371	0.4001
240.5526	0.4014
240.7681	0.4123
240.9836	0.3872
241.199	0.3928
241.4145	0.386
241.6299	0.377
241.8453	0.3741
242.0607	0.3895
242.2761	0.358
242.4915	0.3757
242.7069	0.3679
242.9223	0.3556
243.1376	0.3478
243.353	0.3406
243.5683	0.3482
243.7836	0.3165
243.9989	0.324
244.2142	0.3196
244.4295	0.3165
244.6448	0.3003
244.86	0.3024
245.0753	0.2916
245.2905	0.2799
245.5057	0.2778
245.721	0.2614
245.9362	0.2672
246.1514	0.2642
246.3665	0.2601
246.5817	0.2493
246.7969	0.2563
247.012	0.2454
247.2271	0.2236
247.4423	0.2486
247.6574	0.2376
247.8725	0.244
248.0876	0.2156
248.3026	0.2215
248.5177	0.2067
248.7328	0.2148
248.9478	0.2063
249.1628	0.2068
249.3779	0.2195
249.5929	0.2112
249.8079	0.2159
250.0228	0.2024
250.2378	0.214
250.4528	0.1989
250.6677	0.1878
250.8827	0.1815
251.0976	0.184
251.3125	0.1966
251.5274	0.1751
251.7423	0.171
251.9572	0.1943
252.172	0.1794
252.3869	0.1863
252.6017	0.1826
252.8166	0.1754
253.0314	0.1601
253.2462	0.1636
253.461	0.1689
253.6758	0.1547
253.8906	0.1754
254.1053	0.161
254.3201	0.1549
254.5348	0.1741
254.7496	0.1721
254.9643	0.1751
255.179	0.1797
255.3937	0.1722
255.6083	0.1644
255.823	0.1722
256.0377	0.1617
256.2523	0.1567
256.467	0.1494
256.6816	0.1717
256.8962	0.1628
257.1108	0.1583
257.3254	0.1764
257.54	0.165
257.7545	0.1776
257.9691	0.1722
258.1836	0.1695
258.3981	0.1715
258.6127	0.1629
258.8272	0.1502
259.0417	0.1638
259.2561	0.1676
259.4706	0.1647
259.6851	0.1636
259.8995	0.1556
260.114	0.1577
260.3284	0.1573
260.5428	0.1587
260.7572	0.1609
260.9716	0.1712
261.186	0.1579
261.4003	0.1716
261.6147	0.1773
261.829	0.168
262.0433	0.1636
262.2577	0.1596
262.472	0.1638
262.6863	0.1534
262.9005	0.1645
263.1148	0.1672
263.3291	0.1605
263.5433	0.1533
263.7576	0.1641
263.9718	0.1639
264.186	0.1699
264.4002	0.1579
264.6144	0.1556
264.8286	0.17
265.0427	0.1643
265.2569	0.1633
265.471	0.1643
265.6851	0.144
265.8993	0.1567
266.1134	0.1583
266.3275	0.1521
266.5415	0.1565
266.7556	0.1686
266.9697	0.1577
267.1837	0.162
267.3978	0.1576
267.6118	0.1694
267.8258	0.1756
268.0398	0.1487
268.2538	0.1642
268.4677	0.1605
268.6817	0.1545
268.8957	0.1591
269.1096	0.1455
269.3235	0.1655
269.5374	0.1599
269.7514	0.1577
269.9652	0.153
270.1791	0.1519
270.393	0.1547
270.6068	0.1564
270.8207	0.1389
271.0345	0.1376
271.2483	0.1437
271.4622	0.1337
271.676	0.1396
271.8897	0.1473
272.1035	0.1506
272.3173	0.124
272.531	0.144
272.7448	0.1386
272.9585	0.1309
273.1722	0.1396
273.3859	0.1474
273.5996	0.125
273.8133	0.1524
274.0269	0.1356
274.2406	0.1271
274.4542	0.1423
274.6679	0.1306
274.8815	0.1375
275.0951	0.1402
275.3087	0.1507
275.5223	0.1433
275.7358	0.1396
275.9494	0.1554
276.1629	0.1313
276.3765	0.1346
276.59	0.1421
276.8035	0.1454
277.017	0.1475
277.2305	0.1413
277.444	0.1496
277.6574	0.1267
277.8709	0.1497
278.0843	0.1383
278.2978	0.1482
278.5112	0.1266
278.7246	0.1459
278.938	0.1427
279.1513	0.1444
279.3647	0.1451
279.5781	0.1367
279.7914	0.1475
280.0047	0.1482
280.2181	0.1457
280.4314	0.1452
280.6447	0.1525
280.8579	0.1544
281.0712	0.165
281.2845	0.1421
281.4977	0.1421
281.711	0.1512
281.9242	0.1617
282.1374	0.1524
282.3506	0.141
282.5638	0.1465
282.7769	0.154
282.9901	0.1401
283.2033	0.1596
283.4164	0.1639
283.6295	0.15
283.8426	0.1515
284.0557	0.1646
284.2688	0.1627
284.4819	0.152
284.695	0.1477
284.908	0.1545
285.1211	0.1562
285.3341	0.1568
285.5471	0.1619
285.7601	0.1509
285.9731	0.1493
286.1861	0.1562
286.3991	0.1695
286.612	0.1614
286.825	0.1545
287.0379	0.165
287.2508	0.154
287.4637	0.1607
287.6766	0.1427
287.8895	0.1611
288.1024	0.1782
288.3152	0.1611
288.5281	0.1555
288.7409	0.1677
288.9538	0.1657
289.1666	0.1597
289.3794	0.1567
289.5922	0.157
289.8049	0.1642
290.0177	0.1581
290.2304	0.1594
290.4432	0.1713
290.6559	0.1634
290.8686	0.1704
291.0813	0.1632
291.294	0.1657
291.5067	0.162
291.7194	0.1611
291.932	0.1832
292.1447	0.1618
292.3573	0.1684
292.5699	0.1588
292.7825	0.1551
292.9951	0.163
293.2077	0.1615
293.4203	0.1545
293.6328	0.1566
293.8454	0.1662
294.0579	0.1526
294.2704	0.1691
294.4829	0.1598
294.6954	0.1731
294.9079	0.1719
295.1204	0.1691
295.3328	0.1601
295.5453	0.1606
295.7577	0.1735
295.9701	0.1499
296.1825	0.1742
296.3949	0.1625
296.6073	0.162
296.8197	0.1624
297.0321	0.1814
297.2444	0.1484
297.4567	0.1586
297.6691	0.1647
297.8814	0.1671
298.0937	0.1743
298.306	0.1667
298.5182	0.1481
298.7305	0.164
298.9428	0.1523
299.155	0.1634
299.3672	0.1571
299.5794	0.1618
299.7916	0.1667
300.0038	0.1598
300.216	0.1633
300.4282	0.1715
300.6403	0.1673
300.8525	0.1684
301.0646	0.1603
301.2767	0.162
301.4888	0.1666
301.7009	0.1671
301.913	0.1569
302.125	0.1664
302.3371	0.1471
302.5491	0.161
302.7612	0.1666
302.9732	0.1605
303.1852	0.1608
303.3972	0.1638
303.6092	0.1533
303.8211	0.1512
304.0331	0.1489
304.245	0.1394
304.457	0.1589
304.6689	0.1565
304.8808	0.1697
305.0927	0.146
305.3046	0.1498
305.5164	0.158
305.7283	0.1384
305.9401	0.1524
306.152	0.148
306.3638	0.1502
306.5756	0.1529
306.7874	0.1556
306.9992	0.1547
307.2109	0.1325
307.4227	0.1167
307.6344	0.1457
307.8462	0.1367
308.0579	0.1485
308.2696	0.1262
308.4813	0.128
308.693	0.136
308.9046	0.1286
309.1163	0.1262
309.328	0.1224
309.5396	0.1239
309.7512	0.1147
309.9628	0.1181
310.1744	0.1202
310.386	0.1217
310.5976	0.1151
310.8091	0.1251
311.0207	0.1073
311.2322	0.1234
311.4437	0.1139
311.6552	0.1154
311.8667	0.1115
312.0782	0.1013
312.2897	0.1001
312.5012	0.1049
312.7126	0.1019
312.924	0.0985
313.1355	0.1075
313.3469	0.0985
313.5583	0.1106
313.7696	0.1048
313.981	0.1099
314.1924	0.102
314.4037	0.0969
314.6151	0.117
314.8264	0.1029
315.0377	0.0874
315.249	0.095
315.4603	0.0948
315.6716	0.1022
315.8828	0.0946
316.0941	0.0936
316.3053	0.0831
316.5165	0.0899
316.7277	0.0904
316.9389	0.0986
317.1501	0.0971
317.3613	0.1048
317.5724	0.0837
317.7836	0.0962
317.9947	0.0925
318.2058	0.1053
318.417	0.074
318.6281	0.0835
318.8391	0.0853
319.0502	0.0813
319.2613	0.0906
319.4723	0.1013
319.6834	0.0999
319.8944	0.087
320.1054	0.0946
320.3164	0.1023
320.5274	0.0807
320.7383	0.092
320.9493	0.0964
321.1602	0.1027
321.3712	0.0808
321.5821	0.0993
321.793	0.0995
322.0039	0.0928
322.2148	0.0903
322.4257	0.1008
322.6365	0.1093
322.8474	0.0984
323.0582	0.0812
323.269	0.0956
323.4798	0.0974
323.6906	0.099
323.9014	0.0999
324.1122	0.1145
324.3229	0.0878
324.5337	0.0978
324.7444	0.0892
324.9551	0.102
325.1658	0.0872
325.3765	0.1075
325.5872	0.0969
325.7979	0.0975
326.0085	0.1063
326.2192	0.0972
326.4298	0.0943
326.6404	0.0941
326.851	0.0969
327.0616	0.1037
327.2722	0.1066
327.4828	0.1067
327.6933	0.0934
327.9039	0.1016
328.1144	0.113
328.3249	0.1082
328.5354	0.0943
328.7459	0.0923
328.9564	0.0936
329.1669	0.104
329.3773	0.1009
329.5878	0.1004
329.7982	0.0915
330.0086	0.099
330.219	0.106
330.4294	0.1058
330.6398	0.0984
330.8502	0.1001
331.0605	0.1012
331.2708	0.1033
331.4812	0.114
331.6915	0.1024
331.9018	0.1013
332.1121	0.0981
332.3224	0.1108
332.5326	0.1095
332.7429	0.1056
332.9531	0.1173
333.1633	0.0927
333.3735	0.1056
333.5837	0.1032
333.7939	0.0931
334.0041	0.1196
334.2143	0.105
334.4244	0.1075
334.6346	0.0823
334.8447	0.1138
335.0548	0.0943
335.2649	0.1048
335.475	0.1168
335.685	0.0993
335.8951	0.1119
336.1051	0.1107
336.3152	0.1215
336.5252	0.1032
336.7352	0.1107
336.9452	0.1056
337.1552	0.115
337.3652	0.1075
337.5751	0.1094
337.7851	0.1053
337.995	0.0934
338.2049	0.1121
338.4148	0.1059
338.6247	0.1158
338.8346	0.0947
339.0445	0.1047
339.2543	0.1001
339.4642	0.1048
339.674	0.0917
339.8838	0.1088
340.0936	0.1198
340.3034	0.1225
340.5132	0.1223
340.7229	0.1182
340.9327	0.1075
341.1424	0.1164
341.3522	0.1274
341.5619	0.1335
341.7716	0.1189
341.9813	0.1148
342.1909	0.1095
342.4006	0.1265
342.6102	0.1264
342.8199	0.1112
343.0295	0.1308
343.2391	0.1176
343.4487	0.144
343.6583	0.12
343.8679	0.1115
344.0774	0.1279
344.287	0.1403
344.4965	0.1186
344.706	0.1169
344.9155	0.1271
345.125	0.1289
345.3345	0.1227
345.544	0.1124
345.7534	0.1257
345.9629	0.1133
346.1723	0.131
346.3817	0.1196
346.5911	0.1167
346.8005	0.1311
347.0099	0.1261
347.2193	0.1332
347.4286	0.1389
347.638	0.1263
347.8473	0.1428
348.0566	0.1358
348.2659	0.131
348.4752	0.1285
348.6845	0.1267
348.8937	0.1355
349.103	0.1339
349.3122	0.132
349.5214	0.1281
349.7306	0.1311
349.9398	0.128
350.149	0.1409
350.3582	0.1394
350.5674	0.1486
350.7765	0.1353
350.9856	0.1319
351.1948	0.1391
351.4039	0.1181
351.613	0.1288
351.822	0.1314
352.0311	0.1489
352.2402	0.1487
352.4492	0.1471
352.6582	0.1478
352.8672	0.1431
353.0762	0.1558
353.2852	0.1447
353.4942	0.1437
353.7032	0.16
353.9121	0.1515
354.1211	0.1546
354.33	0.1451
354.5389	0.1517
354.7478	0.1531
354.9567	0.1487
355.1655	0.137
355.3744	0.1574
355.5833	0.1538
355.7921	0.1701
356.0009	0.1514
356.2097	0.1698
356.4185	0.1656
356.6273	0.1678
356.8361	0.1621
357.0448	0.1516
357.2536	0.1613
357.4623	0.1462
357.671	0.16
357.8797	0.1637
358.0884	0.16
358.2971	0.1569
358.5057	0.1693
358.7144	0.1645
358.923	0.1743
359.1316	0.173
359.3402	0.1654
359.5488	0.1781
359.7574	0.1535
359.966	0.182
360.1746	0.1829
360.3831	0.1821
360.5916	0.1634
360.8002	0.1667
361.0087	0.185
361.2172	0.1761
361.4256	0.1822
361.6341	0.1805
361.8426	0.1878
362.051	0.1892
362.2594	0.1713
362.4678	0.1707
362.6762	0.1982
362.8846	0.1901
363.093	0.1642
363.3014	0.1885
363.5097	0.1618
363.718	0.2025
363.9264	0.1683
364.1347	0.1926
364.343	0.2019
364.5513	0.1951
364.7595	0.2081
364.9678	0.1932
365.176	0.2111
365.3842	0.196
365.5925	0.2005
365.8007	0.1814
366.0089	0.2156
366.217	0.1989
366.4252	0.1965
366.6333	0.222
366.8415	0.1983
367.0496	0.1872
367.2577	0.1986
367.4658	0.207
367.6739	0.2212
367.882	0.2133
368.09	0.1848
368.2981	0.2243
368.5061	0.1967
368.7141	0.2188
368.9221	0.2246
369.1301	0.2384
369.3381	0.2043
369.5461	0.2225
369.754	0.2152
369.962	0.2366
370.1699	0.2105
370.3778	0.2254
370.5857	0.1985
370.7936	0.2191
371.0015	0.2265
371.2093	0.2279
371.4172	0.2233
371.625	0.2072
371.8328	0.2155
372.0406	0.2171
372.2484	0.2044
372.4562	0.2329
372.664	0.2212
372.8717	0.2422
373.0795	0.1988
373.2872	0.2366
373.4949	0.2338
373.7026	0.2304
373.9103	0.2373
374.118	0.2284
374.3256	0.2303
374.5333	0.2239
374.7409	0.212
374.9485	0.236
375.1561	0.2511
375.3637	0.2406
375.5713	0.2379
375.7789	0.2428
375.9864	0.2383
376.194	0.2344
376.4015	0.2624
376.609	0.2385
376.8165	0.2487
377.024	0.2316
377.2315	0.2363
377.4389	0.2206
377.6464	0.2445
377.8538	0.2505
378.0612	0.2525
378.2686	0.2389
378.476	0.2547
378.6834	0.2566
378.8908	0.2406
379.0981	0.2454
379.3055	0.2401
379.5128	0.2391
379.7201	0.2488
379.9274	0.228
380.1347	0.2577
380.342	0.2646
380.5492	0.2635
380.7565	0.2483
380.9637	0.2571
381.1709	0.2522
381.3781	0.2464
381.5853	0.2666
381.7925	0.2689
381.9997	0.2679
382.2068	0.2635
382.4139	0.2542
382.6211	0.2588
382.8282	0.255
383.0353	0.2658
383.2424	0.2531
383.4494	0.2748
383.6565	0.2493
383.8635	0.2481
384.0706	0.2647
384.2776	0.2806
384.4846	0.2637
384.6916	0.2523
384.8986	0.2425
385.1055	0.2695
385.3125	0.2488
385.5194	0.2375
385.7263	0.2718
385.9333	0.2498
386.1402	0.2598
386.347	0.2524
386.5539	0.2316
386.7608	0.2694
386.9676	0.2452
387.1744	0.2521
387.3813	0.251
387.5881	0.2604
387.7948	0.2399
388.0016	0.2456
388.2084	0.2678
388.4151	0.2418
388.6219	0.2549
388.8286	0.2479
389.0353	0.2607
389.242	0.25
389.4487	0.2307
389.6553	0.2327
389.862	0.232
390.0686	0.2462
390.2753	0.2496
390.4819	0.2342
390.6885	0.251
390.8951	0.252
391.1016	0.2603
391.3082	0.2478
391.5147	0.2377
391.7213	0.2418
391.9278	0.2326
392.1343	0.2404
392.3408	0.25
392.5473	0.2352
392.7537	0.2429
392.9602	0.233
393.1666	0.2302
393.373	0.2361
393.5794	0.2535
393.7858	0.2432
393.9922	0.2217
394.1986	0.2257
394.4049	0.2498
394.6113	0.2109
394.8176	0.2183
395.0239	0.2367
395.2302	0.214
395.4365	0.2119
395.6428	0.2185
395.8491	0.2319
396.0553	0.2332
396.2615	0.2297
396.4678	0.2095
396.674	0.1978
396.8802	0.225
397.0863	0.2462
397.2925	0.2179
397.4987	0.2105
397.7048	0.2102
397.9109	0.2169
398.117	0.2068
398.3231	0.2232
398.5292	0.2331
398.7353	0.2279
398.9413	0.2112
399.1474	0.2253
399.3534	0.2044
399.5594	0.2077
399.7654	0.2373
399.9714	0.2283
400.1774	0.2114
400.3833	0.2011
400.5893	0.2191
400.7952	0.2112
401.0011	0.2097
401.207	0.214
401.4129	0.2167
401.6188	0.2285
401.8247	0.2435
402.0305	0.1969
402.2364	0.2057
402.4422	0.223
402.648	0.231
402.8538	0.2302
403.0596	0.197
403.2654	0.2198
403.4711	0.2139
403.6768	0.2197
403.8826	0.2219
404.0883	0.2172
404.294	0.2172
404.4997	0.2103
404.7054	0.208
404.911	0.2032
405.1167	0.2107
405.3223	0.219
405.5279	0.2187
405.7335	0.2205
405.9391	0.2334
406.1447	0.2306
406.3502	0.2268
406.5558	0.219
406.7613	0.2263
406.9668	0.2218
407.1724	0.2084
407.3778	0.2091
407.5833	0.2065
407.7888	0.2107
407.9942	0.2259
408.1997	0.2089
408.4051	0.2171
408.6105	0.22
408.8159	0.2255
409.0213	0.1974
409.2267	0.2273
409.432	0.196
409.6374	0.2073
409.8427	0.196
410.048	0.2177
410.2533	0.1955
410.4586	0.2028
410.6639	0.1895
410.8691	0.2056
411.0744	0.1966
411.2796	0.2063
411.4848	0.207
411.69	0.2109
411.8952	0.2153
412.1004	0.1883
412.3056	0.228
412.5107	0.2065
412.7158	0.2218
412.921	0.2167
413.1261	0.2084
413.3312	0.2093
413.5362	0.2046
413.7413	0.229
413.9464	0.2128
414.1514	0.2156
414.3564	0.2046
414.5614	0.2012
414.7664	0.1921
414.9714	0.1976
415.1764	0.2114
415.3813	0.2227
415.5863	0.208
415.7912	0.2091
415.9961	0.2268
416.201	0.2077
416.4059	0.2181
416.6108	0.2093
416.8156	0.2099
417.0205	0.2075
417.2253	0.2035
417.4301	0.1994
417.6349	0.2138
417.8397	0.1978
418.0445	0.2118
418.2492	0.199
418.454	0.2005
418.6587	0.2056
418.8634	0.2002
419.0681	0.1913
419.2728	0.1861
419.4775	0.2019
419.6822	0.2019
419.8868	0.1874
420.0915	0.1991
420.2961	0.1769
420.5007	0.1904
420.7053	0.1891
420.9099	0.1977
421.1144	0.198
421.319	0.1962
421.5235	0.2016
421.728	0.1863
421.9325	0.1917
422.137	0.1895
422.3415	0.1868
422.546	0.1889
422.7504	0.1926
422.9549	0.1982
423.1593	0.1833
423.3637	0.1947
423.5681	0.1773
423.7725	0.1877
423.9769	0.17
424.1812	0.1721
424.3856	0.1869
424.5899	0.1777
424.7942	0.1792
424.9985	0.1725
425.2028	0.1746
425.4071	0.2043
425.6113	0.173
425.8156	0.1691
426.0198	0.1861
426.224	0.1682
426.4282	0.1666
426.6324	0.1665
426.8366	0.1497
