Data from MonoPyChalIsomerACN10uM440nmA_Absorbance_15-27-11-894.txt Node
Date: Fri Jul 05 15:27:11 BST 2024
User: LASERRRRR
Spectrometer: FLMT03099
Trigger mode: 0
Integration Time (sec): 1.000000E-1
Scans to average: 1
Electric dark correction enabled: true
Nonlinearity correction enabled: false
Boxcar width: 0
XAxis mode: Wavelengths
Number of Pixels in Spectrum: 3648
>>>>>Begin Spectral Data<<<<<
179.3399	-0.2378
179.5586	-0.2378
179.7771	-0.2378
179.9957	0.2529
180.2143	-0.2275
180.4329	-0.236
180.6514	-0
180.8699	0.6353
181.0885	-0.0525
181.307	-0.0347
181.5255	-1.009
181.744	-0
181.9625	-0
182.181	-0
182.3994	0.0507
182.6179	-0
182.8363	0.1372
183.0547	-0.201
183.2732	0.1133
183.4916	0.2732
183.71	0.303
183.9284	0.1295
184.1467	-0.1227
184.3651	-0.0239
184.5835	-0.101
184.8018	-0.0644
185.0201	-0.0056
185.2385	-0.1392
185.4568	0.0597
185.6751	0.0744
185.8934	0.2471
186.1117	0.0904
186.3299	0.0879
186.5482	0.1163
186.7664	0.1005
186.9847	0.0577
187.2029	0.2088
187.4211	0.0462
187.6393	0.1341
187.8575	0.0766
188.0757	0.1928
188.2939	0.2446
188.512	0.3848
188.7302	0.0755
188.9483	0.5947
189.1665	0.2701
189.3846	2.0107
189.6027	0.0867
189.8208	0.1822
190.0389	0.1511
190.257	0.2546
190.475	0.3406
190.6931	0.7414
190.9111	0.3614
191.1292	0.3221
191.3472	0.3821
191.5652	0.3369
191.7832	0.0839
192.0012	0.6894
192.2192	0.3002
192.4371	0.7283
192.6551	0.3479
192.873	0.4954
193.091	0.41
193.3089	0.7243
193.5268	0.7434
193.7447	0.5318
193.9626	0.5263
194.1805	0.4183
194.3984	0.6005
194.6162	0.4813
194.8341	0.4607
195.0519	0.5446
195.2697	0.5955
195.4875	0.6164
195.7054	0.6619
195.9231	0.428
196.1409	0.5474
196.3587	0.6853
196.5765	0.6588
196.7942	0.4333
197.012	0.5552
197.2297	0.5642
197.4474	0.6508
197.6651	0.4764
197.8828	0.4896
198.1005	0.7393
198.3182	0.6614
198.5358	0.6934
198.7535	0.8411
198.9711	0.5661
199.1888	0.6313
199.4064	0.8115
199.624	0.6134
199.8416	0.6338
200.0592	0.5599
200.2767	0.5611
200.4943	0.7377
200.7119	0.978
200.9294	0.6598
201.1469	0.6222
201.3645	0.6002
201.582	0.5829
201.7995	0.5833
202.017	0.6362
202.2344	0.6473
202.4519	0.6582
202.6694	0.7229
202.8868	0.6367
203.1042	0.7554
203.3217	0.6826
203.5391	0.5685
203.7565	0.68
203.9739	0.7335
204.1913	0.6634
204.4086	0.6792
204.626	0.7433
204.8433	0.632
205.0607	0.6154
205.278	0.7027
205.4953	0.7559
205.7126	0.7216
205.9299	0.8906
206.1472	0.7128
206.3644	0.6402
206.5817	0.6879
206.7989	0.7254
207.0162	0.6724
207.2334	0.7782
207.4506	0.6729
207.6678	0.7023
207.885	0.6602
208.1022	0.6858
208.3194	0.6312
208.5365	0.6844
208.7537	0.6364
208.9708	0.6068
209.1879	0.6881
209.405	0.7256
209.6222	0.7416
209.8392	0.6671
210.0563	0.6552
210.2734	0.6162
210.4905	0.6518
210.7075	0.6232
210.9245	0.5969
211.1416	0.7223
211.3586	0.6198
211.5756	0.5763
211.7926	0.6216
212.0096	0.6324
212.2265	0.6125
212.4435	0.5741
212.6604	0.586
212.8774	0.6621
213.0943	0.6384
213.3112	0.5695
213.5281	0.558
213.745	0.5235
213.9619	0.5517
214.1788	0.4943
214.3956	0.4799
214.6125	0.4747
214.8293	0.4603
215.0461	0.4843
215.2629	0.4648
215.4798	0.4718
215.6965	0.4178
215.9133	0.4616
216.1301	0.4214
216.3469	0.4306
216.5636	0.4385
216.7803	0.4038
216.9971	0.4473
217.2138	0.3809
217.4305	0.3701
217.6472	0.3698
217.8639	0.3801
218.0805	0.345
218.2972	0.3335
218.5138	0.3149
218.7305	0.3305
218.9471	0.3116
219.1637	0.2983
219.3803	0.3037
219.5969	0.2967
219.8135	0.2666
220.0301	0.2932
220.2466	0.2599
220.4632	0.2718
220.6797	0.2222
220.8962	0.2419
221.1127	0.2516
221.3292	0.2477
221.5457	0.2341
221.7622	0.2227
221.9787	0.2585
222.1951	0.2348
222.4116	0.2527
222.628	0.2375
222.8444	0.2773
223.0608	0.2449
223.2772	0.2592
223.4936	0.2511
223.71	0.2581
223.9264	0.2497
224.1427	0.2562
224.3591	0.2459
224.5754	0.281
224.7917	0.27
225.008	0.263
225.2243	0.2696
225.4406	0.2808
225.6569	0.2816
225.8732	0.2635
226.0894	0.2406
226.3057	0.2732
226.5219	0.2794
226.7381	0.274
226.9543	0.2998
227.1705	0.2935
227.3867	0.2831
227.6029	0.2984
227.8191	0.3025
228.0352	0.3155
228.2513	0.3043
228.4675	0.3066
228.6836	0.3193
228.8997	0.2929
229.1158	0.2893
229.3319	0.3213
229.548	0.3254
229.764	0.3278
229.9801	0.3119
230.1961	0.3046
230.4121	0.3349
230.6282	0.335
230.8442	0.324
231.0602	0.3623
231.2761	0.3545
231.4921	0.3471
231.7081	0.3461
231.924	0.3404
232.14	0.3744
232.3559	0.3365
232.5718	0.3524
232.7877	0.3657
233.0036	0.3517
233.2195	0.3404
233.4353	0.3543
233.6512	0.3458
233.867	0.3474
234.0829	0.3534
234.2987	0.3499
234.5145	0.3764
234.7303	0.381
234.9461	0.3941
235.1619	0.3793
235.3776	0.3891
235.5934	0.388
235.8091	0.3662
236.0249	0.3841
236.2406	0.3762
236.4563	0.3769
236.672	0.3943
236.8877	0.4124
237.1034	0.3989
237.319	0.4145
237.5347	0.4146
237.7503	0.3951
237.966	0.3945
238.1816	0.4065
238.3972	0.3974
238.6128	0.4007
238.8284	0.3988
239.0439	0.4212
239.2595	0.404
239.475	0.4228
239.6906	0.4134
239.9061	0.4014
240.1216	0.3855
240.3371	0.4045
240.5526	0.3973
240.7681	0.4065
240.9836	0.3846
241.199	0.4113
241.4145	0.3797
241.6299	0.3971
241.8453	0.373
242.0607	0.3727
242.2761	0.3479
242.4915	0.375
242.7069	0.3716
242.9223	0.3572
243.1376	0.3347
243.353	0.347
243.5683	0.3269
243.7836	0.3214
243.9989	0.3259
244.2142	0.3125
244.4295	0.3063
244.6448	0.3019
244.86	0.2934
245.0753	0.2719
245.2905	0.2776
245.5057	0.2668
245.721	0.2566
245.9362	0.26
246.1514	0.2583
246.3665	0.2548
246.5817	0.254
246.7969	0.2356
247.012	0.2411
247.2271	0.2268
247.4423	0.2352
247.6574	0.225
247.8725	0.2322
248.0876	0.2139
248.3026	0.2248
248.5177	0.2158
248.7328	0.2062
248.9478	0.2102
249.1628	0.1952
249.3779	0.201
249.5929	0.192
249.8079	0.2186
250.0228	0.1922
250.2378	0.1883
250.4528	0.2074
250.6677	0.186
250.8827	0.1974
251.0976	0.1863
251.3125	0.1853
251.5274	0.1611
251.7423	0.177
251.9572	0.1899
252.172	0.1786
252.3869	0.1799
252.6017	0.1684
252.8166	0.1642
253.0314	0.1602
253.2462	0.1619
253.461	0.1791
253.6758	0.1645
253.8906	0.1828
254.1053	0.1655
254.3201	0.1744
254.5348	0.1786
254.7496	0.1813
254.9643	0.164
255.179	0.1714
255.3937	0.17
255.6083	0.1582
255.823	0.1741
256.0377	0.1633
256.2523	0.1767
256.467	0.1444
256.6816	0.1712
256.8962	0.1697
257.1108	0.1535
257.3254	0.1641
257.54	0.1617
257.7545	0.1626
257.9691	0.1639
258.1836	0.1559
258.3981	0.1755
258.6127	0.1729
258.8272	0.1587
259.0417	0.1611
259.2561	0.1662
259.4706	0.1605
259.6851	0.1747
259.8995	0.1703
260.114	0.1683
260.3284	0.1502
260.5428	0.1557
260.7572	0.1646
260.9716	0.1558
261.186	0.1531
261.4003	0.166
261.6147	0.1664
261.829	0.1806
262.0433	0.1694
262.2577	0.1607
262.472	0.1643
262.6863	0.1566
262.9005	0.1598
263.1148	0.1632
263.3291	0.1465
263.5433	0.17
263.7576	0.1654
263.9718	0.1775
264.186	0.1558
264.4002	0.1575
264.6144	0.1561
264.8286	0.1621
265.0427	0.142
265.2569	0.1637
265.471	0.146
265.6851	0.1443
265.8993	0.1579
266.1134	0.1509
266.3275	0.1649
266.5415	0.1495
266.7556	0.1634
266.9697	0.1565
267.1837	0.1645
267.3978	0.1632
267.6118	0.1749
267.8258	0.1693
268.0398	0.1438
268.2538	0.1641
268.4677	0.1483
268.6817	0.145
268.8957	0.1452
269.1096	0.1589
269.3235	0.1614
269.5374	0.1462
269.7514	0.1358
269.9652	0.1426
270.1791	0.1286
270.393	0.136
270.6068	0.1505
270.8207	0.1405
271.0345	0.1422
271.2483	0.1466
271.4622	0.141
271.676	0.1562
271.8897	0.1267
272.1035	0.1368
272.3173	0.136
272.531	0.1332
272.7448	0.1345
272.9585	0.1282
273.1722	0.1414
273.3859	0.1444
273.5996	0.1184
273.8133	0.135
274.0269	0.1385
274.2406	0.1379
274.4542	0.1406
274.6679	0.118
274.8815	0.1318
275.0951	0.1433
275.3087	0.15
275.5223	0.1354
275.7358	0.1273
275.9494	0.1351
276.1629	0.1341
276.3765	0.1307
276.59	0.1344
276.8035	0.1393
277.017	0.1279
277.2305	0.1301
277.444	0.135
277.6574	0.1464
277.8709	0.1327
278.0843	0.1334
278.2978	0.1342
278.5112	0.1222
278.7246	0.1376
278.938	0.1457
279.1513	0.1313
279.3647	0.1576
279.5781	0.1312
279.7914	0.1414
280.0047	0.1547
280.2181	0.1472
280.4314	0.1419
280.6447	0.146
280.8579	0.1369
281.0712	0.148
281.2845	0.1387
281.4977	0.1435
281.711	0.1397
281.9242	0.1391
282.1374	0.1397
282.3506	0.1419
282.5638	0.1525
282.7769	0.1478
282.9901	0.1446
283.2033	0.1528
283.4164	0.1568
283.6295	0.1414
283.8426	0.1419
284.0557	0.1608
284.2688	0.1447
284.4819	0.1515
284.695	0.1412
284.908	0.1591
285.1211	0.1319
285.3341	0.1533
285.5471	0.1641
285.7601	0.1408
285.9731	0.1515
286.1861	0.1449
286.3991	0.1608
286.612	0.1651
286.825	0.1548
287.0379	0.1534
287.2508	0.1571
287.4637	0.1652
287.6766	0.157
287.8895	0.1702
288.1024	0.1736
288.3152	0.1692
288.5281	0.1462
288.7409	0.1601
288.9538	0.1631
289.1666	0.1574
289.3794	0.1599
289.5922	0.1503
289.8049	0.1656
290.0177	0.154
290.2304	0.1636
290.4432	0.1718
290.6559	0.1605
290.8686	0.1645
291.0813	0.1606
291.294	0.1726
291.5067	0.1718
291.7194	0.1583
291.932	0.1682
292.1447	0.1655
292.3573	0.1625
292.5699	0.1649
292.7825	0.1708
292.9951	0.1677
293.2077	0.1747
293.4203	0.1656
293.6328	0.1547
293.8454	0.1654
294.0579	0.1683
294.2704	0.1619
294.4829	0.1571
294.6954	0.1713
294.9079	0.1685
295.1204	0.1615
295.3328	0.1676
295.5453	0.1619
295.7577	0.1685
295.9701	0.1519
296.1825	0.1742
296.3949	0.1587
296.6073	0.1709
296.8197	0.1576
297.0321	0.1821
297.2444	0.1513
297.4567	0.1632
297.6691	0.166
297.8814	0.1605
298.0937	0.1627
298.306	0.1656
298.5182	0.1638
298.7305	0.1771
298.9428	0.1547
299.155	0.1717
299.3672	0.1682
299.5794	0.141
299.7916	0.1641
300.0038	0.1666
300.216	0.1754
300.4282	0.1637
300.6403	0.1552
300.8525	0.1773
301.0646	0.1612
301.2767	0.1621
301.4888	0.1666
301.7009	0.1685
301.913	0.1638
302.125	0.1675
302.3371	0.159
302.5491	0.1735
302.7612	0.1668
302.9732	0.1728
303.1852	0.1675
303.3972	0.1581
303.6092	0.1567
303.8211	0.1557
304.0331	0.1526
304.245	0.1559
304.457	0.1471
304.6689	0.1595
304.8808	0.1607
305.0927	0.1503
305.3046	0.1479
305.5164	0.161
305.7283	0.1437
305.9401	0.1509
306.152	0.1481
306.3638	0.1549
306.5756	0.1376
306.7874	0.1371
306.9992	0.1498
307.2109	0.1396
307.4227	0.1277
307.6344	0.1345
307.8462	0.1381
308.0579	0.1306
308.2696	0.1355
308.4813	0.1312
308.693	0.1238
308.9046	0.1316
309.1163	0.124
309.328	0.1108
309.5396	0.1193
309.7512	0.1105
309.9628	0.1224
310.1744	0.1163
310.386	0.1124
310.5976	0.1005
310.8091	0.1156
311.0207	0.1223
311.2322	0.1104
311.4437	0.1043
311.6552	0.102
311.8667	0.1073
312.0782	0.1
312.2897	0.104
312.5012	0.1018
312.7126	0.1074
312.924	0.0951
313.1355	0.1071
313.3469	0.107
313.5583	0.107
313.7696	0.0975
313.981	0.0935
314.1924	0.0958
314.4037	0.0955
314.6151	0.1013
314.8264	0.0949
315.0377	0.086
315.249	0.0965
315.4603	0.1046
315.6716	0.1016
315.8828	0.0871
316.0941	0.1032
316.3053	0.0968
316.5165	0.0934
316.7277	0.0815
316.9389	0.0933
317.1501	0.0919
317.3613	0.1011
317.5724	0.0803
317.7836	0.1017
317.9947	0.092
318.2058	0.0961
318.417	0.0875
318.6281	0.0731
318.8391	0.0799
319.0502	0.0909
319.2613	0.1001
319.4723	0.0945
319.6834	0.1051
319.8944	0.088
320.1054	0.0999
320.3164	0.093
320.5274	0.086
320.7383	0.084
320.9493	0.0957
321.1602	0.0979
321.3712	0.0768
321.5821	0.0977
321.793	0.084
322.0039	0.094
322.2148	0.0827
322.4257	0.0919
322.6365	0.1035
322.8474	0.0906
323.0582	0.0848
323.269	0.0863
323.4798	0.1008
323.6906	0.0855
323.9014	0.0934
324.1122	0.097
324.3229	0.0916
324.5337	0.0999
324.7444	0.0882
324.9551	0.104
325.1658	0.0993
325.3765	0.1026
325.5872	0.0976
325.7979	0.0887
326.0085	0.1011
326.2192	0.1011
326.4298	0.1023
326.6404	0.0895
326.851	0.0793
327.0616	0.0965
327.2722	0.1004
327.4828	0.1003
327.6933	0.0965
327.9039	0.099
328.1144	0.1092
328.3249	0.0989
328.5354	0.0803
328.7459	0.0891
328.9564	0.0945
329.1669	0.0883
329.3773	0.0886
329.5878	0.1042
329.7982	0.0989
330.0086	0.1012
330.219	0.1002
330.4294	0.0988
330.6398	0.0989
330.8502	0.1006
331.0605	0.0932
331.2708	0.0886
331.4812	0.1006
331.6915	0.0989
331.9018	0.0945
332.1121	0.0971
332.3224	0.1012
332.5326	0.1001
332.7429	0.106
332.9531	0.1182
333.1633	0.1079
333.3735	0.0965
333.5837	0.1005
333.7939	0.1014
334.0041	0.1187
334.2143	0.1091
334.4244	0.0956
334.6346	0.0868
334.8447	0.1192
335.0548	0.0917
335.2649	0.089
335.475	0.1098
335.685	0.0941
335.8951	0.103
336.1051	0.0975
336.3152	0.109
336.5252	0.0982
336.7352	0.1054
336.9452	0.1047
337.1552	0.1055
337.3652	0.0986
337.5751	0.1024
337.7851	0.102
337.995	0.0901
338.2049	0.1149
338.4148	0.1064
338.6247	0.1058
338.8346	0.0927
339.0445	0.1024
339.2543	0.093
339.4642	0.1115
339.674	0.0942
339.8838	0.1056
340.0936	0.1089
340.3034	0.1118
340.5132	0.106
340.7229	0.1081
340.9327	0.1104
341.1424	0.1148
341.3522	0.1257
341.5619	0.1148
341.7716	0.114
341.9813	0.1081
342.1909	0.1058
342.4006	0.1222
342.6102	0.1139
342.8199	0.1099
343.0295	0.118
343.2391	0.1252
343.4487	0.1244
343.6583	0.1144
343.8679	0.1172
344.0774	0.1228
344.287	0.1273
344.4965	0.1245
344.706	0.1224
344.9155	0.1138
345.125	0.1276
345.3345	0.1162
345.544	0.1282
345.7534	0.1163
345.9629	0.1209
346.1723	0.1226
346.3817	0.111
346.5911	0.1192
346.8005	0.1371
347.0099	0.1061
347.2193	0.1356
347.4286	0.1306
347.638	0.1304
347.8473	0.1285
348.0566	0.125
348.2659	0.1377
348.4752	0.1194
348.6845	0.1165
348.8937	0.1297
349.103	0.1508
349.3122	0.1306
349.5214	0.123
349.7306	0.1354
349.9398	0.1376
350.149	0.132
350.3582	0.1326
350.5674	0.1555
350.7765	0.1332
350.9856	0.1385
351.1948	0.1363
351.4039	0.1226
351.613	0.1301
351.822	0.139
352.0311	0.1347
352.2402	0.1401
352.4492	0.1573
352.6582	0.1494
352.8672	0.1262
353.0762	0.1485
353.2852	0.1434
353.4942	0.1437
353.7032	0.1457
353.9121	0.1489
354.1211	0.1458
354.33	0.1467
354.5389	0.1369
354.7478	0.1446
354.9567	0.1393
355.1655	0.1281
355.3744	0.1471
355.5833	0.1431
355.7921	0.1615
356.0009	0.1544
356.2097	0.1512
356.4185	0.1678
356.6273	0.1656
356.8361	0.1548
357.0448	0.1503
357.2536	0.1386
357.4623	0.1575
357.671	0.1577
357.8797	0.1646
358.0884	0.163
358.2971	0.1639
358.5057	0.163
358.7144	0.1647
358.923	0.1627
359.1316	0.161
359.3402	0.1683
359.5488	0.1529
359.7574	0.1596
359.966	0.1829
360.1746	0.1651
360.3831	0.1816
360.5916	0.1648
360.8002	0.1549
361.0087	0.1901
361.2172	0.1811
361.4256	0.1767
361.6341	0.1959
361.8426	0.1715
362.051	0.1823
362.2594	0.1928
362.4678	0.1642
362.6762	0.1917
362.8846	0.1747
363.093	0.1729
363.3014	0.1834
363.5097	0.1682
363.718	0.1922
363.9264	0.1881
364.1347	0.1799
364.343	0.1853
364.5513	0.1916
364.7595	0.2104
364.9678	0.1956
365.176	0.1942
365.3842	0.2027
365.5925	0.1941
365.8007	0.1978
366.0089	0.187
366.217	0.1802
366.4252	0.2171
366.6333	0.2022
366.8415	0.1976
367.0496	0.1993
367.2577	0.2157
367.4658	0.2186
367.6739	0.221
367.882	0.204
368.09	0.1971
368.2981	0.2259
368.5061	0.2048
368.7141	0.2219
368.9221	0.2124
369.1301	0.2105
369.3381	0.2024
369.5461	0.2245
369.754	0.2108
369.962	0.2294
370.1699	0.2187
370.3778	0.2059
370.5857	0.215
370.7936	0.2139
371.0015	0.2183
371.2093	0.2165
371.4172	0.2278
371.625	0.2141
371.8328	0.2124
372.0406	0.2234
372.2484	0.2324
372.4562	0.2296
372.664	0.2322
372.8717	0.2385
373.0795	0.2148
373.2872	0.2244
373.4949	0.2117
373.7026	0.2294
373.9103	0.2325
374.118	0.2267
374.3256	0.2255
374.5333	0.2238
374.7409	0.2276
374.9485	0.2473
375.1561	0.2431
375.3637	0.2531
375.5713	0.2416
375.7789	0.2389
375.9864	0.237
376.194	0.2366
376.4015	0.2551
376.609	0.2513
376.8165	0.2365
377.024	0.2435
377.2315	0.2397
377.4389	0.2513
377.6464	0.251
377.8538	0.2561
378.0612	0.2453
378.2686	0.2471
378.476	0.2712
378.6834	0.2631
378.8908	0.2493
379.0981	0.2552
379.3055	0.2529
379.5128	0.2546
379.7201	0.2627
379.9274	0.2413
380.1347	0.2571
380.342	0.2651
380.5492	0.2371
380.7565	0.2631
380.9637	0.2511
381.1709	0.2641
381.3781	0.2512
381.5853	0.2599
381.7925	0.2648
381.9997	0.2663
382.2068	0.263
382.4139	0.2596
382.6211	0.2666
382.8282	0.2617
383.0353	0.2625
383.2424	0.2577
383.4494	0.2693
383.6565	0.2524
383.8635	0.2695
384.0706	0.2578
384.2776	0.277
384.4846	0.2685
384.6916	0.2482
384.8986	0.2672
385.1055	0.2723
385.3125	0.2571
385.5194	0.25
385.7263	0.2785
385.9333	0.2616
386.1402	0.2567
386.347	0.2461
386.5539	0.2645
386.7608	0.2798
386.9676	0.2593
387.1744	0.2673
387.3813	0.2404
387.5881	0.2768
387.7948	0.2508
388.0016	0.2604
388.2084	0.2519
388.4151	0.2663
388.6219	0.2664
388.8286	0.2658
389.0353	0.2839
389.242	0.2706
389.4487	0.2682
389.6553	0.2506
389.862	0.2264
390.0686	0.2392
390.2753	0.2572
390.4819	0.2652
390.6885	0.2393
390.8951	0.2605
391.1016	0.2692
391.3082	0.2518
391.5147	0.2511
391.7213	0.2441
391.9278	0.2353
392.1343	0.2316
392.3408	0.2643
392.5473	0.2469
392.7537	0.2299
392.9602	0.2264
393.1666	0.236
393.373	0.2324
393.5794	0.2393
393.7858	0.2519
393.9922	0.2435
394.1986	0.2418
394.4049	0.2366
394.6113	0.2359
394.8176	0.2233
395.0239	0.2401
395.2302	0.2313
395.4365	0.2293
395.6428	0.2314
395.8491	0.218
396.0553	0.233
396.2615	0.2331
396.4678	0.2195
396.674	0.2428
396.8802	0.2251
397.0863	0.2331
397.2925	0.225
397.4987	0.2143
397.7048	0.2132
397.9109	0.2223
398.117	0.2119
398.3231	0.2036
398.5292	0.2284
398.7353	0.2355
398.9413	0.2202
399.1474	0.2293
399.3534	0.2275
399.5594	0.2163
399.7654	0.2375
399.9714	0.2289
400.1774	0.2354
400.3833	0.2223
400.5893	0.2327
400.7952	0.2195
401.0011	0.2109
401.207	0.2428
401.4129	0.225
401.6188	0.23
401.8247	0.2164
402.0305	0.209
402.2364	0.2212
402.4422	0.2284
402.648	0.2288
402.8538	0.2274
403.0596	0.2095
403.2654	0.236
403.4711	0.2273
403.6768	0.2378
403.8826	0.2303
404.0883	0.2313
404.294	0.2346
404.4997	0.2187
404.7054	0.2212
404.911	0.1977
405.1167	0.2147
405.3223	0.2299
405.5279	0.2279
405.7335	0.2203
405.9391	0.2208
406.1447	0.2205
406.3502	0.2318
406.5558	0.2181
406.7613	0.2278
406.9668	0.2357
407.1724	0.2171
407.3778	0.2182
407.5833	0.2179
407.7888	0.208
407.9942	0.2369
408.1997	0.221
408.4051	0.2112
408.6105	0.2198
408.8159	0.229
409.0213	0.2231
409.2267	0.229
409.432	0.2146
409.6374	0.2414
409.8427	0.2304
410.048	0.234
410.2533	0.2306
410.4586	0.2336
410.6639	0.2157
410.8691	0.2074
411.0744	0.206
411.2796	0.1955
411.4848	0.2235
411.69	0.2138
411.8952	0.2287
412.1004	0.2176
412.3056	0.2206
412.5107	0.2092
412.7158	0.2173
412.921	0.2204
413.1261	0.2161
413.3312	0.214
413.5362	0.2018
413.7413	0.2123
413.9464	0.2214
414.1514	0.232
414.3564	0.2017
414.5614	0.1935
414.7664	0.2241
414.9714	0.1964
415.1764	0.2102
415.3813	0.2352
415.5863	0.2061
415.7912	0.2179
415.9961	0.2092
416.201	0.2244
416.4059	0.199
416.6108	0.2239
416.8156	0.2082
417.0205	0.2145
417.2253	0.2125
417.4301	0.2163
417.6349	0.209
417.8397	0.2039
418.0445	0.2235
418.2492	0.2129
418.454	0.2071
418.6587	0.1967
418.8634	0.2119
419.0681	0.1979
419.2728	0.2028
419.4775	0.2119
419.6822	0.2196
419.8868	0.176
420.0915	0.2143
420.2961	0.1763
420.5007	0.1895
420.7053	0.2014
420.9099	0.1897
421.1144	0.2022
421.319	0.2022
421.5235	0.1999
421.728	0.1984
421.9325	0.2048
422.137	0.2163
422.3415	0.1944
422.546	0.2037
422.7504	0.1979
422.9549	0.2014
423.1593	0.1925
423.3637	0.2028
423.5681	0.2022
423.7725	0.1889
423.9769	0.1941
424.1812	0.1741
424.3856	0.1908
424.5899	0.197
424.7942	0.1962
424.9985	0.1789
425.2028	0.171
425.4071	0.193
425.6113	0.1619
425.8156	0.1967
426.0198	0.1863
426.224	0.1593
426.4282	0.1846
426.6324	0.1689
