Data from MonoPyChalIsomerACN10uM440nmA_Absorbance_15-27-17-394.txt Node
Date: Fri Jul 05 15:27:17 BST 2024
User: LASERRRRR
Spectrometer: FLMT03099
Trigger mode: 0
Integration Time (sec): 1.000000E-1
Scans to average: 1
Electric dark correction enabled: true
Nonlinearity correction enabled: false
Boxcar width: 0
XAxis mode: Wavelengths
Number of Pixels in Spectrum: 3648
>>>>>Begin Spectral Data<<<<<
179.3399	0.8101
179.5586	0.8101
179.7771	0.8101
179.9957	1.1737
180.2143	1.1083
180.4329	-0.4252
180.6514	-0
180.8699	0.2453
181.0885	-0.2657
181.307	0.4925
181.5255	-0
181.744	-0
181.9625	-0
182.181	-0.6185
182.3994	0.7328
182.6179	-0.1226
182.8363	0.6842
183.0547	0.0335
183.2732	-0.0112
183.4916	-0.0124
183.71	0.0547
183.9284	0.014
184.1467	-0.1294
184.3651	-0.0655
184.5835	0.3298
184.8018	-0.0267
185.0201	0.2259
185.2385	-0.0335
185.4568	0.0352
185.6751	-0.1614
185.8934	0.056
186.1117	-0.0455
186.3299	-0.0102
186.5482	-0.1094
186.7664	0.0733
186.9847	-0.0629
187.2029	-0.0488
187.4211	0.0509
187.6393	0.1294
187.8575	-0.1485
188.0757	0.1554
188.2939	-0.0572
188.512	0.0903
188.7302	-0.0274
188.9483	0.1523
189.1665	0.2034
189.3846	-0.0792
189.6027	0.2814
189.8208	0.2535
190.0389	-0.0767
190.257	0.1605
190.475	0.0999
190.6931	0.3215
190.9111	0.4523
191.1292	0.2079
191.3472	0.4032
191.5652	0.3465
191.7832	0.1859
192.0012	0.7872
192.2192	0.4286
192.4371	0.3416
192.6551	0.3448
192.873	0.3766
193.091	0.4297
193.3089	0.5444
193.5268	0.5925
193.7447	0.3657
193.9626	0.4373
194.1805	0.4349
194.3984	0.6129
194.6162	0.41
194.8341	0.5553
195.0519	0.5826
195.2697	0.6866
195.4875	0.7916
195.7054	0.5599
195.9231	0.4752
196.1409	0.5979
196.3587	0.6053
196.5765	0.64
196.7942	0.5318
197.012	0.5765
197.2297	0.7873
197.4474	0.6126
197.6651	0.6575
197.8828	0.6618
198.1005	0.5344
198.3182	0.5476
198.5358	0.7096
198.7535	0.5446
198.9711	0.557
199.1888	0.6895
199.4064	0.7013
199.624	0.6716
199.8416	0.6022
200.0592	0.7252
200.2767	0.5745
200.4943	0.6035
200.7119	0.8185
200.9294	0.6638
201.1469	0.5014
201.3645	0.5269
201.582	0.5934
201.7995	0.6155
202.017	0.5115
202.2344	0.6209
202.4519	0.8673
202.6694	0.6443
202.8868	0.6765
203.1042	0.6444
203.3217	0.6224
203.5391	0.7684
203.7565	0.582
203.9739	0.5574
204.1913	0.6642
204.4086	0.7526
204.626	0.7848
204.8433	0.694
205.0607	0.6953
205.278	0.6433
205.4953	0.6099
205.7126	0.6517
205.9299	0.7391
206.1472	0.6254
206.3644	0.6096
206.5817	0.7555
206.7989	0.7014
207.0162	0.6429
207.2334	0.6523
207.4506	0.6149
207.6678	0.6671
207.885	0.7076
208.1022	0.7328
208.3194	0.7076
208.5365	0.6272
208.7537	0.7207
208.9708	0.6331
209.1879	0.6028
209.405	0.6508
209.6222	0.7282
209.8392	0.6501
210.0563	0.6772
210.2734	0.6504
210.4905	0.6196
210.7075	0.64
210.9245	0.6181
211.1416	0.7142
211.3586	0.6034
211.5756	0.6118
211.7926	0.5813
212.0096	0.5729
212.2265	0.5613
212.4435	0.5925
212.6604	0.6066
212.8774	0.5583
213.0943	0.5513
213.3112	0.5256
213.5281	0.5038
213.745	0.5131
213.9619	0.5602
214.1788	0.4772
214.3956	0.4509
214.6125	0.4298
214.8293	0.4666
215.0461	0.4751
215.2629	0.4267
215.4798	0.4883
215.6965	0.4093
215.9133	0.426
216.1301	0.409
216.3469	0.4309
216.5636	0.3896
216.7803	0.4121
216.9971	0.4219
217.2138	0.3987
217.4305	0.3692
217.6472	0.37
217.8639	0.3639
218.0805	0.3672
218.2972	0.3514
218.5138	0.3058
218.7305	0.3032
218.9471	0.3069
219.1637	0.2646
219.3803	0.2745
219.5969	0.2831
219.8135	0.255
220.0301	0.2734
220.2466	0.2757
220.4632	0.2368
220.6797	0.221
220.8962	0.2427
221.1127	0.2552
221.3292	0.2468
221.5457	0.2254
221.7622	0.2318
221.9787	0.2435
222.1951	0.2389
222.4116	0.2553
222.628	0.2421
222.8444	0.2643
223.0608	0.2477
223.2772	0.2434
223.4936	0.244
223.71	0.2329
223.9264	0.2551
224.1427	0.2542
224.3591	0.2442
224.5754	0.2603
224.7917	0.2689
225.008	0.2552
225.2243	0.2562
225.4406	0.2895
225.6569	0.2631
225.8732	0.2614
226.0894	0.256
226.3057	0.2614
226.5219	0.2691
226.7381	0.2546
226.9543	0.2624
227.1705	0.281
227.3867	0.2884
227.6029	0.293
227.8191	0.288
228.0352	0.2856
228.2513	0.2959
228.4675	0.2993
228.6836	0.288
228.8997	0.309
229.1158	0.29
229.3319	0.305
229.548	0.3032
229.764	0.3114
229.9801	0.3117
230.1961	0.3098
230.4121	0.3302
230.6282	0.3314
230.8442	0.3329
231.0602	0.3314
231.2761	0.3405
231.4921	0.3324
231.7081	0.3548
231.924	0.3455
232.14	0.3568
232.3559	0.3154
232.5718	0.3588
232.7877	0.3568
233.0036	0.3499
233.2195	0.3457
233.4353	0.3585
233.6512	0.3591
233.867	0.3691
234.0829	0.3451
234.2987	0.352
234.5145	0.3627
234.7303	0.3836
234.9461	0.3859
235.1619	0.3788
235.3776	0.3837
235.5934	0.3816
235.8091	0.3626
236.0249	0.3768
236.2406	0.3775
236.4563	0.365
236.672	0.3868
236.8877	0.3888
237.1034	0.3816
237.319	0.3915
237.5347	0.3701
237.7503	0.3946
237.966	0.4086
238.1816	0.3981
238.3972	0.3928
238.6128	0.3891
238.8284	0.3955
239.0439	0.3907
239.2595	0.4077
239.475	0.4047
239.6906	0.395
239.9061	0.3992
240.1216	0.3928
240.3371	0.408
240.5526	0.3892
240.7681	0.4007
240.9836	0.3822
241.199	0.396
241.4145	0.3884
241.6299	0.3831
241.8453	0.3915
242.0607	0.3816
242.2761	0.3649
242.4915	0.369
242.7069	0.3667
242.9223	0.3714
243.1376	0.3433
243.353	0.3431
243.5683	0.3611
243.7836	0.3288
243.9989	0.3332
244.2142	0.3089
244.4295	0.3166
244.6448	0.3233
244.86	0.2942
245.0753	0.2875
245.2905	0.2906
245.5057	0.2747
245.721	0.2807
245.9362	0.2731
246.1514	0.2721
246.3665	0.2663
246.5817	0.2482
246.7969	0.2544
247.012	0.2438
247.2271	0.2402
247.4423	0.2396
247.6574	0.2505
247.8725	0.2389
248.0876	0.2296
248.3026	0.2391
248.5177	0.2151
248.7328	0.2095
248.9478	0.219
249.1628	0.2186
249.3779	0.2247
249.5929	0.2002
249.8079	0.2181
250.0228	0.1997
250.2378	0.2038
250.4528	0.2127
250.6677	0.1823
250.8827	0.1975
251.0976	0.1984
251.3125	0.198
251.5274	0.1639
251.7423	0.1801
251.9572	0.1983
252.172	0.1834
252.3869	0.1904
252.6017	0.1759
252.8166	0.163
253.0314	0.1656
253.2462	0.1626
253.461	0.185
253.6758	0.1665
253.8906	0.1788
254.1053	0.174
254.3201	0.1657
254.5348	0.1726
254.7496	0.1816
254.9643	0.1771
255.179	0.165
255.3937	0.1601
255.6083	0.1816
255.823	0.1831
256.0377	0.1648
256.2523	0.1591
256.467	0.1499
256.6816	0.1783
256.8962	0.1655
257.1108	0.1494
257.3254	0.1771
257.54	0.1617
257.7545	0.1653
257.9691	0.1673
258.1836	0.1653
258.3981	0.1669
258.6127	0.1657
258.8272	0.1619
259.0417	0.163
259.2561	0.142
259.4706	0.1617
259.6851	0.1673
259.8995	0.1639
260.114	0.1576
260.3284	0.1615
260.5428	0.1523
260.7572	0.163
260.9716	0.1814
261.186	0.1638
261.4003	0.154
261.6147	0.1621
261.829	0.1585
262.0433	0.1678
262.2577	0.1606
262.472	0.1744
262.6863	0.1597
262.9005	0.1644
263.1148	0.1625
263.3291	0.1489
263.5433	0.1665
263.7576	0.1644
263.9718	0.1604
264.186	0.1565
264.4002	0.1648
264.6144	0.1617
264.8286	0.1705
265.0427	0.1548
265.2569	0.1588
265.471	0.149
265.6851	0.1524
265.8993	0.1597
266.1134	0.1617
266.3275	0.167
266.5415	0.1513
266.7556	0.1689
266.9697	0.1618
267.1837	0.1574
267.3978	0.1615
267.6118	0.1753
267.8258	0.1839
268.0398	0.1638
268.2538	0.1734
268.4677	0.1668
268.6817	0.1687
268.8957	0.1678
269.1096	0.1623
269.3235	0.1654
269.5374	0.1461
269.7514	0.1487
269.9652	0.1502
270.1791	0.1571
270.393	0.1463
270.6068	0.1596
270.8207	0.1453
271.0345	0.1386
271.2483	0.1598
271.4622	0.1455
271.676	0.1481
271.8897	0.1398
272.1035	0.1468
272.3173	0.141
272.531	0.1498
272.7448	0.1412
272.9585	0.1486
273.1722	0.1449
273.3859	0.1422
273.5996	0.1493
273.8133	0.1506
274.0269	0.1484
274.2406	0.131
274.4542	0.1458
274.6679	0.1373
274.8815	0.1506
275.0951	0.1445
275.3087	0.1615
275.5223	0.158
275.7358	0.1627
275.9494	0.1506
276.1629	0.1398
276.3765	0.1496
276.59	0.1384
276.8035	0.1567
277.017	0.1462
277.2305	0.1477
277.444	0.1543
277.6574	0.1505
277.8709	0.1429
278.0843	0.1534
278.2978	0.1493
278.5112	0.1487
278.7246	0.1483
278.938	0.1498
279.1513	0.1495
279.3647	0.1584
279.5781	0.146
279.7914	0.1616
280.0047	0.1665
280.2181	0.1557
280.4314	0.1515
280.6447	0.1616
280.8579	0.1573
281.0712	0.155
281.2845	0.1546
281.4977	0.1623
281.711	0.1532
281.9242	0.1673
282.1374	0.1642
282.3506	0.1534
282.5638	0.163
282.7769	0.155
282.9901	0.1588
283.2033	0.1573
283.4164	0.1627
283.6295	0.1503
283.8426	0.1499
284.0557	0.1577
284.2688	0.164
284.4819	0.1605
284.695	0.1434
284.908	0.1513
285.1211	0.1576
285.3341	0.157
285.5471	0.167
285.7601	0.1543
285.9731	0.1474
286.1861	0.1461
286.3991	0.1592
286.612	0.1713
286.825	0.153
287.0379	0.1634
287.2508	0.1575
287.4637	0.1578
287.6766	0.1549
287.8895	0.1779
288.1024	0.1719
288.3152	0.171
288.5281	0.161
288.7409	0.1646
288.9538	0.1549
289.1666	0.1581
289.3794	0.1468
289.5922	0.1629
289.8049	0.1594
290.0177	0.1475
290.2304	0.1621
290.4432	0.1495
290.6559	0.1556
290.8686	0.1584
291.0813	0.1605
291.294	0.1621
291.5067	0.1521
291.7194	0.163
291.932	0.1733
292.1447	0.1542
292.3573	0.1487
292.5699	0.1615
292.7825	0.1551
292.9951	0.1557
293.2077	0.1655
293.4203	0.1517
293.6328	0.1499
293.8454	0.1681
294.0579	0.1639
294.2704	0.1629
294.4829	0.1507
294.6954	0.1549
294.9079	0.1597
295.1204	0.1618
295.3328	0.1536
295.5453	0.1578
295.7577	0.1575
295.9701	0.1504
296.1825	0.1524
296.3949	0.1464
296.6073	0.1391
296.8197	0.1403
297.0321	0.1727
297.2444	0.1492
297.4567	0.1591
297.6691	0.1459
297.8814	0.1477
298.0937	0.1567
298.306	0.1614
298.5182	0.1577
298.7305	0.1548
298.9428	0.1508
299.155	0.1617
299.3672	0.1543
299.5794	0.1463
299.7916	0.1537
300.0038	0.156
300.216	0.1584
300.4282	0.1635
300.6403	0.1474
300.8525	0.1536
301.0646	0.1491
301.2767	0.1551
301.4888	0.1528
301.7009	0.1552
301.913	0.1499
302.125	0.1555
302.3371	0.1567
302.5491	0.1503
302.7612	0.1618
302.9732	0.156
303.1852	0.16
303.3972	0.1512
303.6092	0.1534
303.8211	0.1345
304.0331	0.1473
304.245	0.1445
304.457	0.143
304.6689	0.159
304.8808	0.1558
305.0927	0.1447
305.3046	0.1452
305.5164	0.1493
305.7283	0.1311
305.9401	0.1473
306.152	0.1405
306.3638	0.1539
306.5756	0.1252
306.7874	0.1402
306.9992	0.1416
307.2109	0.136
307.4227	0.1327
307.6344	0.1346
307.8462	0.127
308.0579	0.1312
308.2696	0.1347
308.4813	0.1254
308.693	0.1243
308.9046	0.1266
309.1163	0.1312
309.328	0.1215
309.5396	0.1175
309.7512	0.1182
309.9628	0.1147
310.1744	0.117
310.386	0.1277
310.5976	0.116
310.8091	0.1182
311.0207	0.119
311.2322	0.1116
311.4437	0.1059
311.6552	0.1121
311.8667	0.1137
312.0782	0.0961
312.2897	0.0965
312.5012	0.1137
312.7126	0.1025
312.924	0.1098
313.1355	0.1122
313.3469	0.1086
313.5583	0.1039
313.7696	0.109
313.981	0.0987
314.1924	0.116
314.4037	0.0996
314.6151	0.1055
314.8264	0.0998
315.0377	0.0907
315.249	0.0989
315.4603	0.1155
315.6716	0.1007
315.8828	0.0968
316.0941	0.094
316.3053	0.1018
316.5165	0.093
316.7277	0.092
316.9389	0.1098
317.1501	0.0978
317.3613	0.1072
317.5724	0.0879
317.7836	0.0973
317.9947	0.0928
318.2058	0.0931
318.417	0.0866
318.6281	0.0984
318.8391	0.0997
319.0502	0.0956
319.2613	0.0987
319.4723	0.1013
319.6834	0.1036
319.8944	0.0881
320.1054	0.1051
320.3164	0.0951
320.5274	0.0875
320.7383	0.0918
320.9493	0.1028
321.1602	0.1054
321.3712	0.0906
321.5821	0.1046
321.793	0.1012
322.0039	0.1002
322.2148	0.099
322.4257	0.1013
322.6365	0.102
322.8474	0.1035
323.0582	0.1021
323.269	0.099
323.4798	0.1065
323.6906	0.1009
323.9014	0.0971
324.1122	0.1096
324.3229	0.0967
324.5337	0.1076
324.7444	0.0965
324.9551	0.1112
325.1658	0.1117
325.3765	0.1058
325.5872	0.096
325.7979	0.0928
326.0085	0.1152
326.2192	0.103
326.4298	0.1074
326.6404	0.0971
326.851	0.1063
327.0616	0.0943
327.2722	0.1079
327.4828	0.1112
327.6933	0.1028
327.9039	0.1064
328.1144	0.1111
328.3249	0.1076
328.5354	0.0918
328.7459	0.1114
328.9564	0.0992
329.1669	0.1038
329.3773	0.1011
329.5878	0.1081
329.7982	0.1051
330.0086	0.1083
330.219	0.1024
330.4294	0.1066
330.6398	0.1057
330.8502	0.1022
331.0605	0.1098
331.2708	0.0994
331.4812	0.118
331.6915	0.1017
331.9018	0.1116
332.1121	0.0958
332.3224	0.1017
332.5326	0.0984
332.7429	0.0946
332.9531	0.1178
333.1633	0.1106
333.3735	0.1145
333.5837	0.1009
333.7939	0.1055
334.0041	0.1182
334.2143	0.1163
334.4244	0.1079
334.6346	0.1029
334.8447	0.1199
335.0548	0.1008
335.2649	0.0846
335.475	0.1128
335.685	0.1027
335.8951	0.1231
336.1051	0.12
336.3152	0.1114
336.5252	0.1148
336.7352	0.1205
336.9452	0.1161
337.1552	0.1053
337.3652	0.112
337.5751	0.1152
337.7851	0.1191
337.995	0.1066
338.2049	0.1217
338.4148	0.1076
338.6247	0.1155
338.8346	0.1043
339.0445	0.1073
339.2543	0.1086
339.4642	0.1139
339.674	0.1067
339.8838	0.1146
340.0936	0.1231
340.3034	0.1313
340.5132	0.1305
340.7229	0.1143
340.9327	0.1179
341.1424	0.1173
341.3522	0.1324
341.5619	0.1274
341.7716	0.1123
341.9813	0.1198
342.1909	0.1193
342.4006	0.1279
342.6102	0.126
342.8199	0.1279
343.0295	0.1323
343.2391	0.1266
343.4487	0.1303
343.6583	0.1311
343.8679	0.1265
344.0774	0.1317
344.287	0.1347
344.4965	0.1255
344.706	0.1395
344.9155	0.1231
345.125	0.1178
345.3345	0.1297
345.544	0.1259
345.7534	0.1249
345.9629	0.136
346.1723	0.131
346.3817	0.1231
346.5911	0.1251
346.8005	0.137
347.0099	0.1286
347.2193	0.1376
347.4286	0.1312
347.638	0.1428
347.8473	0.1352
348.0566	0.1431
348.2659	0.1337
348.4752	0.1334
348.6845	0.1282
348.8937	0.1401
349.103	0.1513
349.3122	0.1293
349.5214	0.1377
349.7306	0.1322
349.9398	0.1229
350.149	0.1432
350.3582	0.1317
350.5674	0.1441
350.7765	0.1542
350.9856	0.1442
351.1948	0.1387
351.4039	0.1258
351.613	0.1324
351.822	0.1432
352.0311	0.1549
352.2402	0.1434
352.4492	0.1449
352.6582	0.1571
352.8672	0.1386
353.0762	0.15
353.2852	0.1357
353.4942	0.1415
353.7032	0.1491
353.9121	0.1452
354.1211	0.1519
354.33	0.1517
354.5389	0.1479
354.7478	0.145
354.9567	0.1547
355.1655	0.1369
355.3744	0.1497
355.5833	0.1529
355.7921	0.1672
356.0009	0.166
356.2097	0.1613
356.4185	0.1585
356.6273	0.163
356.8361	0.1653
357.0448	0.1368
357.2536	0.15
357.4623	0.1513
357.671	0.1679
357.8797	0.1685
358.0884	0.1681
358.2971	0.1506
358.5057	0.1709
358.7144	0.1655
358.923	0.1578
359.1316	0.1539
359.3402	0.161
359.5488	0.1617
359.7574	0.1664
359.966	0.1655
360.1746	0.1698
360.3831	0.1751
360.5916	0.1529
360.8002	0.1512
361.0087	0.1803
361.2172	0.1818
361.4256	0.1617
361.6341	0.1834
361.8426	0.1805
362.051	0.166
362.2594	0.1764
362.4678	0.1872
362.6762	0.1972
362.8846	0.177
363.093	0.1835
363.3014	0.1808
363.5097	0.1737
363.718	0.1689
363.9264	0.1721
364.1347	0.1841
364.343	0.1877
364.5513	0.1957
364.7595	0.2044
364.9678	0.1878
365.176	0.1816
365.3842	0.1917
365.5925	0.1911
365.8007	0.2039
366.0089	0.1879
366.217	0.179
366.4252	0.192
366.6333	0.2089
366.8415	0.2058
367.0496	0.1746
367.2577	0.1922
367.4658	0.2069
367.6739	0.2107
367.882	0.1922
368.09	0.1962
368.2981	0.2086
368.5061	0.2045
368.7141	0.2157
368.9221	0.2031
369.1301	0.2157
369.3381	0.2026
369.5461	0.1934
369.754	0.2011
369.962	0.2152
370.1699	0.206
370.3778	0.217
370.5857	0.1931
370.7936	0.1952
371.0015	0.2092
371.2093	0.2263
371.4172	0.2038
371.625	0.1933
371.8328	0.2117
372.0406	0.2027
372.2484	0.2037
372.4562	0.2235
372.664	0.2169
372.8717	0.2141
373.0795	0.1995
373.2872	0.2191
373.4949	0.2206
373.7026	0.2188
373.9103	0.2147
374.118	0.2229
374.3256	0.21
374.5333	0.2197
374.7409	0.2075
374.9485	0.2249
375.1561	0.2214
375.3637	0.2272
375.5713	0.2359
375.7789	0.2232
375.9864	0.2198
376.194	0.221
376.4015	0.2296
376.609	0.238
376.8165	0.2263
377.024	0.2227
377.2315	0.2098
377.4389	0.2197
377.6464	0.2383
377.8538	0.2338
378.0612	0.2222
378.2686	0.2284
378.476	0.2409
378.6834	0.2312
378.8908	0.2321
379.0981	0.228
379.3055	0.2319
379.5128	0.2368
379.7201	0.2285
379.9274	0.2188
380.1347	0.2307
380.342	0.2479
380.5492	0.2139
380.7565	0.2307
380.9637	0.2419
381.1709	0.2398
381.3781	0.2277
381.5853	0.2417
381.7925	0.2449
381.9997	0.2485
382.2068	0.2393
382.4139	0.2362
382.6211	0.2242
382.8282	0.2406
383.0353	0.2445
383.2424	0.2403
383.4494	0.264
383.6565	0.2107
383.8635	0.2354
384.0706	0.2422
384.2776	0.2363
384.4846	0.2264
384.6916	0.2282
384.8986	0.2382
385.1055	0.2425
385.3125	0.2353
385.5194	0.2173
385.7263	0.2593
385.9333	0.2403
386.1402	0.2365
386.347	0.238
386.5539	0.2276
386.7608	0.2472
386.9676	0.2212
387.1744	0.2523
387.3813	0.239
387.5881	0.2271
387.7948	0.241
388.0016	0.2282
388.2084	0.2361
388.4151	0.23
388.6219	0.2381
388.8286	0.2233
389.0353	0.2525
389.242	0.2453
389.4487	0.2308
389.6553	0.2198
389.862	0.2206
390.0686	0.2233
390.2753	0.229
390.4819	0.215
390.6885	0.2366
390.8951	0.2148
391.1016	0.221
391.3082	0.2246
391.5147	0.2142
391.7213	0.2162
391.9278	0.2191
392.1343	0.2297
392.3408	0.2237
392.5473	0.2226
392.7537	0.2052
392.9602	0.2067
393.1666	0.2043
393.373	0.2198
393.5794	0.2075
393.7858	0.2056
393.9922	0.1862
394.1986	0.2125
394.4049	0.2161
394.6113	0.2059
394.8176	0.207
395.0239	0.21
395.2302	0.1959
395.4365	0.2002
395.6428	0.2143
395.8491	0.1907
396.0553	0.2079
396.2615	0.1899
396.4678	0.1995
396.674	0.1951
396.8802	0.1982
397.0863	0.2217
397.2925	0.1995
397.4987	0.1959
397.7048	0.2044
397.9109	0.1977
398.117	0.1901
398.3231	0.1936
398.5292	0.2058
398.7353	0.2123
398.9413	0.1968
399.1474	0.1877
399.3534	0.1903
399.5594	0.1872
399.7654	0.21
399.9714	0.202
400.1774	0.2036
400.3833	0.1731
400.5893	0.1971
400.7952	0.2033
401.0011	0.1877
401.207	0.195
401.4129	0.2002
401.6188	0.2036
401.8247	0.1892
402.0305	0.1758
402.2364	0.2107
402.4422	0.197
402.648	0.1983
402.8538	0.2186
403.0596	0.195
403.2654	0.2046
403.4711	0.191
403.6768	0.1919
403.8826	0.2051
404.0883	0.2043
404.294	0.2171
404.4997	0.194
404.7054	0.1921
404.911	0.1896
405.1167	0.2084
405.3223	0.1832
405.5279	0.1959
405.7335	0.2113
405.9391	0.2065
406.1447	0.2001
406.3502	0.2318
406.5558	0.1804
406.7613	0.2093
406.9668	0.1913
407.1724	0.1765
407.3778	0.182
407.5833	0.1763
407.7888	0.1958
407.9942	0.2009
408.1997	0.1932
408.4051	0.1907
408.6105	0.1857
408.8159	0.1918
409.0213	0.1844
409.2267	0.1972
409.432	0.1864
409.6374	0.2117
409.8427	0.1975
410.048	0.1943
410.2533	0.1927
410.4586	0.1815
410.6639	0.1898
410.8691	0.1997
411.0744	0.1817
411.2796	0.1723
411.4848	0.1859
411.69	0.1757
411.8952	0.2149
412.1004	0.1828
412.3056	0.1901
412.5107	0.1902
412.7158	0.1985
412.921	0.1849
413.1261	0.1787
413.3312	0.1789
413.5362	0.1777
413.7413	0.1912
413.9464	0.1877
414.1514	0.1877
414.3564	0.1976
414.5614	0.1708
414.7664	0.1654
414.9714	0.1831
415.1764	0.1953
415.3813	0.2179
415.5863	0.174
415.7912	0.177
415.9961	0.176
416.201	0.2066
416.4059	0.1953
416.6108	0.1747
416.8156	0.2026
417.0205	0.1846
417.2253	0.174
417.4301	0.1862
417.6349	0.17
417.8397	0.176
418.0445	0.1818
418.2492	0.1931
418.454	0.1778
418.6587	0.1654
418.8634	0.1968
419.0681	0.1636
419.2728	0.1748
419.4775	0.1638
419.6822	0.1749
419.8868	0.1657
420.0915	0.16
420.2961	0.1659
420.5007	0.1682
420.7053	0.1857
420.9099	0.186
421.1144	0.1715
421.319	0.1735
421.5235	0.1638
421.728	0.1742
421.9325	0.192
422.137	0.1638
422.3415	0.1517
422.546	0.176
422.7504	0.1591
422.9549	0.1657
423.1593	0.185
423.3637	0.189
423.5681	0.1764
423.7725	0.144
423.9769	0.1574
424.1812	0.159
424.3856	0.1482
424.5899	0.1765
424.7942	0.1585
424.9985	0.1615
425.2028	0.1538
425.4071	0.174
425.6113	0.1453
425.8156	0.1594
426.0198	0.1729
426.224	0.1466
426.4282	0.1438
426.6324	0.138
