Data from MonoPyChalIsomerACN10uM440nmA_Absorbance_15-27-11-394.txt Node
Date: Fri Jul 05 15:27:11 BST 2024
User: LASERRRRR
Spectrometer: FLMT03099
Trigger mode: 0
Integration Time (sec): 1.000000E-1
Scans to average: 1
Electric dark correction enabled: true
Nonlinearity correction enabled: false
Boxcar width: 0
XAxis mode: Wavelengths
Number of Pixels in Spectrum: 3648
>>>>>Begin Spectral Data<<<<<
179.3399	-0.2032
179.5586	-0.2032
179.7771	-0.2032
179.9957	-0.006
180.2143	0.5965
180.4329	0.0073
180.6514	0.1931
180.8699	-0
181.0885	0.0086
181.307	0.5206
181.5255	-0.3287
181.744	-0
181.9625	-0
182.181	-0.6532
182.3994	0.6614
182.6179	-0.1069
182.8363	0.3185
183.0547	-0.2231
183.2732	0.0266
183.4916	0.1422
183.71	0.0787
183.9284	0.3403
184.1467	-0.1633
184.3651	-0.0766
184.5835	-0.0953
184.8018	-0.1704
185.0201	0.1887
185.2385	-0.008
185.4568	0.167
185.6751	0.1971
185.8934	0.581
186.1117	-0.0547
186.3299	0.1042
186.5482	0.3085
186.7664	-0.0519
186.9847	0.0065
187.2029	0.1126
187.4211	0.089
187.6393	0.5977
187.8575	-0.0374
188.0757	0.5258
188.2939	-0.0095
188.512	0.3402
188.7302	-0.1416
188.9483	0.0952
189.1665	-0.0197
189.3846	-0.3282
189.6027	0.1938
189.8208	0.0304
190.0389	0.2111
190.257	0.1531
190.475	0.1829
190.6931	0.3441
190.9111	0.4627
191.1292	0.1707
191.3472	0.4869
191.5652	0.4146
191.7832	0.2035
192.0012	0.4878
192.2192	0.4685
192.4371	0.5987
192.6551	0.479
192.873	0.4625
193.091	0.5188
193.3089	0.7309
193.5268	0.6496
193.7447	0.5517
193.9626	0.61
194.1805	0.6066
194.3984	0.8159
194.6162	0.4042
194.8341	0.6023
195.0519	0.4883
195.2697	0.6881
195.4875	0.6831
195.7054	0.6054
195.9231	0.4916
196.1409	0.6353
196.3587	0.4906
196.5765	0.7742
196.7942	0.6683
197.012	0.4816
197.2297	0.6286
197.4474	0.6582
197.6651	0.6503
197.8828	0.6592
198.1005	0.5383
198.3182	0.6056
198.5358	0.8488
198.7535	0.5884
198.9711	0.5988
199.1888	0.6576
199.4064	0.7209
199.624	0.559
199.8416	0.6116
200.0592	0.6753
200.2767	0.8017
200.4943	0.6363
200.7119	0.7318
200.9294	0.6986
201.1469	0.6109
201.3645	0.5993
201.582	0.5517
201.7995	0.659
202.017	0.8457
202.2344	0.6725
202.4519	0.7177
202.6694	0.7094
202.8868	0.575
203.1042	0.7323
203.3217	0.6425
203.5391	0.6506
203.7565	0.6021
203.9739	0.7431
204.1913	0.5525
204.4086	0.7259
204.626	0.7448
204.8433	0.5953
205.0607	0.6843
205.278	0.6967
205.4953	0.6406
205.7126	0.6563
205.9299	0.785
206.1472	0.6806
206.3644	0.7206
206.5817	0.6809
206.7989	0.7204
207.0162	0.698
207.2334	0.7032
207.4506	0.6547
207.6678	0.6278
207.885	0.7228
208.1022	0.685
208.3194	0.6554
208.5365	0.6711
208.7537	0.6673
208.9708	0.6335
209.1879	0.6393
209.405	0.7129
209.6222	0.6925
209.8392	0.6648
210.0563	0.6949
210.2734	0.6477
210.4905	0.6439
210.7075	0.6084
210.9245	0.6085
211.1416	0.6644
211.3586	0.5924
211.5756	0.6096
211.7926	0.6161
212.0096	0.6106
212.2265	0.5736
212.4435	0.6153
212.6604	0.6242
212.8774	0.6036
213.0943	0.5991
213.3112	0.6048
213.5281	0.5506
213.745	0.525
213.9619	0.5667
214.1788	0.4685
214.3956	0.4612
214.6125	0.4931
214.8293	0.4123
215.0461	0.492
215.2629	0.4681
215.4798	0.4914
215.6965	0.4389
215.9133	0.4521
216.1301	0.438
216.3469	0.4507
216.5636	0.4408
216.7803	0.4067
216.9971	0.4632
217.2138	0.3929
217.4305	0.3808
217.6472	0.3569
217.8639	0.3891
218.0805	0.3282
218.2972	0.3263
218.5138	0.326
218.7305	0.3204
218.9471	0.3189
219.1637	0.3069
219.3803	0.2897
219.5969	0.2676
219.8135	0.2619
220.0301	0.2754
220.2466	0.2945
220.4632	0.2577
220.6797	0.223
220.8962	0.2324
221.1127	0.2608
221.3292	0.2353
221.5457	0.2626
221.7622	0.227
221.9787	0.2417
222.1951	0.2415
222.4116	0.2337
222.628	0.2413
222.8444	0.2488
223.0608	0.242
223.2772	0.2328
223.4936	0.259
223.71	0.246
223.9264	0.2426
224.1427	0.2441
224.3591	0.2473
224.5754	0.2574
224.7917	0.2769
225.008	0.2782
225.2243	0.2404
225.4406	0.2851
225.6569	0.2617
225.8732	0.2864
226.0894	0.246
226.3057	0.2635
226.5219	0.2975
226.7381	0.2781
226.9543	0.2918
227.1705	0.2811
227.3867	0.2755
227.6029	0.2866
227.8191	0.294
228.0352	0.3088
228.2513	0.3398
228.4675	0.3051
228.6836	0.2942
228.8997	0.2953
229.1158	0.3151
229.3319	0.3087
229.548	0.3065
229.764	0.3073
229.9801	0.3215
230.1961	0.3156
230.4121	0.3359
230.6282	0.3411
230.8442	0.3136
231.0602	0.3545
231.2761	0.3357
231.4921	0.3369
231.7081	0.336
231.924	0.3469
232.14	0.384
232.3559	0.3598
232.5718	0.3743
232.7877	0.35
233.0036	0.3412
233.2195	0.3579
233.4353	0.3603
233.6512	0.3562
233.867	0.3662
234.0829	0.3446
234.2987	0.3608
234.5145	0.3716
234.7303	0.3705
234.9461	0.3879
235.1619	0.3776
235.3776	0.3749
235.5934	0.3745
235.8091	0.3664
236.0249	0.3944
236.2406	0.3662
236.4563	0.4033
236.672	0.4064
236.8877	0.3897
237.1034	0.3817
237.319	0.4036
237.5347	0.4109
237.7503	0.399
237.966	0.4164
238.1816	0.4143
238.3972	0.4183
238.6128	0.3974
238.8284	0.3925
239.0439	0.413
239.2595	0.3969
239.475	0.4183
239.6906	0.4156
239.9061	0.3968
240.1216	0.3951
240.3371	0.4005
240.5526	0.3875
240.7681	0.4112
240.9836	0.4
241.199	0.3913
241.4145	0.3798
241.6299	0.3723
241.8453	0.3766
242.0607	0.3875
242.2761	0.3654
242.4915	0.3411
242.7069	0.3588
242.9223	0.3391
243.1376	0.346
243.353	0.3469
243.5683	0.3549
243.7836	0.3234
243.9989	0.327
244.2142	0.2972
244.4295	0.2998
244.6448	0.3169
244.86	0.2974
245.0753	0.2764
245.2905	0.281
245.5057	0.2655
245.721	0.2655
245.9362	0.2601
246.1514	0.2663
246.3665	0.2416
246.5817	0.2582
246.7969	0.2408
247.012	0.2343
247.2271	0.231
247.4423	0.2423
247.6574	0.2334
247.8725	0.2263
248.0876	0.2185
248.3026	0.2254
248.5177	0.2149
248.7328	0.2072
248.9478	0.2016
249.1628	0.1973
249.3779	0.2115
249.5929	0.1822
249.8079	0.2103
250.0228	0.1963
250.2378	0.1988
250.4528	0.1912
250.6677	0.1816
250.8827	0.18
251.0976	0.1915
251.3125	0.179
251.5274	0.1687
251.7423	0.1792
251.9572	0.182
252.172	0.1744
252.3869	0.1808
252.6017	0.1823
252.8166	0.1596
253.0314	0.1738
253.2462	0.1646
253.461	0.179
253.6758	0.1637
253.8906	0.174
254.1053	0.1645
254.3201	0.1561
254.5348	0.1704
254.7496	0.1681
254.9643	0.1652
255.179	0.168
255.3937	0.1694
255.6083	0.1648
255.823	0.168
256.0377	0.1653
256.2523	0.1821
256.467	0.1569
256.6816	0.1714
256.8962	0.1757
257.1108	0.1445
257.3254	0.1698
257.54	0.1537
257.7545	0.1644
257.9691	0.1722
258.1836	0.1513
258.3981	0.1694
258.6127	0.1736
258.8272	0.1476
259.0417	0.1666
259.2561	0.1654
259.4706	0.1546
259.6851	0.1664
259.8995	0.1624
260.114	0.1615
260.3284	0.1651
260.5428	0.1537
260.7572	0.1669
260.9716	0.1674
261.186	0.1567
261.4003	0.1571
261.6147	0.1575
261.829	0.155
262.0433	0.1631
262.2577	0.1435
262.472	0.166
262.6863	0.1553
262.9005	0.1651
263.1148	0.1692
263.3291	0.1255
263.5433	0.1709
263.7576	0.167
263.9718	0.1558
264.186	0.158
264.4002	0.1666
264.6144	0.1582
264.8286	0.1669
265.0427	0.154
265.2569	0.1431
265.471	0.1553
265.6851	0.1349
265.8993	0.1568
266.1134	0.1573
266.3275	0.1506
266.5415	0.149
266.7556	0.164
266.9697	0.1547
267.1837	0.1643
267.3978	0.1505
267.6118	0.1566
267.8258	0.1651
268.0398	0.1472
268.2538	0.1621
268.4677	0.1551
268.6817	0.1535
268.8957	0.1618
269.1096	0.1474
269.3235	0.1693
269.5374	0.1504
269.7514	0.1522
269.9652	0.1493
270.1791	0.1485
270.393	0.1386
270.6068	0.1474
270.8207	0.1337
271.0345	0.1307
271.2483	0.1357
271.4622	0.1401
271.676	0.1392
271.8897	0.1255
272.1035	0.1292
272.3173	0.1416
272.531	0.1345
272.7448	0.1349
272.9585	0.1257
273.1722	0.1436
273.3859	0.1274
273.5996	0.1196
273.8133	0.1334
274.0269	0.1312
274.2406	0.1224
274.4542	0.134
274.6679	0.1271
274.8815	0.1273
275.0951	0.1389
275.3087	0.1437
275.5223	0.1473
275.7358	0.1265
275.9494	0.1337
276.1629	0.1162
276.3765	0.1327
276.59	0.1417
276.8035	0.132
277.017	0.1369
277.2305	0.1244
277.444	0.1444
277.6574	0.1292
277.8709	0.1388
278.0843	0.1295
278.2978	0.1302
278.5112	0.1438
278.7246	0.1421
278.938	0.1391
279.1513	0.1493
279.3647	0.1451
279.5781	0.1361
279.7914	0.1476
280.0047	0.1349
280.2181	0.1359
280.4314	0.1449
280.6447	0.1383
280.8579	0.1453
281.0712	0.1484
281.2845	0.1541
281.4977	0.1481
281.711	0.1353
281.9242	0.1421
282.1374	0.1595
282.3506	0.1396
282.5638	0.1527
282.7769	0.1402
282.9901	0.1437
283.2033	0.1486
283.4164	0.1419
283.6295	0.1408
283.8426	0.1483
284.0557	0.1396
284.2688	0.1651
284.4819	0.1581
284.695	0.1523
284.908	0.157
285.1211	0.1375
285.3341	0.1588
285.5471	0.1613
285.7601	0.1586
285.9731	0.1413
286.1861	0.1403
286.3991	0.1512
286.612	0.1623
286.825	0.1531
287.0379	0.1601
287.2508	0.1519
287.4637	0.158
287.6766	0.1473
287.8895	0.1598
288.1024	0.1628
288.3152	0.1667
288.5281	0.1554
288.7409	0.1645
288.9538	0.1634
289.1666	0.1673
289.3794	0.167
289.5922	0.1581
289.8049	0.1566
290.0177	0.1631
290.2304	0.1602
290.4432	0.1641
290.6559	0.1614
290.8686	0.1696
291.0813	0.1706
291.294	0.177
291.5067	0.1755
291.7194	0.1704
291.932	0.1773
292.1447	0.1671
292.3573	0.1609
292.5699	0.1726
292.7825	0.1629
292.9951	0.1491
293.2077	0.1632
293.4203	0.1661
293.6328	0.1484
293.8454	0.1812
294.0579	0.1674
294.2704	0.1689
294.4829	0.1568
294.6954	0.1696
294.9079	0.1568
295.1204	0.1694
295.3328	0.1638
295.5453	0.16
295.7577	0.1681
295.9701	0.1627
296.1825	0.152
296.3949	0.1653
296.6073	0.1589
296.8197	0.1571
297.0321	0.1807
297.2444	0.1506
297.4567	0.1669
297.6691	0.1705
297.8814	0.1543
298.0937	0.1595
298.306	0.1667
298.5182	0.1644
298.7305	0.1693
298.9428	0.1686
299.155	0.165
299.3672	0.1572
299.5794	0.1652
299.7916	0.1499
300.0038	0.1686
300.216	0.1615
300.4282	0.1627
300.6403	0.1548
300.8525	0.1653
301.0646	0.1594
301.2767	0.1649
301.4888	0.1648
301.7009	0.1682
301.913	0.159
302.125	0.1729
302.3371	0.164
302.5491	0.1696
302.7612	0.1699
302.9732	0.1687
303.1852	0.1719
303.3972	0.1558
303.6092	0.1665
303.8211	0.1549
304.0331	0.1555
304.245	0.1475
304.457	0.1534
304.6689	0.1548
304.8808	0.1781
305.0927	0.1507
305.3046	0.1507
305.5164	0.1599
305.7283	0.1513
305.9401	0.139
306.152	0.1438
306.3638	0.1548
306.5756	0.1535
306.7874	0.1406
306.9992	0.1483
307.2109	0.1426
307.4227	0.1282
307.6344	0.132
307.8462	0.1301
308.0579	0.1292
308.2696	0.131
308.4813	0.1334
308.693	0.1163
308.9046	0.1319
309.1163	0.131
309.328	0.1322
309.5396	0.1261
309.7512	0.1169
309.9628	0.1273
310.1744	0.1058
310.386	0.1255
310.5976	0.1219
310.8091	0.1105
311.0207	0.1185
311.2322	0.1125
311.4437	0.1098
311.6552	0.108
311.8667	0.1096
312.0782	0.0905
312.2897	0.0981
312.5012	0.1043
312.7126	0.1039
312.924	0.1003
313.1355	0.1116
313.3469	0.1072
313.5583	0.104
313.7696	0.1133
313.981	0.0919
314.1924	0.1089
314.4037	0.0995
314.6151	0.1051
314.8264	0.0945
315.0377	0.0978
315.249	0.1002
315.4603	0.1028
315.6716	0.0958
315.8828	0.0852
316.0941	0.0919
316.3053	0.0934
316.5165	0.0837
316.7277	0.086
316.9389	0.1039
317.1501	0.0895
317.3613	0.0983
317.5724	0.0803
317.7836	0.0887
317.9947	0.0858
318.2058	0.0868
318.417	0.085
318.6281	0.0856
318.8391	0.0867
319.0502	0.0857
319.2613	0.086
319.4723	0.0973
319.6834	0.0859
319.8944	0.0795
320.1054	0.0923
320.3164	0.0845
320.5274	0.0962
320.7383	0.0824
320.9493	0.0884
321.1602	0.0978
321.3712	0.0737
321.5821	0.0927
321.793	0.0917
322.0039	0.0881
322.2148	0.0878
322.4257	0.0856
322.6365	0.1009
322.8474	0.1028
323.0582	0.0875
323.269	0.0964
323.4798	0.1058
323.6906	0.0958
323.9014	0.0906
324.1122	0.0936
324.3229	0.0869
324.5337	0.0858
324.7444	0.0862
324.9551	0.1035
325.1658	0.0969
325.3765	0.0878
325.5872	0.1016
325.7979	0.0802
326.0085	0.0928
326.2192	0.0997
326.4298	0.1036
326.6404	0.0933
326.851	0.0805
327.0616	0.0821
327.2722	0.101
327.4828	0.1
327.6933	0.0862
327.9039	0.104
328.1144	0.0967
328.3249	0.0882
328.5354	0.0802
328.7459	0.1002
328.9564	0.089
329.1669	0.0851
329.3773	0.1008
329.5878	0.0967
329.7982	0.0914
330.0086	0.0989
330.219	0.1089
330.4294	0.0945
330.6398	0.0947
330.8502	0.0944
331.0605	0.0991
331.2708	0.0919
331.4812	0.0917
331.6915	0.0973
331.9018	0.0898
332.1121	0.0936
332.3224	0.0938
332.5326	0.1047
332.7429	0.0913
332.9531	0.11
333.1633	0.0922
333.3735	0.0925
333.5837	0.101
333.7939	0.093
334.0041	0.1078
334.2143	0.1132
334.4244	0.1019
334.6346	0.0775
334.8447	0.1058
335.0548	0.0906
335.2649	0.0939
335.475	0.1039
335.685	0.1014
335.8951	0.1099
336.1051	0.0982
336.3152	0.1021
336.5252	0.0874
336.7352	0.1045
336.9452	0.1006
337.1552	0.1107
337.3652	0.0874
337.5751	0.1015
337.7851	0.1097
337.995	0.0866
338.2049	0.1088
338.4148	0.0937
338.6247	0.109
338.8346	0.098
339.0445	0.1079
339.2543	0.1008
339.4642	0.1018
339.674	0.085
339.8838	0.1135
340.0936	0.0988
340.3034	0.1153
340.5132	0.1169
340.7229	0.1068
340.9327	0.11
341.1424	0.0962
341.3522	0.1209
341.5619	0.106
341.7716	0.1187
341.9813	0.1145
342.1909	0.1173
342.4006	0.1129
342.6102	0.1202
342.8199	0.1133
343.0295	0.1081
343.2391	0.1219
343.4487	0.1193
343.6583	0.1126
343.8679	0.1027
344.0774	0.1272
344.287	0.1138
344.4965	0.1176
344.706	0.1242
344.9155	0.1275
345.125	0.1244
345.3345	0.119
345.544	0.1291
345.7534	0.1095
345.9629	0.1163
346.1723	0.1246
346.3817	0.1135
346.5911	0.1155
346.8005	0.1179
347.0099	0.1222
347.2193	0.1324
347.4286	0.1104
347.638	0.1291
347.8473	0.1292
348.0566	0.1358
348.2659	0.1196
348.4752	0.1299
348.6845	0.1179
348.8937	0.1317
349.103	0.1357
349.3122	0.1252
349.5214	0.1181
349.7306	0.1331
349.9398	0.1211
350.149	0.1312
350.3582	0.118
350.5674	0.1481
350.7765	0.1403
350.9856	0.1261
351.1948	0.1308
351.4039	0.1088
351.613	0.1265
351.822	0.1445
352.0311	0.1397
352.2402	0.1346
352.4492	0.1376
352.6582	0.1452
352.8672	0.142
353.0762	0.1391
353.2852	0.1438
353.4942	0.1276
353.7032	0.1475
353.9121	0.1519
354.1211	0.1511
354.33	0.1497
354.5389	0.1657
354.7478	0.1437
354.9567	0.1445
355.1655	0.1388
355.3744	0.1501
355.5833	0.1652
355.7921	0.1663
356.0009	0.1523
356.2097	0.1754
356.4185	0.1578
356.6273	0.1556
356.8361	0.1691
357.0448	0.1616
357.2536	0.1357
357.4623	0.1538
357.671	0.165
357.8797	0.161
358.0884	0.1591
358.2971	0.1508
358.5057	0.1619
358.7144	0.1739
358.923	0.163
359.1316	0.1767
359.3402	0.1839
359.5488	0.1643
359.7574	0.1624
359.966	0.1851
360.1746	0.1689
360.3831	0.1714
360.5916	0.1549
360.8002	0.1703
361.0087	0.1795
361.2172	0.1771
361.4256	0.1778
361.6341	0.187
361.8426	0.1755
362.051	0.1705
362.2594	0.1711
362.4678	0.1703
362.6762	0.2005
362.8846	0.19
363.093	0.1837
363.3014	0.1828
363.5097	0.1765
363.718	0.188
363.9264	0.1845
364.1347	0.1793
364.343	0.1963
364.5513	0.2105
364.7595	0.1881
364.9678	0.195
365.176	0.1827
365.3842	0.188
365.5925	0.1946
365.8007	0.1996
366.0089	0.2
366.217	0.204
366.4252	0.2139
366.6333	0.2194
366.8415	0.1959
367.0496	0.1915
367.2577	0.2197
367.4658	0.2114
367.6739	0.2115
367.882	0.2101
368.09	0.205
368.2981	0.2171
368.5061	0.2049
368.7141	0.2242
368.9221	0.2112
369.1301	0.2121
369.3381	0.2172
369.5461	0.2214
369.754	0.2227
369.962	0.2293
370.1699	0.2136
370.3778	0.237
370.5857	0.2053
370.7936	0.2053
371.0015	0.2221
371.2093	0.214
371.4172	0.2421
371.625	0.2114
371.8328	0.2152
372.0406	0.2409
372.2484	0.226
372.4562	0.2233
372.664	0.2159
372.8717	0.2395
373.0795	0.2199
373.2872	0.2391
373.4949	0.2125
373.7026	0.2262
373.9103	0.2425
374.118	0.2206
374.3256	0.2316
374.5333	0.2341
374.7409	0.2257
374.9485	0.2338
375.1561	0.2426
375.3637	0.2496
375.5713	0.245
375.7789	0.2358
375.9864	0.2292
376.194	0.2456
376.4015	0.2485
376.609	0.2427
376.8165	0.2415
377.024	0.2432
377.2315	0.2412
377.4389	0.2621
377.6464	0.2565
377.8538	0.2317
378.0612	0.259
378.2686	0.2607
378.476	0.259
378.6834	0.2508
378.8908	0.262
379.0981	0.2632
379.3055	0.2503
379.5128	0.2482
379.7201	0.2776
379.9274	0.2427
380.1347	0.267
380.342	0.2675
380.5492	0.2532
380.7565	0.2668
380.9637	0.265
381.1709	0.2461
381.3781	0.2439
381.5853	0.2674
381.7925	0.2619
381.9997	0.2579
382.2068	0.2664
382.4139	0.2566
382.6211	0.242
382.8282	0.2785
383.0353	0.2568
383.2424	0.2543
383.4494	0.2829
383.6565	0.2527
383.8635	0.2578
384.0706	0.2683
384.2776	0.2774
384.4846	0.2447
384.6916	0.2644
384.8986	0.2545
385.1055	0.2555
385.3125	0.2733
385.5194	0.2393
385.7263	0.2628
385.9333	0.2612
386.1402	0.266
386.347	0.2646
386.5539	0.2516
386.7608	0.2744
386.9676	0.2612
387.1744	0.2509
387.3813	0.259
387.5881	0.2667
387.7948	0.2618
388.0016	0.2605
388.2084	0.252
388.4151	0.2645
388.6219	0.266
388.8286	0.2432
389.0353	0.2761
389.242	0.2622
389.4487	0.2589
389.6553	0.248
389.862	0.2421
390.0686	0.2456
390.2753	0.2639
390.4819	0.2627
390.6885	0.2554
390.8951	0.2724
391.1016	0.2642
391.3082	0.2355
391.5147	0.2641
391.7213	0.2606
391.9278	0.2295
392.1343	0.2524
392.3408	0.2499
392.5473	0.2574
392.7537	0.2379
392.9602	0.2384
393.1666	0.2383
393.373	0.2256
393.5794	0.266
393.7858	0.2549
393.9922	0.2205
394.1986	0.2631
394.4049	0.2484
394.6113	0.2315
394.8176	0.2454
395.0239	0.2376
395.2302	0.2315
395.4365	0.2266
395.6428	0.2347
395.8491	0.2179
396.0553	0.2304
396.2615	0.214
396.4678	0.2288
396.674	0.2059
396.8802	0.233
397.0863	0.2436
397.2925	0.2263
397.4987	0.217
397.7048	0.2123
397.9109	0.2342
398.117	0.2229
398.3231	0.2057
398.5292	0.2372
398.7353	0.2311
398.9413	0.2153
399.1474	0.2223
399.3534	0.2208
399.5594	0.2179
399.7654	0.235
399.9714	0.2339
400.1774	0.2105
400.3833	0.2175
400.5893	0.2329
400.7952	0.2261
401.0011	0.2054
401.207	0.2334
401.4129	0.2262
401.6188	0.2335
401.8247	0.2189
402.0305	0.2318
402.2364	0.231
402.4422	0.2332
402.648	0.2272
402.8538	0.2245
403.0596	0.2205
403.2654	0.2313
403.4711	0.2086
403.6768	0.235
403.8826	0.2433
404.0883	0.2462
404.294	0.2399
404.4997	0.2314
404.7054	0.2301
404.911	0.2196
405.1167	0.2224
405.3223	0.2289
405.5279	0.2308
405.7335	0.2427
405.9391	0.2369
406.1447	0.2121
406.3502	0.2596
406.5558	0.2245
406.7613	0.2198
406.9668	0.2527
407.1724	0.2194
407.3778	0.2163
407.5833	0.2198
407.7888	0.2159
407.9942	0.2453
408.1997	0.2138
408.4051	0.2228
408.6105	0.2277
408.8159	0.2336
409.0213	0.2201
409.2267	0.2255
409.432	0.211
409.6374	0.2192
409.8427	0.2117
410.048	0.2191
410.2533	0.2342
410.4586	0.2361
410.6639	0.2027
410.8691	0.21
411.0744	0.226
411.2796	0.2212
411.4848	0.2183
411.69	0.2281
411.8952	0.2435
412.1004	0.2201
412.3056	0.2382
412.5107	0.2209
412.7158	0.2241
412.921	0.2193
413.1261	0.2221
413.3312	0.2204
413.5362	0.2202
413.7413	0.2104
413.9464	0.2301
414.1514	0.23
414.3564	0.2204
414.5614	0.2048
414.7664	0.2353
414.9714	0.2256
415.1764	0.2149
415.3813	0.2438
415.5863	0.2135
415.7912	0.2272
415.9961	0.2115
416.201	0.2172
416.4059	0.2121
416.6108	0.2032
416.8156	0.2167
417.0205	0.2229
417.2253	0.2124
417.4301	0.2146
417.6349	0.2197
417.8397	0.2142
418.0445	0.2273
418.2492	0.228
418.454	0.2062
418.6587	0.205
418.8634	0.2261
419.0681	0.2004
419.2728	0.1983
419.4775	0.1969
419.6822	0.1934
419.8868	0.192
420.0915	0.2064
420.2961	0.1969
420.5007	0.1983
420.7053	0.2011
420.9099	0.2099
421.1144	0.2071
421.319	0.2093
421.5235	0.2115
421.728	0.203
421.9325	0.2054
422.137	0.1907
422.3415	0.1954
422.546	0.1871
422.7504	0.2037
422.9549	0.211
423.1593	0.1997
423.3637	0.2016
423.5681	0.1837
423.7725	0.191
423.9769	0.191
424.1812	0.1841
424.3856	0.2004
424.5899	0.1863
424.7942	0.1923
424.9985	0.1868
425.2028	0.1868
425.4071	0.1957
425.6113	0.1687
425.8156	0.1907
426.0198	0.1877
426.224	0.1595
426.4282	0.1786
426.6324	0.1708
