Data from MonoPyChalIsomerACN10uM440nmA_Absorbance_15-27-10-894.txt Node
Date: Fri Jul 05 15:27:10 BST 2024
User: LASERRRRR
Spectrometer: FLMT03099
Trigger mode: 0
Integration Time (sec): 1.000000E-1
Scans to average: 1
Electric dark correction enabled: true
Nonlinearity correction enabled: false
Boxcar width: 0
XAxis mode: Wavelengths
Number of Pixels in Spectrum: 3648
>>>>>Begin Spectral Data<<<<<
179.3399	-0.0042
179.5586	-0.0042
179.7771	-0.0042
179.9957	0.0111
180.2143	-0
180.4329	-0.2216
180.6514	0.7053
180.8699	0.0829
181.0885	-0.0704
181.307	0.7174
181.5255	-1.0424
181.744	-0.9294
181.9625	-0
182.181	-0
182.3994	-0
182.6179	-0
182.8363	0.5711
183.0547	0.1444
183.2732	-0.0263
183.4916	0.0681
183.71	0.0686
183.9284	0.0717
184.1467	-0.0824
184.3651	0.0012
184.5835	0.0914
184.8018	-0.0369
185.0201	0.2105
185.2385	0.1247
185.4568	0.1943
185.6751	0.1866
185.8934	0.6077
186.1117	0.0162
186.3299	0.2193
186.5482	0.0102
186.7664	-0.1227
186.9847	-0.0034
187.2029	-0.0024
187.4211	-0.0209
187.6393	0.2721
187.8575	0.052
188.0757	0.2325
188.2939	-0.0329
188.512	-0.1231
188.7302	-0.1117
188.9483	0.1812
189.1665	0.1709
189.3846	-0.1188
189.6027	0.076
189.8208	0.1971
190.0389	0.2198
190.257	0.2015
190.475	0.5423
190.6931	0.2531
190.9111	0.351
191.1292	0.231
191.3472	0.3097
191.5652	0.2998
191.7832	0.2519
192.0012	0.6533
192.2192	0.4336
192.4371	0.4947
192.6551	0.2935
192.873	0.3498
193.091	0.3943
193.3089	0.5091
193.5268	0.613
193.7447	0.6077
193.9626	0.4624
194.1805	1.0502
194.3984	0.4764
194.6162	0.5701
194.8341	0.5428
195.0519	0.583
195.2697	0.6997
195.4875	0.6545
195.7054	0.7874
195.9231	0.524
196.1409	0.6115
196.3587	0.6631
196.5765	0.5918
196.7942	0.717
197.012	0.473
197.2297	0.645
197.4474	0.7809
197.6651	0.4775
197.8828	0.5486
198.1005	0.5164
198.3182	0.7301
198.5358	0.8079
198.7535	0.597
198.9711	0.6622
199.1888	0.8286
199.4064	0.8427
199.624	0.6874
199.8416	0.6874
200.0592	0.6387
200.2767	0.5798
200.4943	0.6331
200.7119	1.0466
200.9294	0.6297
201.1469	0.5788
201.3645	0.529
201.582	0.4928
201.7995	0.6496
202.017	0.598
202.2344	0.5586
202.4519	0.7056
202.6694	0.5861
202.8868	0.7031
203.1042	0.6834
203.3217	0.5712
203.5391	0.6889
203.7565	0.6418
203.9739	0.5738
204.1913	0.5661
204.4086	0.8231
204.626	0.7049
204.8433	0.6408
205.0607	0.6163
205.278	0.6819
205.4953	0.6595
205.7126	0.7299
205.9299	0.7147
206.1472	0.7383
206.3644	0.6893
206.5817	0.7581
206.7989	0.6937
207.0162	0.6623
207.2334	0.724
207.4506	0.6701
207.6678	0.6764
207.885	0.5974
208.1022	0.7169
208.3194	0.6632
208.5365	0.6726
208.7537	0.6355
208.9708	0.6245
209.1879	0.5737
209.405	0.6665
209.6222	0.6555
209.8392	0.6395
210.0563	0.6044
210.2734	0.5908
210.4905	0.6379
210.7075	0.6618
210.9245	0.6322
211.1416	0.6797
211.3586	0.6664
211.5756	0.5722
211.7926	0.6234
212.0096	0.5386
212.2265	0.6343
212.4435	0.5961
212.6604	0.5914
212.8774	0.6045
213.0943	0.5924
213.3112	0.534
213.5281	0.5128
213.745	0.5141
213.9619	0.5372
214.1788	0.5084
214.3956	0.4382
214.6125	0.4649
214.8293	0.4674
215.0461	0.5119
215.2629	0.4804
215.4798	0.4607
215.6965	0.4081
215.9133	0.4498
216.1301	0.3998
216.3469	0.4607
216.5636	0.4439
216.7803	0.4141
216.9971	0.4084
217.2138	0.3946
217.4305	0.3954
217.6472	0.3623
217.8639	0.3896
218.0805	0.3164
218.2972	0.3403
218.5138	0.3403
218.7305	0.2918
218.9471	0.322
219.1637	0.2942
219.3803	0.2774
219.5969	0.3058
219.8135	0.2683
220.0301	0.2587
220.2466	0.2773
220.4632	0.2653
220.6797	0.2594
220.8962	0.2248
221.1127	0.2477
221.3292	0.2303
221.5457	0.2303
221.7622	0.2222
221.9787	0.24
222.1951	0.2393
222.4116	0.27
222.628	0.2361
222.8444	0.2695
223.0608	0.2604
223.2772	0.2504
223.4936	0.2872
223.71	0.2347
223.9264	0.2854
224.1427	0.2467
224.3591	0.229
224.5754	0.2777
224.7917	0.2741
225.008	0.276
225.2243	0.2506
225.4406	0.2619
225.6569	0.2611
225.8732	0.2572
226.0894	0.2429
226.3057	0.279
226.5219	0.3039
226.7381	0.2565
226.9543	0.2819
227.1705	0.287
227.3867	0.2702
227.6029	0.2982
227.8191	0.2853
228.0352	0.2955
228.2513	0.314
228.4675	0.3187
228.6836	0.2949
228.8997	0.3045
229.1158	0.3079
229.3319	0.3106
229.548	0.3094
229.764	0.2976
229.9801	0.3313
230.1961	0.3324
230.4121	0.3226
230.6282	0.3388
230.8442	0.3179
231.0602	0.3555
231.2761	0.3381
231.4921	0.3192
231.7081	0.3537
231.924	0.3397
232.14	0.3601
232.3559	0.3298
232.5718	0.3673
232.7877	0.362
233.0036	0.3532
233.2195	0.3444
233.4353	0.3342
233.6512	0.3652
233.867	0.3659
234.0829	0.3576
234.2987	0.3889
234.5145	0.3672
234.7303	0.3675
234.9461	0.3792
235.1619	0.3816
235.3776	0.3617
235.5934	0.3808
235.8091	0.3773
236.0249	0.3621
236.2406	0.3825
236.4563	0.3699
236.672	0.4148
236.8877	0.3732
237.1034	0.4071
237.319	0.3942
237.5347	0.3904
237.7503	0.4058
237.966	0.3934
238.1816	0.401
238.3972	0.4056
238.6128	0.4005
238.8284	0.4198
239.0439	0.3961
239.2595	0.3913
239.475	0.4077
239.6906	0.4009
239.9061	0.3849
240.1216	0.4115
240.3371	0.3984
240.5526	0.3953
240.7681	0.4109
240.9836	0.3899
241.199	0.3983
241.4145	0.3899
241.6299	0.3689
241.8453	0.3526
242.0607	0.3807
242.2761	0.3482
242.4915	0.3864
242.7069	0.3528
242.9223	0.3349
243.1376	0.3418
243.353	0.3464
243.5683	0.3473
243.7836	0.3069
243.9989	0.328
244.2142	0.2867
244.4295	0.3281
244.6448	0.3043
244.86	0.2815
245.0753	0.2803
245.2905	0.2695
245.5057	0.2686
245.721	0.2695
245.9362	0.2489
246.1514	0.2772
246.3665	0.2441
246.5817	0.2474
246.7969	0.2404
247.012	0.2265
247.2271	0.2314
247.4423	0.2268
247.6574	0.2371
247.8725	0.2215
248.0876	0.2084
248.3026	0.2159
248.5177	0.2064
248.7328	0.2165
248.9478	0.1803
249.1628	0.2003
249.3779	0.2104
249.5929	0.1946
249.8079	0.1965
250.0228	0.1942
250.2378	0.1923
250.4528	0.2156
250.6677	0.1757
250.8827	0.1865
251.0976	0.1899
251.3125	0.1886
251.5274	0.174
251.7423	0.164
251.9572	0.1753
252.172	0.1728
252.3869	0.1859
252.6017	0.1736
252.8166	0.1583
253.0314	0.1664
253.2462	0.1672
253.461	0.1702
253.6758	0.1593
253.8906	0.1722
254.1053	0.158
254.3201	0.1629
254.5348	0.1632
254.7496	0.1753
254.9643	0.1663
255.179	0.1677
255.3937	0.1697
255.6083	0.1688
255.823	0.1728
256.0377	0.1487
256.2523	0.1655
256.467	0.1569
256.6816	0.1702
256.8962	0.1647
257.1108	0.1649
257.3254	0.1792
257.54	0.1621
257.7545	0.1575
257.9691	0.165
258.1836	0.165
258.3981	0.1753
258.6127	0.1773
258.8272	0.1605
259.0417	0.1617
259.2561	0.1592
259.4706	0.1554
259.6851	0.1713
259.8995	0.1579
260.114	0.1645
260.3284	0.1502
260.5428	0.1481
260.7572	0.1742
260.9716	0.1704
261.186	0.1638
261.4003	0.1537
261.6147	0.1596
261.829	0.1564
262.0433	0.1597
262.2577	0.1534
262.472	0.1583
262.6863	0.162
262.9005	0.1728
263.1148	0.1553
263.3291	0.1421
263.5433	0.151
263.7576	0.1611
263.9718	0.1655
264.186	0.1633
264.4002	0.1622
264.6144	0.1596
264.8286	0.1659
265.0427	0.1597
265.2569	0.1564
265.471	0.1491
265.6851	0.1494
265.8993	0.1466
266.1134	0.1547
266.3275	0.1494
266.5415	0.1416
266.7556	0.1608
266.9697	0.1468
267.1837	0.1582
267.3978	0.1572
267.6118	0.1556
267.8258	0.1761
268.0398	0.1433
268.2538	0.1656
268.4677	0.1608
268.6817	0.1485
268.8957	0.1446
269.1096	0.1595
269.3235	0.1612
269.5374	0.1471
269.7514	0.153
269.9652	0.1399
270.1791	0.1374
270.393	0.1393
270.6068	0.1424
270.8207	0.1352
271.0345	0.1396
271.2483	0.1409
271.4622	0.1271
271.676	0.1512
271.8897	0.1301
272.1035	0.1298
272.3173	0.123
272.531	0.1261
272.7448	0.133
272.9585	0.1347
273.1722	0.1344
273.3859	0.139
273.5996	0.1309
273.8133	0.1322
274.0269	0.1201
274.2406	0.1326
274.4542	0.1269
274.6679	0.1165
274.8815	0.1363
275.0951	0.1286
275.3087	0.1373
275.5223	0.1268
275.7358	0.1452
275.9494	0.1341
276.1629	0.128
276.3765	0.1375
276.59	0.1328
276.8035	0.1424
277.017	0.1332
277.2305	0.1344
277.444	0.145
277.6574	0.1319
277.8709	0.1347
278.0843	0.1343
278.2978	0.1318
278.5112	0.1399
278.7246	0.1344
278.938	0.1326
279.1513	0.1431
279.3647	0.1385
279.5781	0.1309
279.7914	0.1388
280.0047	0.1389
280.2181	0.1351
280.4314	0.1414
280.6447	0.1531
280.8579	0.1425
281.0712	0.1479
281.2845	0.1443
281.4977	0.1454
281.711	0.1337
281.9242	0.1394
282.1374	0.1388
282.3506	0.1382
282.5638	0.1473
282.7769	0.1413
282.9901	0.1393
283.2033	0.1544
283.4164	0.1502
283.6295	0.142
283.8426	0.1365
284.0557	0.1474
284.2688	0.1583
284.4819	0.1474
284.695	0.145
284.908	0.149
285.1211	0.1457
285.3341	0.1459
285.5471	0.1396
285.7601	0.1483
285.9731	0.1521
286.1861	0.1498
286.3991	0.1669
286.612	0.1587
286.825	0.1514
287.0379	0.1637
287.2508	0.1613
287.4637	0.1629
287.6766	0.1499
287.8895	0.1677
288.1024	0.1612
288.3152	0.1632
288.5281	0.1565
288.7409	0.1538
288.9538	0.1441
289.1666	0.1552
289.3794	0.1712
289.5922	0.1465
289.8049	0.1627
290.0177	0.1656
290.2304	0.1626
290.4432	0.1651
290.6559	0.1548
290.8686	0.1619
291.0813	0.1628
291.294	0.1715
291.5067	0.1756
291.7194	0.1657
291.932	0.1713
292.1447	0.1614
292.3573	0.1545
292.5699	0.17
292.7825	0.1643
292.9951	0.1633
293.2077	0.1641
293.4203	0.1732
293.6328	0.1479
293.8454	0.1734
294.0579	0.1681
294.2704	0.1602
294.4829	0.1492
294.6954	0.1749
294.9079	0.1599
295.1204	0.1675
295.3328	0.1696
295.5453	0.1719
295.7577	0.1731
295.9701	0.163
296.1825	0.1635
296.3949	0.1637
296.6073	0.1632
296.8197	0.1509
297.0321	0.1707
297.2444	0.15
297.4567	0.1655
297.6691	0.1674
297.8814	0.1599
298.0937	0.1618
298.306	0.1618
298.5182	0.1521
298.7305	0.1683
298.9428	0.1642
299.155	0.1704
299.3672	0.1616
299.5794	0.1585
299.7916	0.1655
300.0038	0.1673
300.216	0.1705
300.4282	0.1817
300.6403	0.1658
300.8525	0.1671
301.0646	0.1698
301.2767	0.1654
301.4888	0.1643
301.7009	0.1608
301.913	0.1658
302.125	0.1694
302.3371	0.1558
302.5491	0.1678
302.7612	0.1729
302.9732	0.1637
303.1852	0.1585
303.3972	0.1583
303.6092	0.1652
303.8211	0.1607
304.0331	0.1527
304.245	0.1499
304.457	0.1579
304.6689	0.1553
304.8808	0.1619
305.0927	0.1537
305.3046	0.1609
305.5164	0.1583
305.7283	0.1525
305.9401	0.1516
306.152	0.1408
306.3638	0.1486
306.5756	0.144
306.7874	0.1446
306.9992	0.1475
307.2109	0.1327
307.4227	0.1293
307.6344	0.1327
307.8462	0.1245
308.0579	0.1277
308.2696	0.1333
308.4813	0.1283
308.693	0.1297
308.9046	0.1339
309.1163	0.1214
309.328	0.1182
309.5396	0.119
309.7512	0.1161
309.9628	0.1219
310.1744	0.1153
310.386	0.1195
310.5976	0.1194
310.8091	0.1148
311.0207	0.1082
311.2322	0.1098
311.4437	0.1066
311.6552	0.112
311.8667	0.1187
312.0782	0.0969
312.2897	0.0984
312.5012	0.1135
312.7126	0.0976
312.924	0.0981
313.1355	0.1061
313.3469	0.0993
313.5583	0.1078
313.7696	0.106
313.981	0.0945
314.1924	0.0955
314.4037	0.0943
314.6151	0.1099
314.8264	0.0931
315.0377	0.0869
315.249	0.0934
315.4603	0.0929
315.6716	0.0824
315.8828	0.0871
316.0941	0.093
316.3053	0.0929
316.5165	0.0904
316.7277	0.0797
316.9389	0.0885
317.1501	0.0906
317.3613	0.0962
317.5724	0.0757
317.7836	0.0955
317.9947	0.0967
318.2058	0.093
318.417	0.0796
318.6281	0.0647
318.8391	0.086
319.0502	0.0837
319.2613	0.0873
319.4723	0.0913
319.6834	0.0878
319.8944	0.0864
320.1054	0.0916
320.3164	0.0918
320.5274	0.0819
320.7383	0.0889
320.9493	0.0888
321.1602	0.1061
321.3712	0.0823
321.5821	0.0933
321.793	0.0964
322.0039	0.0919
322.2148	0.0882
322.4257	0.0905
322.6365	0.0961
322.8474	0.0987
323.0582	0.0845
323.269	0.0934
323.4798	0.0976
323.6906	0.0889
323.9014	0.0933
324.1122	0.0908
324.3229	0.0793
324.5337	0.095
324.7444	0.091
324.9551	0.0993
325.1658	0.0965
325.3765	0.0976
325.5872	0.0974
325.7979	0.0993
326.0085	0.0971
326.2192	0.0993
326.4298	0.0864
326.6404	0.0834
326.851	0.0842
327.0616	0.083
327.2722	0.0975
327.4828	0.0982
327.6933	0.0908
327.9039	0.1011
328.1144	0.0988
328.3249	0.094
328.5354	0.0885
328.7459	0.1002
328.9564	0.0939
329.1669	0.0952
329.3773	0.0914
329.5878	0.0966
329.7982	0.0972
330.0086	0.0824
330.219	0.0925
330.4294	0.0977
330.6398	0.0909
330.8502	0.0996
331.0605	0.0959
331.2708	0.0923
331.4812	0.1035
331.6915	0.0928
331.9018	0.0822
332.1121	0.0951
332.3224	0.1009
332.5326	0.1069
332.7429	0.0877
332.9531	0.1144
333.1633	0.097
333.3735	0.099
333.5837	0.0945
333.7939	0.0838
334.0041	0.1094
334.2143	0.1028
334.4244	0.0991
334.6346	0.0749
334.8447	0.1038
335.0548	0.1034
335.2649	0.0874
335.475	0.1107
335.685	0.0953
335.8951	0.11
336.1051	0.1044
336.3152	0.1057
336.5252	0.0927
336.7352	0.1032
336.9452	0.1127
337.1552	0.1039
337.3652	0.0941
337.5751	0.1017
337.7851	0.0968
337.995	0.0936
338.2049	0.0995
338.4148	0.1015
338.6247	0.1172
338.8346	0.0934
339.0445	0.0909
339.2543	0.1222
339.4642	0.1042
339.674	0.0981
339.8838	0.1062
340.0936	0.1078
340.3034	0.1066
340.5132	0.1075
340.7229	0.1119
340.9327	0.1052
341.1424	0.1055
341.3522	0.1153
341.5619	0.1076
341.7716	0.1067
341.9813	0.1113
342.1909	0.1033
342.4006	0.1263
342.6102	0.1164
342.8199	0.1181
343.0295	0.1195
343.2391	0.1169
343.4487	0.1332
343.6583	0.1081
343.8679	0.1198
344.0774	0.1126
344.287	0.1213
344.4965	0.1218
344.706	0.121
344.9155	0.1201
345.125	0.1166
345.3345	0.1255
345.544	0.1125
345.7534	0.1194
345.9629	0.1059
346.1723	0.1106
346.3817	0.1127
346.5911	0.1177
346.8005	0.1302
347.0099	0.1132
347.2193	0.1261
347.4286	0.122
347.638	0.1328
347.8473	0.1211
348.0566	0.1329
348.2659	0.1233
348.4752	0.1221
348.6845	0.1141
348.8937	0.111
349.103	0.1449
349.3122	0.1263
349.5214	0.1174
349.7306	0.1309
349.9398	0.141
350.149	0.1376
350.3582	0.1221
350.5674	0.1384
350.7765	0.1236
350.9856	0.137
351.1948	0.136
351.4039	0.1168
351.613	0.1284
351.822	0.1461
352.0311	0.1419
352.2402	0.1409
352.4492	0.1421
352.6582	0.1429
352.8672	0.1306
353.0762	0.1467
353.2852	0.1405
353.4942	0.1276
353.7032	0.1441
353.9121	0.1455
354.1211	0.1563
354.33	0.1445
354.5389	0.1465
354.7478	0.1392
354.9567	0.146
355.1655	0.1389
355.3744	0.1553
355.5833	0.1554
355.7921	0.1588
356.0009	0.1489
356.2097	0.1688
356.4185	0.166
356.6273	0.1604
356.8361	0.1665
357.0448	0.1486
357.2536	0.1425
357.4623	0.1461
357.671	0.1669
357.8797	0.1701
358.0884	0.1612
358.2971	0.153
358.5057	0.1594
358.7144	0.1669
358.923	0.1688
359.1316	0.1566
359.3402	0.156
359.5488	0.1523
359.7574	0.1588
359.966	0.18
360.1746	0.1663
360.3831	0.1912
360.5916	0.1701
360.8002	0.1714
361.0087	0.1794
361.2172	0.1734
361.4256	0.1744
361.6341	0.1844
361.8426	0.1816
362.051	0.1664
362.2594	0.18
362.4678	0.183
362.6762	0.1971
362.8846	0.1893
363.093	0.188
363.3014	0.1807
363.5097	0.173
363.718	0.1808
363.9264	0.19
364.1347	0.1743
364.343	0.2035
364.5513	0.1968
364.7595	0.207
364.9678	0.186
365.176	0.2025
365.3842	0.1802
365.5925	0.2
365.8007	0.2082
366.0089	0.1957
366.217	0.19
366.4252	0.1981
366.6333	0.2135
366.8415	0.2053
367.0496	0.1928
367.2577	0.1995
367.4658	0.2228
367.6739	0.2229
367.882	0.2204
368.09	0.2205
368.2981	0.2099
368.5061	0.2024
368.7141	0.2182
368.9221	0.2071
369.1301	0.2141
369.3381	0.2046
369.5461	0.2169
369.754	0.2301
369.962	0.2118
370.1699	0.2301
370.3778	0.2329
370.5857	0.2061
370.7936	0.2243
371.0015	0.2247
371.2093	0.2191
371.4172	0.2396
371.625	0.2355
371.8328	0.2143
372.0406	0.2277
372.2484	0.2147
372.4562	0.2454
372.664	0.2312
372.8717	0.253
373.0795	0.2091
373.2872	0.2371
373.4949	0.2326
373.7026	0.2396
373.9103	0.2409
374.118	0.2434
374.3256	0.2415
374.5333	0.2271
374.7409	0.2379
374.9485	0.2523
375.1561	0.2375
375.3637	0.2351
375.5713	0.2505
375.7789	0.2371
375.9864	0.2513
376.194	0.2462
376.4015	0.2607
376.609	0.2615
376.8165	0.2464
377.024	0.244
377.2315	0.2425
377.4389	0.2641
377.6464	0.2578
377.8538	0.2544
378.0612	0.2511
378.2686	0.2586
378.476	0.2756
378.6834	0.2636
378.8908	0.2525
379.0981	0.2555
379.3055	0.2511
379.5128	0.249
379.7201	0.2518
379.9274	0.2543
380.1347	0.2672
380.342	0.2593
380.5492	0.2487
380.7565	0.2618
380.9637	0.2605
381.1709	0.2499
381.3781	0.2494
381.5853	0.2676
381.7925	0.2717
381.9997	0.2703
382.2068	0.267
382.4139	0.2668
382.6211	0.2646
382.8282	0.2746
383.0353	0.2724
383.2424	0.2605
383.4494	0.2802
383.6565	0.2647
383.8635	0.2661
384.0706	0.2698
384.2776	0.2914
384.4846	0.2676
384.6916	0.271
384.8986	0.2694
385.1055	0.2711
385.3125	0.2771
385.5194	0.2527
385.7263	0.2859
385.9333	0.261
386.1402	0.2817
386.347	0.2675
386.5539	0.2662
386.7608	0.2863
386.9676	0.2661
387.1744	0.2773
387.3813	0.2507
387.5881	0.2647
387.7948	0.2594
388.0016	0.2671
388.2084	0.2687
388.4151	0.2507
388.6219	0.2627
388.8286	0.2636
389.0353	0.2842
389.242	0.273
389.4487	0.2569
389.6553	0.2437
389.862	0.2344
390.0686	0.2609
390.2753	0.2629
390.4819	0.256
390.6885	0.2558
390.8951	0.2577
391.1016	0.249
391.3082	0.2599
391.5147	0.2546
391.7213	0.2657
391.9278	0.2378
392.1343	0.2499
392.3408	0.2337
392.5473	0.2616
392.7537	0.2454
392.9602	0.2432
393.1666	0.254
393.373	0.2507
393.5794	0.2332
393.7858	0.2493
393.9922	0.2535
394.1986	0.2544
394.4049	0.2461
394.6113	0.2306
394.8176	0.2163
395.0239	0.2319
395.2302	0.2309
395.4365	0.25
395.6428	0.2206
395.8491	0.2141
396.0553	0.2462
396.2615	0.2387
396.4678	0.2269
396.674	0.2195
396.8802	0.2197
397.0863	0.2372
397.2925	0.2206
397.4987	0.2157
397.7048	0.2268
397.9109	0.2311
398.117	0.2279
398.3231	0.2237
398.5292	0.2348
398.7353	0.2492
398.9413	0.2222
399.1474	0.2321
399.3534	0.2256
399.5594	0.2186
399.7654	0.2361
399.9714	0.2271
400.1774	0.2204
400.3833	0.2173
400.5893	0.2337
400.7952	0.2143
401.0011	0.2236
401.207	0.235
401.4129	0.212
401.6188	0.2415
401.8247	0.2196
402.0305	0.2363
402.2364	0.2338
402.4422	0.2413
402.648	0.2365
402.8538	0.254
403.0596	0.218
403.2654	0.2363
403.4711	0.2133
403.6768	0.2387
403.8826	0.2246
404.0883	0.2164
404.294	0.2377
404.4997	0.2285
404.7054	0.2371
404.911	0.231
405.1167	0.2184
405.3223	0.239
405.5279	0.237
405.7335	0.2413
405.9391	0.2335
406.1447	0.2372
406.3502	0.2464
406.5558	0.2269
406.7613	0.2337
406.9668	0.2274
407.1724	0.2122
407.3778	0.2248
407.5833	0.2246
407.7888	0.2161
407.9942	0.238
408.1997	0.2291
408.4051	0.2333
408.6105	0.2206
408.8159	0.206
409.0213	0.2269
409.2267	0.2259
409.432	0.2092
409.6374	0.2313
409.8427	0.2192
410.048	0.2315
410.2533	0.215
410.4586	0.2193
410.6639	0.2179
410.8691	0.2312
411.0744	0.2134
411.2796	0.2128
411.4848	0.2339
411.69	0.2344
411.8952	0.2388
412.1004	0.2132
412.3056	0.2229
412.5107	0.2277
412.7158	0.2406
412.921	0.2205
413.1261	0.2071
413.3312	0.2259
413.5362	0.2137
413.7413	0.2087
413.9464	0.2324
414.1514	0.2252
414.3564	0.2296
414.5614	0.2001
414.7664	0.2244
414.9714	0.2062
415.1764	0.2248
415.3813	0.2148
415.5863	0.2137
415.7912	0.2224
415.9961	0.2305
416.201	0.2015
416.4059	0.2301
416.6108	0.2029
416.8156	0.2285
417.0205	0.2182
417.2253	0.2101
417.4301	0.2283
417.6349	0.2212
417.8397	0.1984
418.0445	0.2283
418.2492	0.2367
418.454	0.2062
418.6587	0.2191
418.8634	0.2151
419.0681	0.2058
419.2728	0.2003
419.4775	0.2079
419.6822	0.2132
419.8868	0.1807
420.0915	0.2283
420.2961	0.1897
420.5007	0.191
420.7053	0.2034
420.9099	0.209
421.1144	0.2048
421.319	0.1932
421.5235	0.2089
421.728	0.2181
421.9325	0.1905
422.137	0.227
422.3415	0.1947
422.546	0.215
422.7504	0.2156
422.9549	0.1983
423.1593	0.2128
423.3637	0.2036
423.5681	0.1955
423.7725	0.1983
423.9769	0.1732
424.1812	0.1874
424.3856	0.1948
424.5899	0.1929
424.7942	0.1998
424.9985	0.1861
425.2028	0.1831
425.4071	0.1983
425.6113	0.1747
425.8156	0.1852
426.0198	0.1897
426.224	0.1541
426.4282	0.1721
