Data from MonoPyChalIsomerACN10uM440nmA_Absorbance_15-27-12-294.txt Node
Date: Fri Jul 05 15:27:12 BST 2024
User: LASERRRRR
Spectrometer: FLMT03099
Trigger mode: 0
Integration Time (sec): 1.000000E-1
Scans to average: 1
Electric dark correction enabled: true
Nonlinearity correction enabled: false
Boxcar width: 0
XAxis mode: Wavelengths
Number of Pixels in Spectrum: 3648
>>>>>Begin Spectral Data<<<<<
179.3399	-0.595
179.5586	-0.595
179.7771	-0.595
179.9957	-0
180.2143	-0
180.4329	-0
180.6514	0.967
180.8699	0.1326
181.0885	0.0826
181.307	0.0428
181.5255	-0.8484
181.744	-0.1032
181.9625	-0
182.181	-0
182.3994	-0
182.6179	-0
182.8363	0.0427
183.0547	-0.1408
183.2732	-0.039
183.4916	-0.0181
183.71	0.2801
183.9284	0.1725
184.1467	-0.0168
184.3651	-0.0055
184.5835	-0.0097
184.8018	0.0471
185.0201	-0.0886
185.2385	-0.0256
185.4568	0.3278
185.6751	0.0676
185.8934	0.5459
186.1117	0.1289
186.3299	0.0105
186.5482	-0.0052
186.7664	-0.0709
186.9847	0.0373
187.2029	0.0298
187.4211	-0.0811
187.6393	0.0801
187.8575	-0.2268
188.0757	0.1184
188.2939	0.1556
188.512	0.2814
188.7302	0.2138
188.9483	0.2854
189.1665	0.2067
189.3846	-0.2248
189.6027	0.2993
189.8208	0.104
190.0389	-0.0148
190.257	0.1856
190.475	0.1605
190.6931	0.4172
190.9111	0.4336
191.1292	0.2629
191.3472	0.5018
191.5652	0.3369
191.7832	0.1609
192.0012	0.4008
192.2192	0.2545
192.4371	0.6999
192.6551	0.3343
192.873	0.4393
193.091	0.3002
193.3089	0.9399
193.5268	0.4393
193.7447	0.5957
193.9626	0.5857
194.1805	0.6331
194.3984	0.8746
194.6162	0.5447
194.8341	0.4713
195.0519	0.5812
195.2697	0.7966
195.4875	0.6019
195.7054	0.5782
195.9231	0.6864
196.1409	0.4828
196.3587	0.5917
196.5765	0.5833
196.7942	0.589
197.012	0.4912
197.2297	0.8499
197.4474	0.8239
197.6651	0.5806
197.8828	0.5959
198.1005	0.579
198.3182	0.4858
198.5358	0.7523
198.7535	0.6766
198.9711	0.5711
199.1888	0.5971
199.4064	0.7711
199.624	0.6897
199.8416	0.6624
200.0592	0.5394
200.2767	0.7174
200.4943	0.7071
200.7119	0.6811
200.9294	0.6779
201.1469	0.5398
201.3645	0.5866
201.582	0.5902
201.7995	0.6573
202.017	0.6917
202.2344	0.5355
202.4519	0.5913
202.6694	0.6109
202.8868	0.639
203.1042	0.7158
203.3217	0.8461
203.5391	0.7641
203.7565	0.529
203.9739	0.7609
204.1913	0.6039
204.4086	0.609
204.626	0.6507
204.8433	0.644
205.0607	0.6458
205.278	0.8184
205.4953	0.5702
205.7126	0.7075
205.9299	0.8152
206.1472	0.7707
206.3644	0.7058
206.5817	0.6503
206.7989	0.7607
207.0162	0.6305
207.2334	0.7498
207.4506	0.6238
207.6678	0.6301
207.885	0.711
208.1022	0.6373
208.3194	0.8433
208.5365	0.6862
208.7537	0.6829
208.9708	0.6139
209.1879	0.591
209.405	0.6605
209.6222	0.7063
209.8392	0.6268
210.0563	0.6921
210.2734	0.6576
210.4905	0.6518
210.7075	0.7485
210.9245	0.6029
211.1416	0.6241
211.3586	0.588
211.5756	0.6002
211.7926	0.6542
212.0096	0.5681
212.2265	0.5752
212.4435	0.5251
212.6604	0.6371
212.8774	0.617
213.0943	0.6432
213.3112	0.5881
213.5281	0.4878
213.745	0.4999
213.9619	0.53
214.1788	0.5249
214.3956	0.4545
214.6125	0.4814
214.8293	0.4455
215.0461	0.5031
215.2629	0.4514
215.4798	0.4412
215.6965	0.4478
215.9133	0.4378
216.1301	0.447
216.3469	0.4294
216.5636	0.4253
216.7803	0.3821
216.9971	0.4004
217.2138	0.3558
217.4305	0.3855
217.6472	0.3735
217.8639	0.3695
218.0805	0.366
218.2972	0.3591
218.5138	0.323
218.7305	0.3026
218.9471	0.2818
219.1637	0.294
219.3803	0.3011
219.5969	0.2772
219.8135	0.2523
220.0301	0.2519
220.2466	0.2662
220.4632	0.2571
220.6797	0.2581
220.8962	0.2543
221.1127	0.2445
221.3292	0.2589
221.5457	0.2315
221.7622	0.2415
221.9787	0.2465
222.1951	0.2333
222.4116	0.2518
222.628	0.2532
222.8444	0.2536
223.0608	0.2537
223.2772	0.2652
223.4936	0.2475
223.71	0.265
223.9264	0.2882
224.1427	0.2448
224.3591	0.245
224.5754	0.2889
224.7917	0.2478
225.008	0.2684
225.2243	0.2578
225.4406	0.2802
225.6569	0.255
225.8732	0.2613
226.0894	0.2703
226.3057	0.2654
226.5219	0.2572
226.7381	0.2814
226.9543	0.2815
227.1705	0.2815
227.3867	0.2645
227.6029	0.2935
227.8191	0.2966
228.0352	0.2934
228.2513	0.313
228.4675	0.3161
228.6836	0.2984
228.8997	0.2982
229.1158	0.3075
229.3319	0.3164
229.548	0.2972
229.764	0.3411
229.9801	0.3122
230.1961	0.3196
230.4121	0.3464
230.6282	0.3378
230.8442	0.3245
231.0602	0.3363
231.2761	0.3536
231.4921	0.3431
231.7081	0.355
231.924	0.3667
232.14	0.3769
232.3559	0.3321
232.5718	0.3686
232.7877	0.3399
233.0036	0.341
233.2195	0.3493
233.4353	0.3415
233.6512	0.3571
233.867	0.3588
234.0829	0.3559
234.2987	0.3735
234.5145	0.3712
234.7303	0.3914
234.9461	0.3737
235.1619	0.3739
235.3776	0.3655
235.5934	0.3703
235.8091	0.3732
236.0249	0.3733
236.2406	0.3878
236.4563	0.3872
236.672	0.3951
236.8877	0.3775
237.1034	0.4137
237.319	0.3954
237.5347	0.4008
237.7503	0.3815
237.966	0.399
238.1816	0.4033
238.3972	0.4076
238.6128	0.3908
238.8284	0.4143
239.0439	0.3985
239.2595	0.4021
239.475	0.4203
239.6906	0.4203
239.9061	0.4075
240.1216	0.3939
240.3371	0.4129
240.5526	0.3833
240.7681	0.3971
240.9836	0.3787
241.199	0.3934
241.4145	0.3811
241.6299	0.3736
241.8453	0.3733
242.0607	0.396
242.2761	0.3572
242.4915	0.3464
242.7069	0.3474
242.9223	0.3438
243.1376	0.3496
243.353	0.3327
243.5683	0.3465
243.7836	0.3289
243.9989	0.3197
244.2142	0.2967
244.4295	0.3097
244.6448	0.3129
244.86	0.293
245.0753	0.2831
245.2905	0.2809
245.5057	0.2678
245.721	0.2668
245.9362	0.2738
246.1514	0.2593
246.3665	0.2452
246.5817	0.2395
246.7969	0.2555
247.012	0.239
247.2271	0.2303
247.4423	0.2465
247.6574	0.2461
247.8725	0.2199
248.0876	0.2144
248.3026	0.2131
248.5177	0.2155
248.7328	0.1976
248.9478	0.2041
249.1628	0.2123
249.3779	0.2095
249.5929	0.2082
249.8079	0.2209
250.0228	0.195
250.2378	0.1921
250.4528	0.1943
250.6677	0.1876
250.8827	0.19
251.0976	0.194
251.3125	0.1916
251.5274	0.1627
251.7423	0.1934
251.9572	0.184
252.172	0.1747
252.3869	0.1883
252.6017	0.1606
252.8166	0.1676
253.0314	0.1608
253.2462	0.1663
253.461	0.1846
253.6758	0.1638
253.8906	0.1723
254.1053	0.1565
254.3201	0.16
254.5348	0.1757
254.7496	0.1787
254.9643	0.1711
255.179	0.1722
255.3937	0.1628
255.6083	0.1669
255.823	0.1623
256.0377	0.1686
256.2523	0.1649
256.467	0.1555
256.6816	0.1674
256.8962	0.16
257.1108	0.1598
257.3254	0.1826
257.54	0.1604
257.7545	0.1725
257.9691	0.1702
258.1836	0.1555
258.3981	0.1647
258.6127	0.1666
258.8272	0.1658
259.0417	0.1657
259.2561	0.1624
259.4706	0.1593
259.6851	0.1693
259.8995	0.1572
260.114	0.1568
260.3284	0.1682
260.5428	0.1518
260.7572	0.1566
260.9716	0.1687
261.186	0.1495
261.4003	0.1582
261.6147	0.1673
261.829	0.1676
262.0433	0.1495
262.2577	0.1535
262.472	0.1604
262.6863	0.1656
262.9005	0.1572
263.1148	0.1674
263.3291	0.1533
263.5433	0.1661
263.7576	0.1605
263.9718	0.172
264.186	0.1618
264.4002	0.1623
264.6144	0.1578
264.8286	0.1692
265.0427	0.1578
265.2569	0.1597
265.471	0.1446
265.6851	0.158
265.8993	0.1603
266.1134	0.1488
266.3275	0.1535
266.5415	0.1409
266.7556	0.1623
266.9697	0.1658
267.1837	0.1615
267.3978	0.1587
267.6118	0.1688
267.8258	0.1642
268.0398	0.1485
268.2538	0.1605
268.4677	0.168
268.6817	0.1549
268.8957	0.1494
269.1096	0.1588
269.3235	0.1481
269.5374	0.1481
269.7514	0.1376
269.9652	0.1541
270.1791	0.1419
270.393	0.1476
270.6068	0.1519
270.8207	0.132
271.0345	0.1337
271.2483	0.1587
271.4622	0.1409
271.676	0.1418
271.8897	0.1318
272.1035	0.138
272.3173	0.1418
272.531	0.1459
272.7448	0.1357
272.9585	0.1275
273.1722	0.1356
273.3859	0.1402
273.5996	0.1271
273.8133	0.1419
274.0269	0.136
274.2406	0.1209
274.4542	0.1371
274.6679	0.1194
274.8815	0.137
275.0951	0.1426
275.3087	0.1427
275.5223	0.1503
275.7358	0.1381
275.9494	0.1374
276.1629	0.1278
276.3765	0.1373
276.59	0.1394
276.8035	0.1426
277.017	0.1345
277.2305	0.1288
277.444	0.158
277.6574	0.137
277.8709	0.1386
278.0843	0.1398
278.2978	0.1431
278.5112	0.127
278.7246	0.1365
278.938	0.1349
279.1513	0.1475
279.3647	0.1471
279.5781	0.1352
279.7914	0.1427
280.0047	0.154
280.2181	0.1421
280.4314	0.1499
280.6447	0.1475
280.8579	0.1415
281.0712	0.1457
281.2845	0.1476
281.4977	0.1474
281.711	0.1386
281.9242	0.1395
282.1374	0.1554
282.3506	0.1448
282.5638	0.1527
282.7769	0.1486
282.9901	0.15
283.2033	0.157
283.4164	0.1509
283.6295	0.1482
283.8426	0.1402
284.0557	0.1535
284.2688	0.1522
284.4819	0.1423
284.695	0.1527
284.908	0.1581
285.1211	0.1481
285.3341	0.1489
285.5471	0.1617
285.7601	0.1509
285.9731	0.14
286.1861	0.1441
286.3991	0.1633
286.612	0.1642
286.825	0.1506
287.0379	0.1654
287.2508	0.1511
287.4637	0.1655
287.6766	0.1518
287.8895	0.1612
288.1024	0.1705
288.3152	0.1557
288.5281	0.1481
288.7409	0.158
288.9538	0.1551
289.1666	0.1599
289.3794	0.1562
289.5922	0.1531
289.8049	0.1589
290.0177	0.1645
290.2304	0.1656
290.4432	0.1648
290.6559	0.1598
290.8686	0.1709
291.0813	0.158
291.294	0.1717
291.5067	0.1727
291.7194	0.1548
291.932	0.1738
292.1447	0.1629
292.3573	0.1542
292.5699	0.1666
292.7825	0.1659
292.9951	0.1618
293.2077	0.1682
293.4203	0.1727
293.6328	0.1521
293.8454	0.1775
294.0579	0.1641
294.2704	0.158
294.4829	0.1587
294.6954	0.1593
294.9079	0.1572
295.1204	0.1622
295.3328	0.1653
295.5453	0.177
295.7577	0.1607
295.9701	0.1405
296.1825	0.1593
296.3949	0.1623
296.6073	0.1659
296.8197	0.157
297.0321	0.1725
297.2444	0.1566
297.4567	0.1587
297.6691	0.1653
297.8814	0.1567
298.0937	0.1562
298.306	0.1597
298.5182	0.1579
298.7305	0.169
298.9428	0.1495
299.155	0.1651
299.3672	0.153
299.5794	0.1674
299.7916	0.1618
300.0038	0.1698
300.216	0.1717
300.4282	0.1682
300.6403	0.1567
300.8525	0.1596
301.0646	0.1558
301.2767	0.1683
301.4888	0.1628
301.7009	0.1591
301.913	0.1578
302.125	0.1676
302.3371	0.161
302.5491	0.1659
302.7612	0.171
302.9732	0.1669
303.1852	0.1515
303.3972	0.1606
303.6092	0.1525
303.8211	0.1601
304.0331	0.1533
304.245	0.1581
304.457	0.1528
304.6689	0.1415
304.8808	0.1663
305.0927	0.1454
305.3046	0.1479
305.5164	0.1628
305.7283	0.1395
305.9401	0.1613
306.152	0.1565
306.3638	0.1451
306.5756	0.1459
306.7874	0.1505
306.9992	0.1519
307.2109	0.143
307.4227	0.1247
307.6344	0.1335
307.8462	0.1378
308.0579	0.132
308.2696	0.1261
308.4813	0.1344
308.693	0.1328
308.9046	0.1401
309.1163	0.1298
309.328	0.1345
309.5396	0.1184
309.7512	0.1204
309.9628	0.1173
310.1744	0.1223
310.386	0.1113
310.5976	0.1114
310.8091	0.1186
311.0207	0.1166
311.2322	0.1134
311.4437	0.0999
311.6552	0.1089
311.8667	0.1133
312.0782	0.0991
312.2897	0.1025
312.5012	0.1109
312.7126	0.0997
312.924	0.0945
313.1355	0.1116
313.3469	0.0958
313.5583	0.1025
313.7696	0.1002
313.981	0.0991
314.1924	0.0914
314.4037	0.1019
314.6151	0.1076
314.8264	0.0993
315.0377	0.1025
315.249	0.1074
315.4603	0.0971
315.6716	0.1
315.8828	0.0897
316.0941	0.0965
316.3053	0.0936
316.5165	0.0916
316.7277	0.0852
316.9389	0.0972
317.1501	0.0878
317.3613	0.0975
317.5724	0.0907
317.7836	0.0902
317.9947	0.0863
318.2058	0.0896
318.417	0.0885
318.6281	0.0747
318.8391	0.0874
319.0502	0.0782
319.2613	0.0928
319.4723	0.0974
319.6834	0.1056
319.8944	0.0812
320.1054	0.0913
320.3164	0.1008
320.5274	0.0874
320.7383	0.0882
320.9493	0.0974
321.1602	0.1057
321.3712	0.0782
321.5821	0.1034
321.793	0.0966
322.0039	0.1005
322.2148	0.0902
322.4257	0.0953
322.6365	0.1078
322.8474	0.1052
323.0582	0.0962
323.269	0.0997
323.4798	0.1073
323.6906	0.0988
323.9014	0.0907
324.1122	0.0941
324.3229	0.093
324.5337	0.0948
324.7444	0.0817
324.9551	0.1077
325.1658	0.0984
325.3765	0.0983
325.5872	0.0992
325.7979	0.0945
326.0085	0.1
326.2192	0.1045
326.4298	0.1057
326.6404	0.0972
326.851	0.0864
327.0616	0.0954
327.2722	0.1028
327.4828	0.0962
327.6933	0.0928
327.9039	0.105
328.1144	0.1035
328.3249	0.1053
328.5354	0.0931
328.7459	0.1006
328.9564	0.0928
329.1669	0.097
329.3773	0.0997
329.5878	0.0998
329.7982	0.0975
330.0086	0.0993
330.219	0.104
330.4294	0.0945
330.6398	0.1015
330.8502	0.0946
331.0605	0.096
331.2708	0.1006
331.4812	0.1026
331.6915	0.1026
331.9018	0.1115
332.1121	0.0948
332.3224	0.0953
332.5326	0.0996
332.7429	0.1106
332.9531	0.1037
333.1633	0.1043
333.3735	0.0986
333.5837	0.0944
333.7939	0.0919
334.0041	0.1046
334.2143	0.1128
334.4244	0.1026
334.6346	0.0871
334.8447	0.1067
335.0548	0.097
335.2649	0.1011
335.475	0.1202
335.685	0.0967
335.8951	0.1205
336.1051	0.1109
336.3152	0.095
336.5252	0.0977
336.7352	0.1038
336.9452	0.1132
337.1552	0.1096
337.3652	0.1116
337.5751	0.0956
337.7851	0.1046
337.995	0.0949
338.2049	0.1054
338.4148	0.0996
338.6247	0.1015
338.8346	0.1035
339.0445	0.1041
339.2543	0.1029
339.4642	0.1049
339.674	0.1019
339.8838	0.1116
340.0936	0.1045
340.3034	0.1155
340.5132	0.1098
340.7229	0.1194
340.9327	0.1099
341.1424	0.1013
341.3522	0.1194
341.5619	0.1225
341.7716	0.12
341.9813	0.1154
342.1909	0.1086
342.4006	0.1082
342.6102	0.1212
342.8199	0.1188
343.0295	0.1143
343.2391	0.1123
343.4487	0.1205
343.6583	0.114
343.8679	0.1144
344.0774	0.1165
344.287	0.1256
344.4965	0.1156
344.706	0.1267
344.9155	0.1193
345.125	0.1206
345.3345	0.125
345.544	0.1267
345.7534	0.1271
345.9629	0.1195
346.1723	0.1267
346.3817	0.1243
346.5911	0.1194
346.8005	0.1235
347.0099	0.1215
347.2193	0.1206
347.4286	0.1283
347.638	0.1363
347.8473	0.1344
348.0566	0.1242
348.2659	0.1328
348.4752	0.1331
348.6845	0.126
348.8937	0.1274
349.103	0.1377
349.3122	0.1331
349.5214	0.1258
349.7306	0.1344
349.9398	0.1413
350.149	0.1284
350.3582	0.1236
350.5674	0.135
350.7765	0.1323
350.9856	0.136
351.1948	0.1301
351.4039	0.1093
351.613	0.1257
351.822	0.1345
352.0311	0.1491
352.2402	0.1464
352.4492	0.1473
352.6582	0.1333
352.8672	0.1356
353.0762	0.1302
353.2852	0.15
353.4942	0.1317
353.7032	0.1474
353.9121	0.152
354.1211	0.145
354.33	0.1413
354.5389	0.1459
354.7478	0.1529
354.9567	0.1579
355.1655	0.1491
355.3744	0.1544
355.5833	0.1653
355.7921	0.1695
356.0009	0.1393
356.2097	0.171
356.4185	0.1606
356.6273	0.1578
356.8361	0.1545
357.0448	0.1527
357.2536	0.1504
357.4623	0.1535
357.671	0.1544
357.8797	0.1472
358.0884	0.1527
358.2971	0.1491
358.5057	0.1564
358.7144	0.1769
358.923	0.1563
359.1316	0.1654
359.3402	0.1704
359.5488	0.1706
359.7574	0.1614
359.966	0.1762
360.1746	0.1766
360.3831	0.1694
360.5916	0.1617
360.8002	0.1732
361.0087	0.1831
361.2172	0.1756
361.4256	0.176
361.6341	0.1735
361.8426	0.1835
362.051	0.1811
362.2594	0.1753
362.4678	0.1642
362.6762	0.2034
362.8846	0.192
363.093	0.1805
363.3014	0.1757
363.5097	0.1669
363.718	0.1802
363.9264	0.1872
364.1347	0.1815
364.343	0.201
364.5513	0.2027
364.7595	0.1851
364.9678	0.1958
365.176	0.1942
365.3842	0.1871
365.5925	0.2054
365.8007	0.2046
366.0089	0.194
366.217	0.1953
366.4252	0.206
366.6333	0.2161
366.8415	0.2093
367.0496	0.1874
367.2577	0.2127
367.4658	0.2212
367.6739	0.2086
367.882	0.2248
368.09	0.2122
368.2981	0.212
368.5061	0.2074
368.7141	0.2249
368.9221	0.2242
369.1301	0.2184
369.3381	0.2029
369.5461	0.2177
369.754	0.218
369.962	0.2072
370.1699	0.2108
370.3778	0.2114
370.5857	0.1918
370.7936	0.2253
371.0015	0.2185
371.2093	0.2147
371.4172	0.2254
371.625	0.2262
371.8328	0.2217
372.0406	0.2268
372.2484	0.2205
372.4562	0.2267
372.664	0.2292
372.8717	0.2486
373.0795	0.2122
373.2872	0.2355
373.4949	0.2436
373.7026	0.2384
373.9103	0.2417
374.118	0.2384
374.3256	0.231
374.5333	0.2138
374.7409	0.2274
374.9485	0.2397
375.1561	0.2427
375.3637	0.237
375.5713	0.2257
375.7789	0.234
375.9864	0.2339
376.194	0.2375
376.4015	0.2617
376.609	0.2441
376.8165	0.2399
377.024	0.2314
377.2315	0.2276
377.4389	0.2407
377.6464	0.257
377.8538	0.2525
378.0612	0.2278
378.2686	0.2288
378.476	0.2647
378.6834	0.2417
378.8908	0.2568
379.0981	0.2535
379.3055	0.2481
379.5128	0.2565
379.7201	0.2859
379.9274	0.2393
380.1347	0.2494
380.342	0.2767
380.5492	0.2531
380.7565	0.2607
380.9637	0.2482
381.1709	0.245
381.3781	0.2487
381.5853	0.2715
381.7925	0.268
381.9997	0.2656
382.2068	0.2475
382.4139	0.2538
382.6211	0.2318
382.8282	0.2516
383.0353	0.2559
383.2424	0.2755
383.4494	0.27
383.6565	0.2684
383.8635	0.2591
384.0706	0.2667
384.2776	0.2675
384.4846	0.2565
384.6916	0.2717
384.8986	0.2601
385.1055	0.2587
385.3125	0.2724
385.5194	0.2366
385.7263	0.2633
385.9333	0.2752
386.1402	0.2717
386.347	0.2827
386.5539	0.2573
386.7608	0.27
386.9676	0.2422
387.1744	0.2711
387.3813	0.2396
387.5881	0.2666
387.7948	0.2586
388.0016	0.2675
388.2084	0.2503
388.4151	0.245
388.6219	0.2685
388.8286	0.2575
389.0353	0.264
389.242	0.2498
389.4487	0.2493
389.6553	0.2446
389.862	0.2318
390.0686	0.2613
390.2753	0.2565
390.4819	0.2519
390.6885	0.2429
390.8951	0.2481
391.1016	0.2281
391.3082	0.241
391.5147	0.2473
391.7213	0.2393
391.9278	0.2368
392.1343	0.2544
392.3408	0.2462
392.5473	0.2273
392.7537	0.2395
392.9602	0.2295
393.1666	0.2377
393.373	0.2495
393.5794	0.251
393.7858	0.2478
393.9922	0.2346
394.1986	0.2432
394.4049	0.2505
394.6113	0.238
394.8176	0.2153
395.0239	0.2337
395.2302	0.2277
395.4365	0.2295
395.6428	0.2151
395.8491	0.2217
396.0553	0.2206
396.2615	0.234
396.4678	0.2338
396.674	0.2272
396.8802	0.2301
397.0863	0.2416
397.2925	0.2121
397.4987	0.216
397.7048	0.2121
397.9109	0.2272
398.117	0.2086
398.3231	0.225
398.5292	0.2377
398.7353	0.2344
398.9413	0.2055
399.1474	0.2081
399.3534	0.2121
399.5594	0.2119
399.7654	0.2382
399.9714	0.225
400.1774	0.2178
400.3833	0.2321
400.5893	0.2189
400.7952	0.2262
401.0011	0.227
401.207	0.2143
401.4129	0.2277
401.6188	0.2101
401.8247	0.2076
402.0305	0.2087
402.2364	0.2134
402.4422	0.2272
402.648	0.2081
402.8538	0.2179
403.0596	0.1975
403.2654	0.2222
403.4711	0.2073
403.6768	0.2095
403.8826	0.2372
404.0883	0.2108
404.294	0.2283
404.4997	0.2239
404.7054	0.2116
404.911	0.2164
405.1167	0.2127
405.3223	0.2313
405.5279	0.2206
405.7335	0.2198
405.9391	0.2285
406.1447	0.2076
406.3502	0.2463
406.5558	0.2121
406.7613	0.2174
406.9668	0.2009
407.1724	0.2178
407.3778	0.2031
407.5833	0.2043
407.7888	0.1996
407.9942	0.2382
408.1997	0.2193
408.4051	0.2152
408.6105	0.2193
408.8159	0.2129
409.0213	0.2173
409.2267	0.236
409.432	0.2076
409.6374	0.2368
409.8427	0.1953
410.048	0.2096
410.2533	0.2123
410.4586	0.2258
410.6639	0.2162
410.8691	0.1955
411.0744	0.2225
411.2796	0.2231
411.4848	0.2095
411.69	0.2095
411.8952	0.2376
412.1004	0.1925
412.3056	0.2158
412.5107	0.1995
412.7158	0.2256
412.921	0.2148
413.1261	0.2186
413.3312	0.2031
413.5362	0.2176
413.7413	0.217
413.9464	0.2124
414.1514	0.2072
414.3564	0.2261
414.5614	0.1945
414.7664	0.2186
414.9714	0.2132
415.1764	0.2008
415.3813	0.2401
415.5863	0.1978
415.7912	0.2068
415.9961	0.2235
416.201	0.2166
416.4059	0.2035
416.6108	0.212
416.8156	0.2087
417.0205	0.2223
417.2253	0.2045
417.4301	0.219
417.6349	0.2264
417.8397	0.213
418.0445	0.2119
418.2492	0.2321
418.454	0.2135
418.6587	0.1985
418.8634	0.2215
419.0681	0.188
419.2728	0.1958
419.4775	0.193
419.6822	0.1975
419.8868	0.2042
420.0915	0.1927
420.2961	0.1999
420.5007	0.1913
420.7053	0.2191
420.9099	0.2036
421.1144	0.1985
421.319	0.1896
421.5235	0.201
421.728	0.1869
421.9325	0.1906
422.137	0.2021
422.3415	0.1897
422.546	0.201
422.7504	0.2169
422.9549	0.2178
423.1593	0.1772
423.3637	0.2001
423.5681	0.1718
423.7725	0.1873
423.9769	0.1678
424.1812	0.1898
424.3856	0.1795
424.5899	0.1988
424.7942	0.1837
424.9985	0.1952
425.2028	0.1686
425.4071	0.197
425.6113	0.1704
425.8156	0.1714
426.0198	0.1845
426.224	0.1589
426.4282	0.1762
426.6324	0.1735
