Data from MonoPyChalIsomerACN10uM440nmA_Absorbance_15-27-12-194.txt Node
Date: Fri Jul 05 15:27:12 BST 2024
User: LASERRRRR
Spectrometer: FLMT03099
Trigger mode: 0
Integration Time (sec): 1.000000E-1
Scans to average: 1
Electric dark correction enabled: true
Nonlinearity correction enabled: false
Boxcar width: 0
XAxis mode: Wavelengths
Number of Pixels in Spectrum: 3648
>>>>>Begin Spectral Data<<<<<
179.3399	-0.3843
179.5586	-0.3843
179.7771	-0.3843
179.9957	0.1828
180.2143	-0
180.4329	-0.4406
180.6514	-0
180.8699	-0
181.0885	-0.2206
181.307	0.0124
181.5255	-0.3696
181.744	-0.2292
181.9625	-0.4547
182.181	-0
182.3994	0.0924
182.6179	-0.173
182.8363	0.1047
183.0547	-0.4009
183.2732	-0.0319
183.4916	0.3543
183.71	0.2045
183.9284	0.1233
184.1467	-0.0846
184.3651	0.0438
184.5835	-0.1705
184.8018	-0.1157
185.0201	-0.1447
185.2385	-0.0402
185.4568	0.496
185.6751	-0.0347
185.8934	0.1223
186.1117	0.1438
186.3299	0.07
186.5482	0.0876
186.7664	-0.1099
186.9847	-0.0319
187.2029	0.1056
187.4211	-0.0372
187.6393	0.3534
187.8575	-0.0245
188.0757	0.2767
188.2939	0.1789
188.512	0.0061
188.7302	0.2857
188.9483	0.0899
189.1665	0.0179
189.3846	-0.2754
189.6027	0.3898
189.8208	0.0896
190.0389	0.1077
190.257	0.2233
190.475	0.1947
190.6931	0.1006
190.9111	0.4027
191.1292	0.2477
191.3472	0.7152
191.5652	0.2624
191.7832	0.1568
192.0012	0.3307
192.2192	0.2636
192.4371	0.2698
192.6551	0.2565
192.873	0.4555
193.091	0.3034
193.3089	0.5488
193.5268	0.5709
193.7447	0.5532
193.9626	0.4301
194.1805	0.678
194.3984	0.4667
194.6162	0.5677
194.8341	0.6778
195.0519	0.4929
195.2697	0.8291
195.4875	0.685
195.7054	0.6615
195.9231	0.5189
196.1409	0.5356
196.3587	0.6036
196.5765	0.5529
196.7942	0.4913
197.012	0.5855
197.2297	0.5938
197.4474	0.5785
197.6651	0.5344
197.8828	0.5665
198.1005	0.7645
198.3182	0.6849
198.5358	0.6579
198.7535	0.6111
198.9711	0.5487
199.1888	0.6223
199.4064	0.7221
199.624	0.6033
199.8416	0.5654
200.0592	0.694
200.2767	0.7659
200.4943	0.6783
200.7119	0.6569
200.9294	0.5071
201.1469	0.5504
201.3645	0.5798
201.582	0.5615
201.7995	0.5756
202.017	0.6017
202.2344	0.6012
202.4519	0.6256
202.6694	0.6279
202.8868	0.6412
203.1042	0.8165
203.3217	0.6508
203.5391	0.6666
203.7565	0.6235
203.9739	0.6951
204.1913	0.6567
204.4086	0.679
204.626	0.7108
204.8433	0.5995
205.0607	0.5518
205.278	0.6784
205.4953	0.69
205.7126	0.741
205.9299	0.7775
206.1472	0.7105
206.3644	0.6695
206.5817	0.7474
206.7989	0.6043
207.0162	0.6947
207.2334	0.6626
207.4506	0.6639
207.6678	0.67
207.885	0.7129
208.1022	0.6026
208.3194	0.7347
208.5365	0.7362
208.7537	0.7036
208.9708	0.5877
209.1879	0.6526
209.405	0.7215
209.6222	0.7414
209.8392	0.6194
210.0563	0.6196
210.2734	0.6621
210.4905	0.6473
210.7075	0.6319
210.9245	0.6354
211.1416	0.7492
211.3586	0.6318
211.5756	0.6188
211.7926	0.6706
212.0096	0.6134
212.2265	0.5522
212.4435	0.6472
212.6604	0.5921
212.8774	0.6204
213.0943	0.5658
213.3112	0.5574
213.5281	0.5432
213.745	0.4947
213.9619	0.511
214.1788	0.4834
214.3956	0.4982
214.6125	0.4355
214.8293	0.4476
215.0461	0.5149
215.2629	0.4591
215.4798	0.5181
215.6965	0.4332
215.9133	0.4231
216.1301	0.4069
216.3469	0.4624
216.5636	0.4258
216.7803	0.4025
216.9971	0.4105
217.2138	0.3973
217.4305	0.3957
217.6472	0.3476
217.8639	0.3926
218.0805	0.3643
218.2972	0.3279
218.5138	0.3171
218.7305	0.337
218.9471	0.2793
219.1637	0.3013
219.3803	0.2668
219.5969	0.2734
219.8135	0.246
220.0301	0.2678
220.2466	0.284
220.4632	0.2589
220.6797	0.2261
220.8962	0.2487
221.1127	0.2571
221.3292	0.2368
221.5457	0.2451
221.7622	0.2259
221.9787	0.2559
222.1951	0.2251
222.4116	0.2764
222.628	0.2324
222.8444	0.258
223.0608	0.2497
223.2772	0.2493
223.4936	0.2551
223.71	0.2544
223.9264	0.2592
224.1427	0.2648
224.3591	0.2329
224.5754	0.2747
224.7917	0.2647
225.008	0.2642
225.2243	0.2655
225.4406	0.2831
225.6569	0.2629
225.8732	0.2494
226.0894	0.2618
226.3057	0.2642
226.5219	0.2878
226.7381	0.2728
226.9543	0.2896
227.1705	0.3017
227.3867	0.2742
227.6029	0.2795
227.8191	0.2843
228.0352	0.3009
228.2513	0.3119
228.4675	0.3132
228.6836	0.3113
228.8997	0.3117
229.1158	0.3126
229.3319	0.2935
229.548	0.2964
229.764	0.3023
229.9801	0.3292
230.1961	0.3305
230.4121	0.3337
230.6282	0.3151
230.8442	0.3196
231.0602	0.3554
231.2761	0.3228
231.4921	0.3271
231.7081	0.3618
231.924	0.3269
232.14	0.351
232.3559	0.3305
232.5718	0.3324
232.7877	0.3668
233.0036	0.3329
233.2195	0.3472
233.4353	0.3396
233.6512	0.374
233.867	0.335
234.0829	0.3418
234.2987	0.3746
234.5145	0.3612
234.7303	0.3568
234.9461	0.3682
235.1619	0.3993
235.3776	0.3768
235.5934	0.3829
235.8091	0.3493
236.0249	0.3786
236.2406	0.3918
236.4563	0.3829
236.672	0.4023
236.8877	0.4032
237.1034	0.3939
237.319	0.3781
237.5347	0.4121
237.7503	0.4186
237.966	0.419
238.1816	0.4188
238.3972	0.4005
238.6128	0.3826
238.8284	0.3887
239.0439	0.4131
239.2595	0.3988
239.475	0.4124
239.6906	0.4021
239.9061	0.4074
240.1216	0.3759
240.3371	0.4019
240.5526	0.3981
240.7681	0.4082
240.9836	0.3782
241.199	0.404
241.4145	0.3789
241.6299	0.3734
241.8453	0.3673
242.0607	0.3687
242.2761	0.3721
242.4915	0.3451
242.7069	0.3538
242.9223	0.3554
243.1376	0.3553
243.353	0.3474
243.5683	0.3302
243.7836	0.3056
243.9989	0.3205
244.2142	0.2945
244.4295	0.2989
244.6448	0.2987
244.86	0.2728
245.0753	0.2851
245.2905	0.265
245.5057	0.2685
245.721	0.2683
245.9362	0.2656
246.1514	0.2658
246.3665	0.2441
246.5817	0.2607
246.7969	0.2462
247.012	0.2413
247.2271	0.2236
247.4423	0.2494
247.6574	0.2257
247.8725	0.2188
248.0876	0.221
248.3026	0.2236
248.5177	0.2223
248.7328	0.2099
248.9478	0.1973
249.1628	0.2095
249.3779	0.2102
249.5929	0.1944
249.8079	0.2121
250.0228	0.1947
250.2378	0.2016
250.4528	0.2021
250.6677	0.1907
250.8827	0.1907
251.0976	0.1843
251.3125	0.1833
251.5274	0.1789
251.7423	0.1818
251.9572	0.1866
252.172	0.1674
252.3869	0.1746
252.6017	0.1759
252.8166	0.1654
253.0314	0.1707
253.2462	0.1587
253.461	0.1688
253.6758	0.1662
253.8906	0.1804
254.1053	0.1658
254.3201	0.1689
254.5348	0.1768
254.7496	0.179
254.9643	0.1566
255.179	0.1667
255.3937	0.159
255.6083	0.1739
255.823	0.1727
256.0377	0.1577
256.2523	0.1609
256.467	0.1623
256.6816	0.1665
256.8962	0.1527
257.1108	0.1523
257.3254	0.1669
257.54	0.1635
257.7545	0.1577
257.9691	0.1728
258.1836	0.1562
258.3981	0.1709
258.6127	0.1695
258.8272	0.1466
259.0417	0.1594
259.2561	0.1598
259.4706	0.158
259.6851	0.169
259.8995	0.153
260.114	0.1533
260.3284	0.1603
260.5428	0.1539
260.7572	0.1657
260.9716	0.1607
261.186	0.1545
261.4003	0.1553
261.6147	0.1617
261.829	0.1609
262.0433	0.1528
262.2577	0.1544
262.472	0.171
262.6863	0.1505
262.9005	0.1672
263.1148	0.1566
263.3291	0.1525
263.5433	0.1487
263.7576	0.1631
263.9718	0.1715
264.186	0.1628
264.4002	0.1616
264.6144	0.1527
264.8286	0.1606
265.0427	0.1616
265.2569	0.1574
265.471	0.156
265.6851	0.1544
265.8993	0.1522
266.1134	0.1525
266.3275	0.1529
266.5415	0.1629
266.7556	0.1563
266.9697	0.1508
267.1837	0.1559
267.3978	0.1559
267.6118	0.1591
267.8258	0.1759
268.0398	0.1409
268.2538	0.1569
268.4677	0.1526
268.6817	0.1477
268.8957	0.1551
269.1096	0.1604
269.3235	0.1684
269.5374	0.153
269.7514	0.1489
269.9652	0.1465
270.1791	0.1453
270.393	0.1384
270.6068	0.1501
270.8207	0.1423
271.0345	0.1281
271.2483	0.1422
271.4622	0.1318
271.676	0.1482
271.8897	0.1251
272.1035	0.1326
272.3173	0.1432
272.531	0.1485
272.7448	0.1325
272.9585	0.1304
273.1722	0.1352
273.3859	0.1417
273.5996	0.1231
273.8133	0.135
274.0269	0.1252
274.2406	0.1215
274.4542	0.1402
274.6679	0.1232
274.8815	0.1366
275.0951	0.1294
275.3087	0.1464
275.5223	0.145
275.7358	0.1365
275.9494	0.142
276.1629	0.1223
276.3765	0.1381
276.59	0.1383
276.8035	0.1416
277.017	0.1274
277.2305	0.131
277.444	0.1427
277.6574	0.1405
277.8709	0.143
278.0843	0.1384
278.2978	0.1351
278.5112	0.1295
278.7246	0.1365
278.938	0.1381
279.1513	0.1432
279.3647	0.1505
279.5781	0.1372
279.7914	0.1379
280.0047	0.1455
280.2181	0.1417
280.4314	0.137
280.6447	0.1488
280.8579	0.1422
281.0712	0.1431
281.2845	0.1575
281.4977	0.1444
281.711	0.1278
281.9242	0.1355
282.1374	0.1487
282.3506	0.1489
282.5638	0.1364
282.7769	0.146
282.9901	0.1448
283.2033	0.1562
283.4164	0.1525
283.6295	0.1371
283.8426	0.1474
284.0557	0.1479
284.2688	0.1604
284.4819	0.1514
284.695	0.1516
284.908	0.1582
285.1211	0.1437
285.3341	0.156
285.5471	0.1643
285.7601	0.152
285.9731	0.1479
286.1861	0.1403
286.3991	0.1566
286.612	0.1649
286.825	0.1556
287.0379	0.1651
287.2508	0.1529
287.4637	0.1539
287.6766	0.1481
287.8895	0.1598
288.1024	0.1623
288.3152	0.1546
288.5281	0.1538
288.7409	0.1554
288.9538	0.1638
289.1666	0.1603
289.3794	0.1663
289.5922	0.1572
289.8049	0.1483
290.0177	0.1523
290.2304	0.1616
290.4432	0.1674
290.6559	0.1649
290.8686	0.1608
291.0813	0.1558
291.294	0.1655
291.5067	0.1715
291.7194	0.1654
291.932	0.1672
292.1447	0.1665
292.3573	0.1624
292.5699	0.167
292.7825	0.1564
292.9951	0.1684
293.2077	0.167
293.4203	0.1558
293.6328	0.1565
293.8454	0.1606
294.0579	0.1689
294.2704	0.1643
294.4829	0.159
294.6954	0.166
294.9079	0.1698
295.1204	0.1609
295.3328	0.1657
295.5453	0.1637
295.7577	0.1679
295.9701	0.162
296.1825	0.1606
296.3949	0.1668
296.6073	0.157
296.8197	0.1584
297.0321	0.1794
297.2444	0.1572
297.4567	0.159
297.6691	0.1639
297.8814	0.1571
298.0937	0.1588
298.306	0.1602
298.5182	0.1568
298.7305	0.1745
298.9428	0.1499
299.155	0.1652
299.3672	0.1637
299.5794	0.1581
299.7916	0.167
300.0038	0.1671
300.216	0.1763
300.4282	0.1784
300.6403	0.1598
300.8525	0.1711
301.0646	0.1621
301.2767	0.1576
301.4888	0.1679
301.7009	0.1579
301.913	0.1617
302.125	0.1671
302.3371	0.1519
302.5491	0.1602
302.7612	0.1758
302.9732	0.1649
303.1852	0.1741
303.3972	0.1627
303.6092	0.1557
303.8211	0.1492
304.0331	0.156
304.245	0.1594
304.457	0.1524
304.6689	0.159
304.8808	0.1704
305.0927	0.1466
305.3046	0.1574
305.5164	0.1558
305.7283	0.1415
305.9401	0.146
306.152	0.1436
306.3638	0.1571
306.5756	0.1549
306.7874	0.1494
306.9992	0.1443
307.2109	0.1393
307.4227	0.1297
307.6344	0.1306
307.8462	0.1319
308.0579	0.1325
308.2696	0.126
308.4813	0.1214
308.693	0.1294
308.9046	0.1313
309.1163	0.1336
309.328	0.1219
309.5396	0.127
309.7512	0.1161
309.9628	0.1222
310.1744	0.124
310.386	0.113
310.5976	0.1108
310.8091	0.1172
311.0207	0.1106
311.2322	0.1177
311.4437	0.1066
311.6552	0.1065
311.8667	0.1188
312.0782	0.0906
312.2897	0.096
312.5012	0.1111
312.7126	0.0957
312.924	0.0937
313.1355	0.105
313.3469	0.0981
313.5583	0.1
313.7696	0.1069
313.981	0.1086
314.1924	0.0968
314.4037	0.0975
314.6151	0.093
314.8264	0.0944
315.0377	0.1091
315.249	0.0986
315.4603	0.1071
315.6716	0.0982
315.8828	0.0903
316.0941	0.0913
316.3053	0.0871
316.5165	0.088
316.7277	0.0884
316.9389	0.1035
317.1501	0.0878
317.3613	0.0885
317.5724	0.0791
317.7836	0.0938
317.9947	0.0898
318.2058	0.1006
318.417	0.0777
318.6281	0.0749
318.8391	0.0886
319.0502	0.0881
319.2613	0.0889
319.4723	0.1072
319.6834	0.1057
319.8944	0.0758
320.1054	0.0895
320.3164	0.0863
320.5274	0.0744
320.7383	0.0843
320.9493	0.0954
321.1602	0.1078
321.3712	0.0735
321.5821	0.102
321.793	0.0951
322.0039	0.0907
322.2148	0.0961
322.4257	0.0961
322.6365	0.0983
322.8474	0.0839
323.0582	0.0881
323.269	0.0973
323.4798	0.1021
323.6906	0.0895
323.9014	0.0951
324.1122	0.0967
324.3229	0.0791
324.5337	0.097
324.7444	0.0879
324.9551	0.1092
325.1658	0.0916
325.3765	0.1063
325.5872	0.1062
325.7979	0.0885
326.0085	0.0992
326.2192	0.0871
326.4298	0.0933
326.6404	0.0896
326.851	0.0919
327.0616	0.1043
327.2722	0.1024
327.4828	0.1088
327.6933	0.0885
327.9039	0.1054
328.1144	0.1072
328.3249	0.1094
328.5354	0.0901
328.7459	0.1048
328.9564	0.0884
329.1669	0.0965
329.3773	0.0895
329.5878	0.0946
329.7982	0.0934
330.0086	0.095
330.219	0.0958
330.4294	0.0943
330.6398	0.1132
330.8502	0.0812
331.0605	0.1045
331.2708	0.098
331.4812	0.1024
331.6915	0.0965
331.9018	0.1019
332.1121	0.0937
332.3224	0.0982
332.5326	0.099
332.7429	0.0924
332.9531	0.1075
333.1633	0.0899
333.3735	0.1065
333.5837	0.1061
333.7939	0.1113
334.0041	0.1116
334.2143	0.1058
334.4244	0.1067
334.6346	0.0826
334.8447	0.1159
335.0548	0.0871
335.2649	0.0897
335.475	0.1118
335.685	0.0954
335.8951	0.1073
336.1051	0.1088
336.3152	0.1219
336.5252	0.0954
336.7352	0.1102
336.9452	0.1108
337.1552	0.1085
337.3652	0.1105
337.5751	0.1033
337.7851	0.1029
337.995	0.0965
338.2049	0.0998
338.4148	0.1014
338.6247	0.1156
338.8346	0.0999
339.0445	0.0998
339.2543	0.1026
339.4642	0.1
339.674	0.0974
339.8838	0.1108
340.0936	0.1086
340.3034	0.1155
340.5132	0.1138
340.7229	0.1161
340.9327	0.107
341.1424	0.1074
341.3522	0.1106
341.5619	0.1243
341.7716	0.1123
341.9813	0.1127
342.1909	0.1057
342.4006	0.1267
342.6102	0.1193
342.8199	0.1105
343.0295	0.1231
343.2391	0.1135
343.4487	0.1149
343.6583	0.1121
343.8679	0.1144
344.0774	0.1257
344.287	0.1244
344.4965	0.1131
344.706	0.124
344.9155	0.1158
345.125	0.1168
345.3345	0.1162
345.544	0.1127
345.7534	0.1288
345.9629	0.1178
346.1723	0.1285
346.3817	0.1093
346.5911	0.1154
346.8005	0.1307
347.0099	0.1159
347.2193	0.1259
347.4286	0.116
347.638	0.1281
347.8473	0.1357
348.0566	0.1349
348.2659	0.1237
348.4752	0.1303
348.6845	0.1213
348.8937	0.1319
349.103	0.1267
349.3122	0.1316
349.5214	0.1332
349.7306	0.1344
349.9398	0.1289
350.149	0.1376
350.3582	0.1254
350.5674	0.1462
350.7765	0.1365
350.9856	0.13
351.1948	0.1319
351.4039	0.1245
351.613	0.1318
351.822	0.137
352.0311	0.1406
352.2402	0.1443
352.4492	0.1383
352.6582	0.1358
352.8672	0.1357
353.0762	0.1402
353.2852	0.144
353.4942	0.131
353.7032	0.1452
353.9121	0.1524
354.1211	0.1513
354.33	0.1436
354.5389	0.1395
354.7478	0.1508
354.9567	0.1431
355.1655	0.1428
355.3744	0.1528
355.5833	0.1546
355.7921	0.1655
356.0009	0.1503
356.2097	0.1624
356.4185	0.1591
356.6273	0.1651
356.8361	0.1605
357.0448	0.1511
357.2536	0.1478
357.4623	0.1422
357.671	0.1469
357.8797	0.1709
358.0884	0.1689
358.2971	0.1551
358.5057	0.1721
358.7144	0.167
358.923	0.1664
359.1316	0.1749
359.3402	0.1486
359.5488	0.179
359.7574	0.1631
359.966	0.1717
360.1746	0.171
360.3831	0.1845
360.5916	0.1671
360.8002	0.1525
361.0087	0.1744
361.2172	0.1773
361.4256	0.171
361.6341	0.1761
361.8426	0.179
362.051	0.1948
362.2594	0.179
362.4678	0.185
362.6762	0.2129
362.8846	0.1786
363.093	0.1774
363.3014	0.1787
363.5097	0.1762
363.718	0.1812
363.9264	0.1918
364.1347	0.1844
364.343	0.1945
364.5513	0.2016
364.7595	0.1924
364.9678	0.1833
365.176	0.1863
365.3842	0.1998
365.5925	0.1982
365.8007	0.1867
366.0089	0.193
366.217	0.1872
366.4252	0.1958
366.6333	0.2105
366.8415	0.2039
367.0496	0.194
367.2577	0.2188
367.4658	0.2122
367.6739	0.2089
367.882	0.2096
368.09	0.2023
368.2981	0.2119
368.5061	0.1919
368.7141	0.2189
368.9221	0.2242
369.1301	0.2184
369.3381	0.2062
369.5461	0.2155
369.754	0.226
369.962	0.2224
370.1699	0.2187
370.3778	0.2116
370.5857	0.2064
370.7936	0.2093
371.0015	0.204
371.2093	0.2375
371.4172	0.2454
371.625	0.2123
371.8328	0.2163
372.0406	0.2167
372.2484	0.2232
372.4562	0.2138
372.664	0.2111
372.8717	0.2387
373.0795	0.2161
373.2872	0.2273
373.4949	0.2203
373.7026	0.2296
373.9103	0.2562
374.118	0.2295
374.3256	0.2372
374.5333	0.2172
374.7409	0.2176
374.9485	0.238
375.1561	0.2361
375.3637	0.2385
375.5713	0.2444
375.7789	0.2437
375.9864	0.2396
376.194	0.2182
376.4015	0.2522
376.609	0.2375
376.8165	0.2241
377.024	0.2344
377.2315	0.2377
377.4389	0.2537
377.6464	0.2575
377.8538	0.2408
378.0612	0.2339
378.2686	0.2469
378.476	0.2618
378.6834	0.2585
378.8908	0.264
379.0981	0.2512
379.3055	0.252
379.5128	0.2314
379.7201	0.2482
379.9274	0.241
380.1347	0.269
380.342	0.2692
380.5492	0.2508
380.7565	0.26
380.9637	0.2583
381.1709	0.2525
381.3781	0.2629
381.5853	0.2661
381.7925	0.2678
381.9997	0.269
382.2068	0.2724
382.4139	0.2583
382.6211	0.2666
382.8282	0.2485
383.0353	0.2513
383.2424	0.265
383.4494	0.2695
383.6565	0.2487
383.8635	0.2648
384.0706	0.2526
384.2776	0.2602
384.4846	0.262
384.6916	0.2668
384.8986	0.2523
385.1055	0.2594
385.3125	0.2747
385.5194	0.2478
385.7263	0.2805
385.9333	0.2671
386.1402	0.2606
386.347	0.2686
386.5539	0.2529
386.7608	0.2512
386.9676	0.2547
387.1744	0.2653
387.3813	0.2633
387.5881	0.2723
387.7948	0.2512
388.0016	0.261
388.2084	0.2676
388.4151	0.2402
388.6219	0.2761
388.8286	0.2727
389.0353	0.2734
389.242	0.2591
389.4487	0.2624
389.6553	0.2521
389.862	0.2436
390.0686	0.2438
390.2753	0.2672
390.4819	0.2709
390.6885	0.2467
390.8951	0.2617
391.1016	0.25
391.3082	0.2578
391.5147	0.2502
391.7213	0.2467
391.9278	0.2417
392.1343	0.2389
392.3408	0.2551
392.5473	0.2473
392.7537	0.2388
392.9602	0.2365
393.1666	0.2411
393.373	0.2274
393.5794	0.2512
393.7858	0.2362
393.9922	0.2254
394.1986	0.2346
394.4049	0.248
394.6113	0.2341
394.8176	0.2268
395.0239	0.2348
395.2302	0.2343
395.4365	0.2401
395.6428	0.2309
395.8491	0.2257
396.0553	0.2118
396.2615	0.2259
396.4678	0.212
396.674	0.2071
396.8802	0.2401
397.0863	0.2297
397.2925	0.2313
397.4987	0.2107
397.7048	0.2205
397.9109	0.2146
398.117	0.2046
398.3231	0.2125
398.5292	0.2281
398.7353	0.2477
398.9413	0.2266
399.1474	0.2318
399.3534	0.207
399.5594	0.1984
399.7654	0.2192
399.9714	0.2358
400.1774	0.2205
400.3833	0.2151
400.5893	0.2325
400.7952	0.2222
401.0011	0.2171
401.207	0.2325
401.4129	0.2297
401.6188	0.2098
401.8247	0.2331
402.0305	0.2009
402.2364	0.2247
402.4422	0.2261
402.648	0.2315
402.8538	0.2262
403.0596	0.2099
403.2654	0.2357
403.4711	0.2187
403.6768	0.2356
403.8826	0.2252
404.0883	0.2211
404.294	0.2281
404.4997	0.2267
404.7054	0.2233
404.911	0.2219
405.1167	0.2309
405.3223	0.241
405.5279	0.2332
405.7335	0.2474
405.9391	0.2252
406.1447	0.2209
406.3502	0.2377
406.5558	0.2163
406.7613	0.2331
406.9668	0.2262
407.1724	0.2193
407.3778	0.2126
407.5833	0.2219
407.7888	0.2095
407.9942	0.2349
408.1997	0.202
408.4051	0.2066
408.6105	0.2168
408.8159	0.2176
409.0213	0.225
409.2267	0.2365
409.432	0.2079
409.6374	0.2218
409.8427	0.2111
410.048	0.2118
410.2533	0.2095
410.4586	0.2271
410.6639	0.225
410.8691	0.2091
411.0744	0.2001
411.2796	0.214
411.4848	0.2246
411.69	0.2153
411.8952	0.219
412.1004	0.196
412.3056	0.215
412.5107	0.2087
412.7158	0.2218
412.921	0.2062
413.1261	0.2084
413.3312	0.2175
413.5362	0.2087
413.7413	0.2342
413.9464	0.2164
414.1514	0.2115
414.3564	0.2029
414.5614	0.2103
414.7664	0.2009
414.9714	0.216
415.1764	0.22
415.3813	0.2201
415.5863	0.2034
415.7912	0.2111
415.9961	0.2159
416.201	0.207
416.4059	0.207
416.6108	0.2014
416.8156	0.2145
417.0205	0.2152
417.2253	0.2033
417.4301	0.226
417.6349	0.2055
417.8397	0.2262
418.0445	0.2035
418.2492	0.2187
418.454	0.2162
418.6587	0.2165
418.8634	0.2121
419.0681	0.183
419.2728	0.1994
419.4775	0.1945
419.6822	0.1918
419.8868	0.1782
420.0915	0.2101
420.2961	0.1858
420.5007	0.1902
420.7053	0.2076
420.9099	0.2076
421.1144	0.2061
421.319	0.2029
421.5235	0.2006
421.728	0.2094
421.9325	0.2085
422.137	0.2027
422.3415	0.1855
422.546	0.1933
422.7504	0.1915
422.9549	0.196
423.1593	0.1932
423.3637	0.1909
423.5681	0.1999
423.7725	0.1875
423.9769	0.1777
424.1812	0.1773
424.3856	0.178
424.5899	0.1838
424.7942	0.1894
424.9985	0.1793
425.2028	0.1755
425.4071	0.1965
425.6113	0.1637
425.8156	0.1698
426.0198	0.1701
426.224	0.1561
426.4282	0.1804
