Data from MonoPyChalIsomerACN10uM440nmA_Absorbance_15-27-18-594.txt Node
Date: Fri Jul 05 15:27:18 BST 2024
User: LASERRRRR
Spectrometer: FLMT03099
Trigger mode: 0
Integration Time (sec): 1.000000E-1
Scans to average: 1
Electric dark correction enabled: true
Nonlinearity correction enabled: false
Boxcar width: 0
XAxis mode: Wavelengths
Number of Pixels in Spectrum: 3648
>>>>>Begin Spectral Data<<<<<
179.3399	0.7279
179.5586	0.7279
179.7771	0.7279
179.9957	0.0148
180.2143	-0
180.4329	-0.2343
180.6514	-0
180.8699	0.2534
181.0885	-0.1032
181.307	0.0846
181.5255	-0
181.744	-0
181.9625	-0
182.181	-1.3816
182.3994	0.4695
182.6179	0.3056
182.8363	0.1902
183.0547	-0.3216
183.2732	-0.0564
183.4916	0.0227
183.71	0.1585
183.9284	0.0756
184.1467	-0.1381
184.3651	-0.0409
184.5835	-0.2106
184.8018	-0.1233
185.0201	-0.1111
185.2385	-0.015
185.4568	0.0047
185.6751	0.2409
185.8934	0.2165
186.1117	0.0191
186.3299	0.0074
186.5482	0.1414
186.7664	-0.1646
186.9847	-0.1155
187.2029	-0.0775
187.4211	0.0503
187.6393	0.3108
187.8575	-0.081
188.0757	0.2891
188.2939	0.0541
188.512	0.051
188.7302	0.0303
188.9483	0.3995
189.1665	0.1147
189.3846	-0.1307
189.6027	0.2024
189.8208	0.1118
190.0389	0.046
190.257	0.2397
190.475	0.1118
190.6931	0.3556
190.9111	0.3182
191.1292	0.1984
191.3472	0.3829
191.5652	0.3178
191.7832	0.1772
192.0012	0.4786
192.2192	0.3042
192.4371	0.4012
192.6551	0.2251
192.873	0.465
193.091	0.4197
193.3089	0.4376
193.5268	0.6848
193.7447	0.6271
193.9626	0.4459
194.1805	0.5603
194.3984	0.963
194.6162	0.423
194.8341	0.6003
195.0519	0.5862
195.2697	0.8581
195.4875	0.762
195.7054	0.7923
195.9231	0.5064
196.1409	0.6939
196.3587	0.6526
196.5765	0.7216
196.7942	0.5858
197.012	0.509
197.2297	0.6227
197.4474	0.7215
197.6651	0.6136
197.8828	0.5321
198.1005	0.5127
198.3182	0.6145
198.5358	0.7881
198.7535	0.5782
198.9711	0.6031
199.1888	0.65
199.4064	0.7155
199.624	0.5548
199.8416	0.5989
200.0592	0.641
200.2767	0.6198
200.4943	0.6056
200.7119	0.6816
200.9294	0.8146
201.1469	0.6359
201.3645	0.6367
201.582	0.598
201.7995	0.7659
202.017	0.6769
202.2344	0.5729
202.4519	0.6509
202.6694	0.7021
202.8868	0.5782
203.1042	0.6827
203.3217	0.72
203.5391	0.7489
203.7565	0.5894
203.9739	0.6387
204.1913	0.5818
204.4086	0.7301
204.626	0.7731
204.8433	0.6403
205.0607	0.6399
205.278	0.6117
205.4953	0.5705
205.7126	0.6875
205.9299	0.7838
206.1472	0.7176
206.3644	0.658
206.5817	0.6661
206.7989	0.775
207.0162	0.6426
207.2334	0.6612
207.4506	0.7307
207.6678	0.6543
207.885	0.6407
208.1022	0.6295
208.3194	0.6661
208.5365	0.6238
208.7537	0.6158
208.9708	0.6015
209.1879	0.6434
209.405	0.6041
209.6222	0.6809
209.8392	0.5861
210.0563	0.623
210.2734	0.6736
210.4905	0.5889
210.7075	0.7171
210.9245	0.5784
211.1416	0.7886
211.3586	0.6765
211.5756	0.6348
211.7926	0.6181
212.0096	0.5562
212.2265	0.6239
212.4435	0.5877
212.6604	0.6103
212.8774	0.6367
213.0943	0.5879
213.3112	0.5537
213.5281	0.5386
213.745	0.5
213.9619	0.4793
214.1788	0.4787
214.3956	0.4711
214.6125	0.477
214.8293	0.4427
215.0461	0.4742
215.2629	0.4722
215.4798	0.4691
215.6965	0.4527
215.9133	0.4689
216.1301	0.4404
216.3469	0.4598
216.5636	0.4143
216.7803	0.4114
216.9971	0.4005
217.2138	0.3833
217.4305	0.374
217.6472	0.3497
217.8639	0.3781
218.0805	0.3565
218.2972	0.334
218.5138	0.2946
218.7305	0.3053
218.9471	0.3012
219.1637	0.291
219.3803	0.2837
219.5969	0.2796
219.8135	0.2432
220.0301	0.2708
220.2466	0.2501
220.4632	0.2546
220.6797	0.232
220.8962	0.2215
221.1127	0.2323
221.3292	0.2282
221.5457	0.2309
221.7622	0.2215
221.9787	0.2692
222.1951	0.2318
222.4116	0.2478
222.628	0.2355
222.8444	0.2565
223.0608	0.2559
223.2772	0.2464
223.4936	0.2322
223.71	0.2483
223.9264	0.2669
224.1427	0.2217
224.3591	0.2379
224.5754	0.2606
224.7917	0.2609
225.008	0.2412
225.2243	0.2466
225.4406	0.2773
225.6569	0.2705
225.8732	0.2619
226.0894	0.2694
226.3057	0.2562
226.5219	0.2759
226.7381	0.2494
226.9543	0.2852
227.1705	0.2933
227.3867	0.2763
227.6029	0.2941
227.8191	0.2956
228.0352	0.3002
228.2513	0.2872
228.4675	0.2833
228.6836	0.289
228.8997	0.2829
229.1158	0.3037
229.3319	0.302
229.548	0.3083
229.764	0.3188
229.9801	0.3122
230.1961	0.3221
230.4121	0.333
230.6282	0.3226
230.8442	0.3098
231.0602	0.3541
231.2761	0.3421
231.4921	0.3081
231.7081	0.3448
231.924	0.3305
232.14	0.3423
232.3559	0.3396
232.5718	0.3488
232.7877	0.3541
233.0036	0.3372
233.2195	0.3481
233.4353	0.3618
233.6512	0.3695
233.867	0.3688
234.0829	0.3648
234.2987	0.3711
234.5145	0.3387
234.7303	0.3545
234.9461	0.3754
235.1619	0.367
235.3776	0.3629
235.5934	0.3741
235.8091	0.3738
236.0249	0.3636
236.2406	0.3666
236.4563	0.3743
236.672	0.3777
236.8877	0.3893
237.1034	0.3899
237.319	0.38
237.5347	0.4027
237.7503	0.3722
237.966	0.4022
238.1816	0.3972
238.3972	0.4082
238.6128	0.3762
238.8284	0.3983
239.0439	0.4111
239.2595	0.3778
239.475	0.4012
239.6906	0.4039
239.9061	0.4132
240.1216	0.4067
240.3371	0.4035
240.5526	0.4018
240.7681	0.408
240.9836	0.3799
241.199	0.4158
241.4145	0.3972
241.6299	0.3742
241.8453	0.3786
242.0607	0.3871
242.2761	0.3708
242.4915	0.3632
242.7069	0.3736
242.9223	0.3407
243.1376	0.3501
243.353	0.3533
243.5683	0.3498
243.7836	0.3252
243.9989	0.315
244.2142	0.3153
244.4295	0.3321
244.6448	0.3092
244.86	0.3217
245.0753	0.2837
245.2905	0.2893
245.5057	0.2947
245.721	0.2834
245.9362	0.284
246.1514	0.2778
246.3665	0.2652
246.5817	0.2468
246.7969	0.2508
247.012	0.2507
247.2271	0.2439
247.4423	0.2375
247.6574	0.2419
247.8725	0.2273
248.0876	0.2311
248.3026	0.2339
248.5177	0.2132
248.7328	0.2199
248.9478	0.2087
249.1628	0.2146
249.3779	0.2156
249.5929	0.2
249.8079	0.2203
250.0228	0.1973
250.2378	0.2016
250.4528	0.1986
250.6677	0.1967
250.8827	0.1903
251.0976	0.1983
251.3125	0.1909
251.5274	0.1723
251.7423	0.188
251.9572	0.1881
252.172	0.1826
252.3869	0.193
252.6017	0.1869
252.8166	0.1646
253.0314	0.167
253.2462	0.1879
253.461	0.1793
253.6758	0.1716
253.8906	0.1801
254.1053	0.1647
254.3201	0.1772
254.5348	0.1814
254.7496	0.1885
254.9643	0.1678
255.179	0.1769
255.3937	0.1614
255.6083	0.1647
255.823	0.165
256.0377	0.1598
256.2523	0.1671
256.467	0.1363
256.6816	0.1619
256.8962	0.176
257.1108	0.1562
257.3254	0.1695
257.54	0.1611
257.7545	0.1596
257.9691	0.1632
258.1836	0.1656
258.3981	0.1601
258.6127	0.1692
258.8272	0.1727
259.0417	0.1591
259.2561	0.1629
259.4706	0.1614
259.6851	0.1651
259.8995	0.1621
260.114	0.1649
260.3284	0.1624
260.5428	0.1612
260.7572	0.1724
260.9716	0.1696
261.186	0.154
261.4003	0.1655
261.6147	0.1645
261.829	0.1674
262.0433	0.1663
262.2577	0.1518
262.472	0.1628
262.6863	0.1582
262.9005	0.1671
263.1148	0.1609
263.3291	0.1471
263.5433	0.1681
263.7576	0.1556
263.9718	0.1689
264.186	0.1646
264.4002	0.1581
264.6144	0.1582
264.8286	0.1724
265.0427	0.1611
265.2569	0.1574
265.471	0.1706
265.6851	0.169
265.8993	0.1634
266.1134	0.1447
266.3275	0.1548
266.5415	0.1575
266.7556	0.1712
266.9697	0.1661
267.1837	0.1669
267.3978	0.1533
267.6118	0.1643
267.8258	0.1803
268.0398	0.1531
268.2538	0.1707
268.4677	0.1653
268.6817	0.1614
268.8957	0.1735
269.1096	0.1669
269.3235	0.1737
269.5374	0.1541
269.7514	0.1516
269.9652	0.1603
270.1791	0.1486
270.393	0.1498
270.6068	0.1619
270.8207	0.1426
271.0345	0.1446
271.2483	0.1485
271.4622	0.1547
271.676	0.1656
271.8897	0.1468
272.1035	0.1485
272.3173	0.1496
272.531	0.1608
272.7448	0.1532
272.9585	0.1474
273.1722	0.1547
273.3859	0.1617
273.5996	0.149
273.8133	0.1516
274.0269	0.1477
274.2406	0.1451
274.4542	0.1465
274.6679	0.1437
274.8815	0.1443
275.0951	0.1569
275.3087	0.1678
275.5223	0.1613
275.7358	0.1477
275.9494	0.1519
276.1629	0.1454
276.3765	0.139
276.59	0.1583
276.8035	0.1464
277.017	0.1524
277.2305	0.1445
277.444	0.1652
277.6574	0.1464
277.8709	0.1586
278.0843	0.143
278.2978	0.1517
278.5112	0.1526
278.7246	0.1352
278.938	0.1576
279.1513	0.1516
279.3647	0.1648
279.5781	0.1498
279.7914	0.1532
280.0047	0.164
280.2181	0.1547
280.4314	0.1563
280.6447	0.1612
280.8579	0.1514
281.0712	0.1612
281.2845	0.1605
281.4977	0.1546
281.711	0.1476
281.9242	0.1568
282.1374	0.1625
282.3506	0.1554
282.5638	0.1551
282.7769	0.1633
282.9901	0.1515
283.2033	0.1598
283.4164	0.1666
283.6295	0.1604
283.8426	0.1466
284.0557	0.1509
284.2688	0.1775
284.4819	0.1551
284.695	0.1611
284.908	0.1668
285.1211	0.1566
285.3341	0.1475
285.5471	0.1664
285.7601	0.1614
285.9731	0.1576
286.1861	0.1496
286.3991	0.1537
286.612	0.1666
286.825	0.1597
287.0379	0.1635
287.2508	0.1572
287.4637	0.1583
287.6766	0.1624
287.8895	0.1656
288.1024	0.1632
288.3152	0.1785
288.5281	0.151
288.7409	0.165
288.9538	0.1573
289.1666	0.1618
289.3794	0.1548
289.5922	0.1502
289.8049	0.1668
290.0177	0.1499
290.2304	0.1571
290.4432	0.1583
290.6559	0.1513
290.8686	0.1676
291.0813	0.1539
291.294	0.152
291.5067	0.1616
291.7194	0.1591
291.932	0.1654
292.1447	0.1535
292.3573	0.1448
292.5699	0.1612
292.7825	0.1535
292.9951	0.1561
293.2077	0.1539
293.4203	0.1716
293.6328	0.1485
293.8454	0.1631
294.0579	0.159
294.2704	0.1561
294.4829	0.1474
294.6954	0.1677
294.9079	0.1528
295.1204	0.1542
295.3328	0.1494
295.5453	0.1504
295.7577	0.1569
295.9701	0.1422
296.1825	0.153
296.3949	0.1475
296.6073	0.1595
296.8197	0.145
297.0321	0.1633
297.2444	0.1485
297.4567	0.1517
297.6691	0.1523
297.8814	0.1509
298.0937	0.1708
298.306	0.1564
298.5182	0.1601
298.7305	0.1595
298.9428	0.1555
299.155	0.1522
299.3672	0.156
299.5794	0.1445
299.7916	0.1494
300.0038	0.1571
300.216	0.1513
300.4282	0.1567
300.6403	0.1423
300.8525	0.1479
301.0646	0.1391
301.2767	0.1577
301.4888	0.145
301.7009	0.1561
301.913	0.1542
302.125	0.1594
302.3371	0.1476
302.5491	0.1502
302.7612	0.1624
302.9732	0.1594
303.1852	0.1565
303.3972	0.1413
303.6092	0.1499
303.8211	0.1436
304.0331	0.1489
304.245	0.1416
304.457	0.1461
304.6689	0.143
304.8808	0.1616
305.0927	0.1403
305.3046	0.141
305.5164	0.1495
305.7283	0.1332
305.9401	0.1427
306.152	0.1396
306.3638	0.1448
306.5756	0.1407
306.7874	0.1448
306.9992	0.1548
307.2109	0.1313
307.4227	0.1222
307.6344	0.141
307.8462	0.1278
308.0579	0.1325
308.2696	0.1239
308.4813	0.1242
308.693	0.1271
308.9046	0.1363
309.1163	0.1248
309.328	0.1308
309.5396	0.1169
309.7512	0.1095
309.9628	0.1128
310.1744	0.1077
310.386	0.1158
310.5976	0.1138
310.8091	0.1168
311.0207	0.1122
311.2322	0.1139
311.4437	0.1182
311.6552	0.1089
311.8667	0.1111
312.0782	0.0962
312.2897	0.0986
312.5012	0.1126
312.7126	0.0942
312.924	0.0943
313.1355	0.118
313.3469	0.1113
313.5583	0.1097
313.7696	0.1136
313.981	0.1008
314.1924	0.1017
314.4037	0.1024
314.6151	0.1067
314.8264	0.092
315.0377	0.107
315.249	0.0944
315.4603	0.1086
315.6716	0.0944
315.8828	0.0839
316.0941	0.0986
316.3053	0.0977
316.5165	0.0931
316.7277	0.0979
316.9389	0.0992
317.1501	0.0988
317.3613	0.1023
317.5724	0.0832
317.7836	0.0988
317.9947	0.0986
318.2058	0.0896
318.417	0.0919
318.6281	0.0962
318.8391	0.0888
319.0502	0.0951
319.2613	0.1036
319.4723	0.1073
319.6834	0.1132
319.8944	0.0906
320.1054	0.1099
320.3164	0.1047
320.5274	0.0978
320.7383	0.1026
320.9493	0.1034
321.1602	0.1107
321.3712	0.0901
321.5821	0.0963
321.793	0.0993
322.0039	0.1065
322.2148	0.096
322.4257	0.0971
322.6365	0.12
322.8474	0.1052
323.0582	0.0963
323.269	0.1073
323.4798	0.1128
323.6906	0.1063
323.9014	0.1019
324.1122	0.1071
324.3229	0.1036
324.5337	0.0935
324.7444	0.0963
324.9551	0.1211
325.1658	0.1132
325.3765	0.1062
325.5872	0.1102
325.7979	0.0957
326.0085	0.1087
326.2192	0.1192
326.4298	0.1147
326.6404	0.0975
326.851	0.1094
327.0616	0.0969
327.2722	0.1011
327.4828	0.116
327.6933	0.1057
327.9039	0.1076
328.1144	0.1146
328.3249	0.1263
328.5354	0.0913
328.7459	0.0981
328.9564	0.1031
329.1669	0.102
329.3773	0.1151
329.5878	0.1005
329.7982	0.108
330.0086	0.1073
330.219	0.1199
330.4294	0.0979
330.6398	0.1039
330.8502	0.1109
331.0605	0.1248
331.2708	0.1114
331.4812	0.1108
331.6915	0.1081
331.9018	0.1081
332.1121	0.0983
332.3224	0.1177
332.5326	0.1137
332.7429	0.1066
332.9531	0.119
333.1633	0.1109
333.3735	0.0949
333.5837	0.108
333.7939	0.1019
334.0041	0.1188
334.2143	0.1169
334.4244	0.108
334.6346	0.09
334.8447	0.1254
335.0548	0.1058
335.2649	0.1056
335.475	0.117
335.685	0.1136
335.8951	0.1237
336.1051	0.1106
336.3152	0.1219
336.5252	0.1109
336.7352	0.1233
336.9452	0.1217
337.1552	0.1166
337.3652	0.1059
337.5751	0.1169
337.7851	0.1177
337.995	0.114
338.2049	0.1174
338.4148	0.1205
338.6247	0.1205
338.8346	0.116
339.0445	0.1148
339.2543	0.1103
339.4642	0.1099
339.674	0.116
339.8838	0.1317
340.0936	0.1215
340.3034	0.1169
340.5132	0.1198
340.7229	0.1295
340.9327	0.1141
341.1424	0.1207
341.3522	0.1232
341.5619	0.1235
341.7716	0.1176
341.9813	0.1256
342.1909	0.1266
342.4006	0.1337
342.6102	0.1351
342.8199	0.1304
343.0295	0.1324
343.2391	0.1317
343.4487	0.1249
343.6583	0.1256
343.8679	0.1286
344.0774	0.132
344.287	0.1332
344.4965	0.117
344.706	0.1299
344.9155	0.1262
345.125	0.1278
345.3345	0.1272
345.544	0.1214
345.7534	0.1281
345.9629	0.1295
346.1723	0.1295
346.3817	0.1257
346.5911	0.1266
346.8005	0.1422
347.0099	0.1265
347.2193	0.134
347.4286	0.1308
347.638	0.1293
347.8473	0.1314
348.0566	0.1318
348.2659	0.1462
348.4752	0.1334
348.6845	0.1308
348.8937	0.1331
349.103	0.1415
349.3122	0.1277
349.5214	0.1412
349.7306	0.1506
349.9398	0.1375
350.149	0.1331
350.3582	0.1345
350.5674	0.1538
350.7765	0.1454
350.9856	0.1544
351.1948	0.1459
351.4039	0.1268
351.613	0.1319
351.822	0.1449
352.0311	0.1438
352.2402	0.1386
352.4492	0.156
352.6582	0.1574
352.8672	0.1406
353.0762	0.1355
353.2852	0.1493
353.4942	0.139
353.7032	0.1295
353.9121	0.1504
354.1211	0.1583
354.33	0.1523
354.5389	0.1539
354.7478	0.1446
354.9567	0.1581
355.1655	0.1439
355.3744	0.1516
355.5833	0.1644
355.7921	0.1795
356.0009	0.1519
356.2097	0.1666
356.4185	0.1664
356.6273	0.1647
356.8361	0.1603
357.0448	0.1445
357.2536	0.1569
357.4623	0.1654
357.671	0.1604
357.8797	0.1634
358.0884	0.1655
358.2971	0.1579
358.5057	0.1672
358.7144	0.1696
358.923	0.1634
359.1316	0.1609
359.3402	0.1519
359.5488	0.1703
359.7574	0.1506
359.966	0.1779
360.1746	0.173
360.3831	0.1664
360.5916	0.1734
360.8002	0.1605
361.0087	0.1917
361.2172	0.1714
361.4256	0.1769
361.6341	0.1793
361.8426	0.172
362.051	0.1803
362.2594	0.1789
362.4678	0.1815
362.6762	0.2044
362.8846	0.1811
363.093	0.1742
363.3014	0.1778
363.5097	0.1659
363.718	0.1879
363.9264	0.1823
364.1347	0.1574
364.343	0.1857
364.5513	0.2
364.7595	0.1941
364.9678	0.1904
365.176	0.1817
365.3842	0.1981
365.5925	0.1921
365.8007	0.192
366.0089	0.1805
366.217	0.1874
366.4252	0.1886
366.6333	0.1963
366.8415	0.1999
367.0496	0.1755
367.2577	0.2049
367.4658	0.2045
367.6739	0.198
367.882	0.2091
368.09	0.1823
368.2981	0.2114
368.5061	0.1905
368.7141	0.209
368.9221	0.2144
369.1301	0.1943
369.3381	0.1933
369.5461	0.1968
369.754	0.1961
369.962	0.205
370.1699	0.2061
370.3778	0.2151
370.5857	0.1833
370.7936	0.2129
371.0015	0.1958
371.2093	0.2122
371.4172	0.2084
371.625	0.1937
371.8328	0.2053
372.0406	0.1983
372.2484	0.1874
372.4562	0.2079
372.664	0.1979
372.8717	0.219
373.0795	0.2092
373.2872	0.2221
373.4949	0.2152
373.7026	0.2099
373.9103	0.2066
374.118	0.214
374.3256	0.2155
374.5333	0.2207
374.7409	0.2175
374.9485	0.2295
375.1561	0.2372
375.3637	0.2148
375.5713	0.2117
375.7789	0.2289
375.9864	0.2317
376.194	0.214
376.4015	0.2283
376.609	0.234
376.8165	0.2182
377.024	0.2203
377.2315	0.2188
377.4389	0.2166
377.6464	0.2188
377.8538	0.2286
378.0612	0.2306
378.2686	0.2232
378.476	0.2322
378.6834	0.2332
378.8908	0.2195
379.0981	0.2415
379.3055	0.2208
379.5128	0.2157
379.7201	0.2293
379.9274	0.226
380.1347	0.2293
380.342	0.24
380.5492	0.21
380.7565	0.2294
380.9637	0.2339
381.1709	0.2283
381.3781	0.2358
381.5853	0.2334
381.7925	0.2413
381.9997	0.2354
382.2068	0.2342
382.4139	0.2392
382.6211	0.2181
382.8282	0.2212
383.0353	0.2265
383.2424	0.2254
383.4494	0.2403
383.6565	0.2334
383.8635	0.2358
384.0706	0.2289
384.2776	0.2409
384.4846	0.2316
384.6916	0.2255
384.8986	0.2349
385.1055	0.2244
385.3125	0.2325
385.5194	0.2108
385.7263	0.2425
385.9333	0.2286
386.1402	0.2264
386.347	0.2288
386.5539	0.2186
386.7608	0.2512
386.9676	0.2182
387.1744	0.2185
387.3813	0.2272
387.5881	0.2168
387.7948	0.2204
388.0016	0.2386
388.2084	0.2259
388.4151	0.2151
388.6219	0.225
388.8286	0.2268
389.0353	0.2431
389.242	0.225
389.4487	0.2152
389.6553	0.2177
389.862	0.2064
390.0686	0.2161
390.2753	0.219
390.4819	0.2209
390.6885	0.2202
390.8951	0.2199
391.1016	0.2183
391.3082	0.2096
391.5147	0.2053
391.7213	0.2171
391.9278	0.2031
392.1343	0.2084
392.3408	0.2203
392.5473	0.2081
392.7537	0.2107
392.9602	0.2064
393.1666	0.209
393.373	0.2042
393.5794	0.2087
393.7858	0.1996
393.9922	0.1886
394.1986	0.2055
394.4049	0.2114
394.6113	0.1985
394.8176	0.1801
395.0239	0.196
395.2302	0.203
395.4365	0.2028
395.6428	0.1894
395.8491	0.19
396.0553	0.2021
396.2615	0.1871
396.4678	0.1932
396.674	0.1802
396.8802	0.1964
397.0863	0.2082
397.2925	0.1868
397.4987	0.186
397.7048	0.1891
397.9109	0.1965
398.117	0.1771
398.3231	0.1917
398.5292	0.1937
398.7353	0.2049
398.9413	0.1992
399.1474	0.1886
399.3534	0.1917
399.5594	0.1847
399.7654	0.2093
399.9714	0.2154
400.1774	0.1914
400.3833	0.1792
400.5893	0.1952
400.7952	0.182
401.0011	0.1887
401.207	0.1855
401.4129	0.1892
401.6188	0.1852
401.8247	0.1914
402.0305	0.1804
402.2364	0.2008
402.4422	0.2098
402.648	0.1823
402.8538	0.1989
403.0596	0.1827
403.2654	0.1903
403.4711	0.1814
403.6768	0.1989
403.8826	0.1959
404.0883	0.1921
404.294	0.1933
404.4997	0.1971
404.7054	0.1987
404.911	0.193
405.1167	0.1851
405.3223	0.2087
405.5279	0.199
405.7335	0.1922
405.9391	0.1974
406.1447	0.2017
406.3502	0.2028
406.5558	0.19
406.7613	0.205
406.9668	0.1863
407.1724	0.1867
407.3778	0.1838
407.5833	0.1928
407.7888	0.1792
407.9942	0.1997
408.1997	0.1769
408.4051	0.1782
408.6105	0.1956
408.8159	0.1679
409.0213	0.1806
409.2267	0.191
409.432	0.1797
409.6374	0.1935
409.8427	0.1849
410.048	0.2035
410.2533	0.1849
410.4586	0.1771
410.6639	0.1798
410.8691	0.1949
411.0744	0.163
411.2796	0.1851
411.4848	0.2048
411.69	0.1685
411.8952	0.2117
412.1004	0.1758
412.3056	0.1905
412.5107	0.1723
412.7158	0.19
412.921	0.1983
413.1261	0.1731
413.3312	0.1757
413.5362	0.1956
413.7413	0.1829
413.9464	0.1912
414.1514	0.1779
414.3564	0.1638
414.5614	0.1751
414.7664	0.1927
414.9714	0.1828
415.1764	0.1911
415.3813	0.1907
415.5863	0.2017
415.7912	0.1779
415.9961	0.1689
416.201	0.1758
416.4059	0.1855
416.6108	0.1588
416.8156	0.1871
417.0205	0.1807
417.2253	0.169
417.4301	0.1827
417.6349	0.1818
417.8397	0.1635
418.0445	0.1967
418.2492	0.1913
418.454	0.1607
418.6587	0.1805
418.8634	0.1691
419.0681	0.1605
419.2728	0.1738
419.4775	0.15
419.6822	0.1625
419.8868	0.1438
420.0915	0.1698
420.2961	0.1492
420.5007	0.1586
420.7053	0.1742
420.9099	0.1651
421.1144	0.188
421.319	0.1731
421.5235	0.1795
421.728	0.1547
421.9325	0.1774
422.137	0.1692
422.3415	0.1575
422.546	0.153
422.7504	0.1641
422.9549	0.1701
423.1593	0.183
423.3637	0.1835
423.5681	0.1605
423.7725	0.1515
423.9769	0.1584
424.1812	0.1472
424.3856	0.1545
424.5899	0.1608
424.7942	0.1438
424.9985	0.1429
425.2028	0.1388
425.4071	0.1661
425.6113	0.137
425.8156	0.1534
426.0198	0.1404
426.224	0.143
426.4282	0.1446
426.6324	0.1429
