Data from MonoPyChalIsomerACN10uM440nmA_Absorbance_15-27-11-794.txt Node
Date: Fri Jul 05 15:27:11 BST 2024
User: LASERRRRR
Spectrometer: FLMT03099
Trigger mode: 0
Integration Time (sec): 1.000000E-1
Scans to average: 1
Electric dark correction enabled: true
Nonlinearity correction enabled: false
Boxcar width: 0
XAxis mode: Wavelengths
Number of Pixels in Spectrum: 3648
>>>>>Begin Spectral Data<<<<<
179.3399	-0.2795
179.5586	-0.2795
179.7771	-0.2795
179.9957	0.3234
180.2143	-0
180.4329	0.1747
180.6514	-0
180.8699	-0
181.0885	0.6194
181.307	0.096
181.5255	-0
181.744	-0
181.9625	-0
182.181	0.415
182.3994	0.2732
182.6179	1.9777
182.8363	-0.135
183.0547	-0.3469
183.2732	0.1159
183.4916	0.2529
183.71	0.3069
183.9284	-0.0742
184.1467	-0.0246
184.3651	-0.133
184.5835	0.1267
184.8018	0.2206
185.0201	0.059
185.2385	-0.0984
185.4568	0.3643
185.6751	0.0078
185.8934	0.0652
186.1117	0.1852
186.3299	0.0199
186.5482	0.0341
186.7664	0.0469
186.9847	-0.0164
187.2029	0.1295
187.4211	-0.0441
187.6393	0.3854
187.8575	-0.1172
188.0757	0.2329
188.2939	0.0644
188.512	-0.1404
188.7302	0.0584
188.9483	0.4049
189.1665	0.12
189.3846	-0.1276
189.6027	0.0371
189.8208	0.0518
190.0389	0.0951
190.257	0.2262
190.475	0.4324
190.6931	0.5856
190.9111	0.3516
191.1292	0.1169
191.3472	0.3798
191.5652	0.4094
191.7832	0.1907
192.0012	0.5911
192.2192	0.2719
192.4371	0.4839
192.6551	0.3691
192.873	0.41
193.091	0.6
193.3089	0.428
193.5268	0.3473
193.7447	0.5425
193.9626	0.5318
194.1805	0.7334
194.3984	0.665
194.6162	0.5705
194.8341	0.4877
195.0519	0.723
195.2697	0.6939
195.4875	0.6091
195.7054	0.6453
195.9231	0.4788
196.1409	0.7067
196.3587	0.4778
196.5765	0.6251
196.7942	0.5756
197.012	0.7091
197.2297	0.5999
197.4474	0.5223
197.6651	0.4026
197.8828	0.6914
198.1005	0.6129
198.3182	0.5029
198.5358	0.8329
198.7535	0.636
198.9711	0.6751
199.1888	0.6419
199.4064	1.0072
199.624	0.5303
199.8416	0.6877
200.0592	0.8346
200.2767	0.5801
200.4943	0.6958
200.7119	0.7789
200.9294	0.6496
201.1469	0.5983
201.3645	0.6881
201.582	0.5698
201.7995	0.6242
202.017	0.5574
202.2344	0.5758
202.4519	0.6368
202.6694	0.6633
202.8868	0.6847
203.1042	0.6863
203.3217	0.7817
203.5391	0.7346
203.7565	0.6184
203.9739	0.6774
204.1913	0.6602
204.4086	0.6394
204.626	0.7269
204.8433	0.6061
205.0607	0.691
205.278	0.6415
205.4953	0.6532
205.7126	0.6075
205.9299	0.7395
206.1472	0.7139
206.3644	0.5677
206.5817	0.7535
206.7989	0.6978
207.0162	0.7136
207.2334	0.7602
207.4506	0.6903
207.6678	0.684
207.885	0.6342
208.1022	0.6922
208.3194	0.6972
208.5365	0.6181
208.7537	0.6906
208.9708	0.626
209.1879	0.7295
209.405	0.6809
209.6222	0.7345
209.8392	0.7253
210.0563	0.6792
210.2734	0.6725
210.4905	0.6525
210.7075	0.683
210.9245	0.5777
211.1416	0.639
211.3586	0.7115
211.5756	0.6082
211.7926	0.5966
212.0096	0.6447
212.2265	0.568
212.4435	0.587
212.6604	0.624
212.8774	0.5853
213.0943	0.6226
213.3112	0.5378
213.5281	0.5147
213.745	0.5396
213.9619	0.5007
214.1788	0.4888
214.3956	0.5099
214.6125	0.4714
214.8293	0.4652
215.0461	0.4969
215.2629	0.4367
215.4798	0.5083
215.6965	0.4349
215.9133	0.4375
216.1301	0.4535
216.3469	0.419
216.5636	0.4585
216.7803	0.3783
216.9971	0.4091
217.2138	0.4048
217.4305	0.3565
217.6472	0.3473
217.8639	0.3682
218.0805	0.3883
218.2972	0.3442
218.5138	0.3201
218.7305	0.3124
218.9471	0.2958
219.1637	0.3055
219.3803	0.3001
219.5969	0.2695
219.8135	0.2592
220.0301	0.2688
220.2466	0.2712
220.4632	0.2462
220.6797	0.254
220.8962	0.2381
221.1127	0.2487
221.3292	0.2752
221.5457	0.2413
221.7622	0.2357
221.9787	0.2606
222.1951	0.2465
222.4116	0.256
222.628	0.2427
222.8444	0.2484
223.0608	0.2533
223.2772	0.2544
223.4936	0.2639
223.71	0.253
223.9264	0.2949
224.1427	0.2594
224.3591	0.2401
224.5754	0.2556
224.7917	0.2639
225.008	0.2647
225.2243	0.2759
225.4406	0.2839
225.6569	0.266
225.8732	0.2808
226.0894	0.2781
226.3057	0.2678
226.5219	0.2832
226.7381	0.2642
226.9543	0.2722
227.1705	0.2896
227.3867	0.26
227.6029	0.3182
227.8191	0.3035
228.0352	0.3017
228.2513	0.3297
228.4675	0.3162
228.6836	0.3079
228.8997	0.29
229.1158	0.3018
229.3319	0.2806
229.548	0.3097
229.764	0.3231
229.9801	0.3173
230.1961	0.3104
230.4121	0.3243
230.6282	0.344
230.8442	0.319
231.0602	0.3561
231.2761	0.3364
231.4921	0.3399
231.7081	0.3477
231.924	0.3514
232.14	0.3498
232.3559	0.3298
232.5718	0.3451
232.7877	0.3377
233.0036	0.3443
233.2195	0.3595
233.4353	0.3655
233.6512	0.3492
233.867	0.3584
234.0829	0.3579
234.2987	0.3563
234.5145	0.37
234.7303	0.3778
234.9461	0.3694
235.1619	0.3822
235.3776	0.3881
235.5934	0.3915
235.8091	0.3497
236.0249	0.3853
236.2406	0.3822
236.4563	0.3844
236.672	0.3863
236.8877	0.3854
237.1034	0.3806
237.319	0.3845
237.5347	0.3964
237.7503	0.3708
237.966	0.417
238.1816	0.4029
238.3972	0.4102
238.6128	0.3977
238.8284	0.4149
239.0439	0.4085
239.2595	0.3997
239.475	0.4131
239.6906	0.4105
239.9061	0.4071
240.1216	0.3946
240.3371	0.4109
240.5526	0.3787
240.7681	0.4066
240.9836	0.3805
241.199	0.397
241.4145	0.3735
241.6299	0.3639
241.8453	0.3649
242.0607	0.3761
242.2761	0.3454
242.4915	0.3651
242.7069	0.3488
242.9223	0.3488
243.1376	0.3384
243.353	0.348
243.5683	0.34
243.7836	0.3174
243.9989	0.327
244.2142	0.2956
244.4295	0.3118
244.6448	0.3002
244.86	0.2927
245.0753	0.3001
245.2905	0.2916
245.5057	0.2732
245.721	0.2589
245.9362	0.2527
246.1514	0.2588
246.3665	0.2394
246.5817	0.2554
246.7969	0.2517
247.012	0.2367
247.2271	0.24
247.4423	0.2285
247.6574	0.2343
247.8725	0.2342
248.0876	0.2208
248.3026	0.2323
248.5177	0.2022
248.7328	0.2126
248.9478	0.1907
249.1628	0.2089
249.3779	0.2145
249.5929	0.1897
249.8079	0.2157
250.0228	0.1901
250.2378	0.2021
250.4528	0.1959
250.6677	0.173
250.8827	0.1943
251.0976	0.1885
251.3125	0.1851
251.5274	0.1625
251.7423	0.1708
251.9572	0.1817
252.172	0.1772
252.3869	0.1778
252.6017	0.175
252.8166	0.158
253.0314	0.1617
253.2462	0.1607
253.461	0.1682
253.6758	0.1562
253.8906	0.1809
254.1053	0.1748
254.3201	0.1587
254.5348	0.1826
254.7496	0.171
254.9643	0.1663
255.179	0.1609
255.3937	0.161
255.6083	0.1638
255.823	0.1681
256.0377	0.1539
256.2523	0.1687
256.467	0.1541
256.6816	0.1709
256.8962	0.1585
257.1108	0.1614
257.3254	0.176
257.54	0.15
257.7545	0.1754
257.9691	0.1694
258.1836	0.1633
258.3981	0.1713
258.6127	0.1681
258.8272	0.1548
259.0417	0.1601
259.2561	0.1561
259.4706	0.1728
259.6851	0.1534
259.8995	0.171
260.114	0.1557
260.3284	0.162
260.5428	0.1489
260.7572	0.1679
260.9716	0.162
261.186	0.1499
261.4003	0.1623
261.6147	0.1575
261.829	0.1604
262.0433	0.1522
262.2577	0.1522
262.472	0.1688
262.6863	0.1492
262.9005	0.1453
263.1148	0.1492
263.3291	0.1401
263.5433	0.1511
263.7576	0.166
263.9718	0.1633
264.186	0.1574
264.4002	0.1584
264.6144	0.1637
264.8286	0.1651
265.0427	0.1499
265.2569	0.1562
265.471	0.1388
265.6851	0.1554
265.8993	0.1487
266.1134	0.1528
266.3275	0.1474
266.5415	0.1519
266.7556	0.1688
266.9697	0.1509
267.1837	0.1655
267.3978	0.1585
267.6118	0.1692
267.8258	0.1697
268.0398	0.1459
268.2538	0.1726
268.4677	0.1661
268.6817	0.1572
268.8957	0.1555
269.1096	0.1706
269.3235	0.1524
269.5374	0.1581
269.7514	0.1648
269.9652	0.1376
270.1791	0.1499
270.393	0.1437
270.6068	0.158
270.8207	0.1505
271.0345	0.1329
271.2483	0.1362
271.4622	0.1503
271.676	0.151
271.8897	0.1348
272.1035	0.1372
272.3173	0.1501
272.531	0.1307
272.7448	0.1189
272.9585	0.1235
273.1722	0.1375
273.3859	0.1491
273.5996	0.1403
273.8133	0.1397
274.0269	0.1228
274.2406	0.1294
274.4542	0.1327
274.6679	0.1257
274.8815	0.1339
275.0951	0.1353
275.3087	0.1433
275.5223	0.1413
275.7358	0.1358
275.9494	0.1438
276.1629	0.1314
276.3765	0.1405
276.59	0.1384
276.8035	0.1381
277.017	0.1336
277.2305	0.1321
277.444	0.1446
277.6574	0.1258
277.8709	0.1437
278.0843	0.1275
278.2978	0.135
278.5112	0.1261
278.7246	0.1395
278.938	0.1292
279.1513	0.1374
279.3647	0.1436
279.5781	0.1329
279.7914	0.1361
280.0047	0.143
280.2181	0.1442
280.4314	0.1406
280.6447	0.1382
280.8579	0.1435
281.0712	0.1469
281.2845	0.1511
281.4977	0.1407
281.711	0.1291
281.9242	0.1491
282.1374	0.143
282.3506	0.1385
282.5638	0.1454
282.7769	0.1505
282.9901	0.1461
283.2033	0.163
283.4164	0.1591
283.6295	0.1422
283.8426	0.1386
284.0557	0.1512
284.2688	0.1659
284.4819	0.1496
284.695	0.1412
284.908	0.1583
285.1211	0.1546
285.3341	0.145
285.5471	0.1613
285.7601	0.1549
285.9731	0.1557
286.1861	0.1516
286.3991	0.15
286.612	0.1677
286.825	0.1604
287.0379	0.1583
287.2508	0.1481
287.4637	0.1518
287.6766	0.1433
287.8895	0.1824
288.1024	0.1784
288.3152	0.1643
288.5281	0.1519
288.7409	0.1579
288.9538	0.1566
289.1666	0.1554
289.3794	0.1694
289.5922	0.1428
289.8049	0.1653
290.0177	0.1562
290.2304	0.168
290.4432	0.1643
290.6559	0.153
290.8686	0.1685
291.0813	0.1591
291.294	0.1607
291.5067	0.1617
291.7194	0.1617
291.932	0.1854
292.1447	0.1789
292.3573	0.1454
292.5699	0.1659
292.7825	0.1621
292.9951	0.1643
293.2077	0.1649
293.4203	0.1576
293.6328	0.1688
293.8454	0.1656
294.0579	0.1741
294.2704	0.1678
294.4829	0.1649
294.6954	0.1658
294.9079	0.1639
295.1204	0.1754
295.3328	0.1731
295.5453	0.1703
295.7577	0.1686
295.9701	0.1534
296.1825	0.1666
296.3949	0.1641
296.6073	0.165
296.8197	0.1553
297.0321	0.1736
297.2444	0.1533
297.4567	0.1728
297.6691	0.167
297.8814	0.1589
298.0937	0.1657
298.306	0.1653
298.5182	0.1645
298.7305	0.1628
298.9428	0.1602
299.155	0.1792
299.3672	0.1525
299.5794	0.1551
299.7916	0.1644
300.0038	0.178
300.216	0.1544
300.4282	0.1618
300.6403	0.1562
300.8525	0.1615
301.0646	0.1555
301.2767	0.1665
301.4888	0.161
301.7009	0.1624
301.913	0.1578
302.125	0.1599
302.3371	0.1621
302.5491	0.1625
302.7612	0.1686
302.9732	0.1604
303.1852	0.1604
303.3972	0.1591
303.6092	0.1478
303.8211	0.1517
304.0331	0.1486
304.245	0.1437
304.457	0.1529
304.6689	0.1523
304.8808	0.1557
305.0927	0.146
305.3046	0.1575
305.5164	0.1577
305.7283	0.1382
305.9401	0.1659
306.152	0.1459
306.3638	0.1509
306.5756	0.1355
306.7874	0.141
306.9992	0.1469
307.2109	0.1424
307.4227	0.1425
307.6344	0.1332
307.8462	0.1351
308.0579	0.1332
308.2696	0.129
308.4813	0.1301
308.693	0.132
308.9046	0.1283
309.1163	0.1319
309.328	0.1281
309.5396	0.118
309.7512	0.1192
309.9628	0.1187
310.1744	0.112
310.386	0.1231
310.5976	0.1152
310.8091	0.1173
311.0207	0.1214
311.2322	0.1135
311.4437	0.1045
311.6552	0.1136
311.8667	0.1197
312.0782	0.0934
312.2897	0.0986
312.5012	0.1086
312.7126	0.106
312.924	0.0944
313.1355	0.1137
313.3469	0.1072
313.5583	0.1027
313.7696	0.104
313.981	0.1009
314.1924	0.1034
314.4037	0.1017
314.6151	0.0962
314.8264	0.0921
315.0377	0.0884
315.249	0.0976
315.4603	0.1035
315.6716	0.0995
315.8828	0.0893
316.0941	0.0944
316.3053	0.0872
316.5165	0.0986
316.7277	0.083
316.9389	0.1076
317.1501	0.0923
317.3613	0.0956
317.5724	0.0805
317.7836	0.0902
317.9947	0.0815
318.2058	0.087
318.417	0.0884
318.6281	0.0823
318.8391	0.0828
319.0502	0.0855
319.2613	0.0998
319.4723	0.0987
319.6834	0.0985
319.8944	0.0839
320.1054	0.0891
320.3164	0.0763
320.5274	0.0826
320.7383	0.0909
320.9493	0.0858
321.1602	0.094
321.3712	0.0875
321.5821	0.089
321.793	0.0921
322.0039	0.0795
322.2148	0.0824
322.4257	0.0948
322.6365	0.1007
322.8474	0.0997
323.0582	0.0956
323.269	0.0978
323.4798	0.0975
323.6906	0.0939
323.9014	0.0928
324.1122	0.0868
324.3229	0.0853
324.5337	0.1003
324.7444	0.0814
324.9551	0.1128
325.1658	0.0992
325.3765	0.091
325.5872	0.0975
325.7979	0.0883
326.0085	0.0929
326.2192	0.101
326.4298	0.1031
326.6404	0.0957
326.851	0.0879
327.0616	0.0907
327.2722	0.0962
327.4828	0.1062
327.6933	0.0983
327.9039	0.0948
328.1144	0.0976
328.3249	0.1017
328.5354	0.0973
328.7459	0.0962
328.9564	0.0928
329.1669	0.0955
329.3773	0.106
329.5878	0.0865
329.7982	0.0984
330.0086	0.0922
330.219	0.1016
330.4294	0.095
330.6398	0.0944
330.8502	0.0882
331.0605	0.1008
331.2708	0.1086
331.4812	0.1037
331.6915	0.0985
331.9018	0.0912
332.1121	0.0989
332.3224	0.0981
332.5326	0.1035
332.7429	0.0915
332.9531	0.1091
333.1633	0.0999
333.3735	0.106
333.5837	0.1021
333.7939	0.0926
334.0041	0.1009
334.2143	0.1084
334.4244	0.1093
334.6346	0.087
334.8447	0.1076
335.0548	0.0942
335.2649	0.0931
335.475	0.1138
335.685	0.098
335.8951	0.1063
336.1051	0.1003
336.3152	0.1083
336.5252	0.108
336.7352	0.1027
336.9452	0.1176
337.1552	0.1135
337.3652	0.1045
337.5751	0.0953
337.7851	0.1059
337.995	0.0928
338.2049	0.1071
338.4148	0.105
338.6247	0.1094
338.8346	0.0951
339.0445	0.1054
339.2543	0.1066
339.4642	0.1072
339.674	0.0844
339.8838	0.1001
340.0936	0.109
340.3034	0.1175
340.5132	0.118
340.7229	0.1013
340.9327	0.1039
341.1424	0.1065
341.3522	0.1174
341.5619	0.1212
341.7716	0.1137
341.9813	0.1144
342.1909	0.1131
342.4006	0.1131
342.6102	0.124
342.8199	0.1156
343.0295	0.1232
343.2391	0.1128
343.4487	0.1289
343.6583	0.1226
343.8679	0.1169
344.0774	0.1053
344.287	0.1219
344.4965	0.1145
344.706	0.1216
344.9155	0.1165
345.125	0.1223
345.3345	0.1288
345.544	0.1191
345.7534	0.1251
345.9629	0.1157
346.1723	0.1148
346.3817	0.1283
346.5911	0.1233
346.8005	0.1251
347.0099	0.1162
347.2193	0.1384
347.4286	0.1176
347.638	0.1344
347.8473	0.1247
348.0566	0.1337
348.2659	0.1387
348.4752	0.1205
348.6845	0.1226
348.8937	0.132
349.103	0.1284
349.3122	0.1314
349.5214	0.1299
349.7306	0.1348
349.9398	0.1324
350.149	0.1423
350.3582	0.1307
350.5674	0.1372
350.7765	0.1376
350.9856	0.1316
351.1948	0.1416
351.4039	0.1121
351.613	0.135
351.822	0.144
352.0311	0.1524
352.2402	0.123
352.4492	0.144
352.6582	0.1491
352.8672	0.1372
353.0762	0.1539
353.2852	0.1555
353.4942	0.1373
353.7032	0.1465
353.9121	0.1356
354.1211	0.1514
354.33	0.1477
354.5389	0.1411
354.7478	0.1414
354.9567	0.1386
355.1655	0.1389
355.3744	0.155
355.5833	0.1505
355.7921	0.166
356.0009	0.148
356.2097	0.1626
356.4185	0.1657
356.6273	0.1512
356.8361	0.164
357.0448	0.1436
357.2536	0.15
357.4623	0.1541
357.671	0.1506
357.8797	0.1527
358.0884	0.163
358.2971	0.1645
358.5057	0.1647
358.7144	0.1624
358.923	0.1643
359.1316	0.1668
359.3402	0.1594
359.5488	0.1548
359.7574	0.1532
359.966	0.1799
360.1746	0.1597
360.3831	0.1729
360.5916	0.1532
360.8002	0.1553
361.0087	0.1765
361.2172	0.1838
361.4256	0.1842
361.6341	0.1731
361.8426	0.1763
362.051	0.1856
362.2594	0.1831
362.4678	0.1767
362.6762	0.2117
362.8846	0.184
363.093	0.183
363.3014	0.1692
363.5097	0.176
363.718	0.1668
363.9264	0.188
364.1347	0.18
364.343	0.1998
364.5513	0.199
364.7595	0.2071
364.9678	0.2022
365.176	0.1791
365.3842	0.2093
365.5925	0.1939
365.8007	0.2041
366.0089	0.2006
366.217	0.1927
366.4252	0.1996
366.6333	0.2175
366.8415	0.2003
367.0496	0.1726
367.2577	0.207
367.4658	0.2228
367.6739	0.2034
367.882	0.2229
368.09	0.2009
368.2981	0.2215
368.5061	0.2055
368.7141	0.2168
368.9221	0.2277
369.1301	0.2106
369.3381	0.1982
369.5461	0.2116
369.754	0.1966
369.962	0.2231
370.1699	0.2285
370.3778	0.2327
370.5857	0.2016
370.7936	0.2123
371.0015	0.2089
371.2093	0.2191
371.4172	0.2381
371.625	0.2173
371.8328	0.2175
372.0406	0.2176
372.2484	0.2287
372.4562	0.228
372.664	0.2154
372.8717	0.2334
373.0795	0.1929
373.2872	0.2429
373.4949	0.2123
373.7026	0.2231
373.9103	0.2446
374.118	0.2334
374.3256	0.2339
374.5333	0.2202
374.7409	0.221
374.9485	0.2563
375.1561	0.2417
375.3637	0.2469
375.5713	0.2443
375.7789	0.2343
375.9864	0.247
376.194	0.2398
376.4015	0.2376
376.609	0.2496
376.8165	0.2288
377.024	0.2349
377.2315	0.2387
377.4389	0.2413
377.6464	0.2529
377.8538	0.242
378.0612	0.2476
378.2686	0.2492
378.476	0.269
378.6834	0.2614
378.8908	0.2498
379.0981	0.2504
379.3055	0.2609
379.5128	0.2545
379.7201	0.2522
379.9274	0.2382
380.1347	0.2448
380.342	0.2645
380.5492	0.2523
380.7565	0.2637
380.9637	0.2628
381.1709	0.2558
381.3781	0.2645
381.5853	0.2788
381.7925	0.2656
381.9997	0.2603
382.2068	0.277
382.4139	0.2573
382.6211	0.2517
382.8282	0.2606
383.0353	0.2403
383.2424	0.2721
383.4494	0.271
383.6565	0.2623
383.8635	0.2492
384.0706	0.2639
384.2776	0.2702
384.4846	0.2643
384.6916	0.2725
384.8986	0.254
385.1055	0.2741
385.3125	0.2716
385.5194	0.2631
385.7263	0.2707
385.9333	0.2685
386.1402	0.2543
386.347	0.2716
386.5539	0.2759
386.7608	0.2892
386.9676	0.2766
387.1744	0.2697
387.3813	0.2684
387.5881	0.263
387.7948	0.2625
388.0016	0.2619
388.2084	0.2732
388.4151	0.2691
388.6219	0.2521
388.8286	0.2606
389.0353	0.2719
389.242	0.2723
389.4487	0.2599
389.6553	0.2396
389.862	0.2495
390.0686	0.2566
390.2753	0.2547
390.4819	0.2472
390.6885	0.2645
390.8951	0.2628
391.1016	0.2412
391.3082	0.2544
391.5147	0.2496
391.7213	0.2567
391.9278	0.2555
392.1343	0.2424
392.3408	0.2399
392.5473	0.2459
392.7537	0.2413
392.9602	0.2304
393.1666	0.2507
393.373	0.2418
393.5794	0.2622
393.7858	0.233
393.9922	0.2357
394.1986	0.2334
394.4049	0.2391
394.6113	0.2217
394.8176	0.2325
395.0239	0.2383
395.2302	0.2259
395.4365	0.2451
395.6428	0.2231
395.8491	0.2235
396.0553	0.2369
396.2615	0.2289
396.4678	0.2309
396.674	0.1965
396.8802	0.2311
397.0863	0.2409
397.2925	0.2181
397.4987	0.2182
397.7048	0.2196
397.9109	0.221
398.117	0.2175
398.3231	0.2124
398.5292	0.2399
398.7353	0.2189
398.9413	0.2159
399.1474	0.2212
399.3534	0.2137
399.5594	0.2015
399.7654	0.233
399.9714	0.2397
400.1774	0.2248
400.3833	0.2159
400.5893	0.2216
400.7952	0.2252
401.0011	0.232
401.207	0.2266
401.4129	0.2222
401.6188	0.2366
401.8247	0.2246
402.0305	0.2073
402.2364	0.2147
402.4422	0.2346
402.648	0.2078
402.8538	0.2152
403.0596	0.2173
403.2654	0.2339
403.4711	0.215
403.6768	0.2345
403.8826	0.2143
404.0883	0.2276
404.294	0.2218
404.4997	0.2068
404.7054	0.2326
404.911	0.2082
405.1167	0.2343
405.3223	0.2332
405.5279	0.228
405.7335	0.2403
405.9391	0.2321
406.1447	0.2189
406.3502	0.2492
406.5558	0.2115
406.7613	0.219
406.9668	0.2359
407.1724	0.2179
407.3778	0.2148
407.5833	0.2256
407.7888	0.2192
407.9942	0.2263
408.1997	0.2121
408.4051	0.2126
408.6105	0.2333
408.8159	0.1993
409.0213	0.2227
409.2267	0.2206
409.432	0.2105
409.6374	0.2309
409.8427	0.2224
410.048	0.2323
410.2533	0.2179
410.4586	0.2088
410.6639	0.1956
410.8691	0.2075
411.0744	0.2071
411.2796	0.2131
411.4848	0.226
411.69	0.2187
411.8952	0.2224
412.1004	0.2172
412.3056	0.2359
412.5107	0.2137
412.7158	0.2308
412.921	0.2116
413.1261	0.2219
413.3312	0.2093
413.5362	0.2007
413.7413	0.224
413.9464	0.2112
414.1514	0.2268
414.3564	0.2307
414.5614	0.2072
414.7664	0.2121
414.9714	0.2259
415.1764	0.2128
415.3813	0.2416
415.5863	0.2208
415.7912	0.2264
415.9961	0.2205
416.201	0.2049
416.4059	0.2337
416.6108	0.2249
416.8156	0.2164
417.0205	0.2105
417.2253	0.2101
417.4301	0.2117
417.6349	0.2104
417.8397	0.201
418.0445	0.2087
418.2492	0.218
418.454	0.2145
418.6587	0.2243
418.8634	0.1988
419.0681	0.1862
419.2728	0.199
419.4775	0.2072
419.6822	0.189
419.8868	0.1903
420.0915	0.1992
420.2961	0.1899
420.5007	0.2162
420.7053	0.2133
420.9099	0.1935
421.1144	0.1937
421.319	0.1804
421.5235	0.2137
421.728	0.2052
421.9325	0.2011
422.137	0.2072
422.3415	0.2018
422.546	0.202
422.7504	0.1908
422.9549	0.1957
423.1593	0.1979
423.3637	0.2179
423.5681	0.1844
423.7725	0.1697
423.9769	0.175
424.1812	0.181
424.3856	0.185
424.5899	0.1787
424.7942	0.1889
424.9985	0.1888
425.2028	0.1734
425.4071	0.2018
425.6113	0.1731
425.8156	0.1954
426.0198	0.1846
426.224	0.17
426.4282	0.166
426.6324	0.1577
426.8366	0.1661
