Data from D4ACN5uM480nmA_Absorbance_12-08-01-825.txt Node
Date: Fri Feb 21 12:08:01 GMT 2025
User: LASERRRRR
Spectrometer: FLMT03099
Trigger mode: 0
Integration Time (sec): 1.500000E-2
Scans to average: 1
Electric dark correction enabled: true
Nonlinearity correction enabled: false
Boxcar width: 0
XAxis mode: Wavelengths
Number of Pixels in Spectrum: 3648
>>>>>Begin Spectral Data<<<<<
179.3399	0.2173
179.5586	0.2173
179.7771	0.2173
179.9957	-0.0646
180.2143	-0.4068
180.4329	-0
180.6514	-0
180.8699	-0
181.0885	-0.3237
181.307	0.3797
181.5255	0.0259
181.744	-0
181.9625	-0.2571
182.181	0.5446
182.3994	-0
182.6179	-1.1105
182.8363	-0.1085
183.0547	-0
183.2732	0.1561
183.4916	0.4925
183.71	0.054
183.9284	0.1822
184.1467	0.1354
184.3651	0.2755
184.5835	0.0011
184.8018	0.3153
185.0201	0.3024
185.2385	0.1695
185.4568	0.0702
185.6751	0.1531
185.8934	0.0891
186.1117	0.1438
186.3299	0.4316
186.5482	0.1004
186.7664	0.6098
186.9847	0.3163
187.2029	0.1619
187.4211	0.0851
187.6393	0.2785
187.8575	0.1469
188.0757	0.5049
188.2939	0.2435
188.512	0.1089
188.7302	0.3728
188.9483	0.2031
189.1665	0.4572
189.3846	-0.0128
189.6027	0.165
189.8208	0.1316
190.0389	0.1097
190.257	0.0943
190.475	0.1023
190.6931	0.331
190.9111	0.2909
191.1292	0.2597
191.3472	0.0706
191.5652	1.0909
191.7832	0.3157
192.0012	0.2742
192.2192	0.4044
192.4371	0.2091
192.6551	0.2063
192.873	0.2553
193.091	0.3792
193.3089	0.1801
193.5268	0.4323
193.7447	0.4055
193.9626	0.4779
194.1805	0.4977
194.3984	0.3901
194.6162	0.4131
194.8341	0.5279
195.0519	0.4628
195.2697	0.6738
195.4875	0.8794
195.7054	0.4264
195.9231	0.3994
196.1409	0.4937
196.3587	0.4822
196.5765	0.4416
196.7942	0.6309
197.012	0.4675
197.2297	0.5215
197.4474	0.6948
197.6651	0.5483
197.8828	0.639
198.1005	0.6688
198.3182	0.51
198.5358	0.4842
198.7535	0.5888
198.9711	0.7057
199.1888	0.632
199.4064	0.5163
199.624	0.553
199.8416	0.5274
200.0592	0.6184
200.2767	0.5054
200.4943	0.6526
200.7119	0.5713
200.9294	0.5854
201.1469	0.679
201.3645	0.6037
201.582	0.5153
201.7995	0.6491
202.017	0.5304
202.2344	0.5767
202.4519	0.5973
202.6694	0.5585
202.8868	0.5446
203.1042	0.5476
203.3217	0.5992
203.5391	0.5346
203.7565	0.5062
203.9739	0.4944
204.1913	0.5114
204.4086	0.5156
204.626	0.5194
204.8433	0.5213
205.0607	0.4767
205.278	0.5152
205.4953	0.4953
205.7126	0.519
205.9299	0.4689
206.1472	0.4793
206.3644	0.4668
206.5817	0.476
206.7989	0.4984
207.0162	0.43
207.2334	0.468
207.4506	0.4445
207.6678	0.4528
207.885	0.4534
208.1022	0.4366
208.3194	0.3924
208.5365	0.4305
208.7537	0.4338
208.9708	0.4363
209.1879	0.452
209.405	0.4207
209.6222	0.436
209.8392	0.4344
210.0563	0.4396
210.2734	0.4231
210.4905	0.4177
210.7075	0.4271
210.9245	0.4228
211.1416	0.423
211.3586	0.3773
211.5756	0.4127
211.7926	0.4274
212.0096	0.3975
212.2265	0.3964
212.4435	0.4115
212.6604	0.3697
212.8774	0.3909
213.0943	0.3923
213.3112	0.4071
213.5281	0.3915
213.745	0.3658
213.9619	0.3896
214.1788	0.403
214.3956	0.4255
214.6125	0.3822
214.8293	0.4211
215.0461	0.411
215.2629	0.3722
215.4798	0.3726
215.6965	0.3695
215.9133	0.3998
216.1301	0.3941
216.3469	0.4111
216.5636	0.3977
216.7803	0.3975
216.9971	0.4085
217.2138	0.4003
217.4305	0.4326
217.6472	0.4229
217.8639	0.4317
218.0805	0.4037
218.2972	0.41
218.5138	0.4403
218.7305	0.4039
218.9471	0.4181
219.1637	0.4331
219.3803	0.4009
219.5969	0.4244
219.8135	0.4261
220.0301	0.395
220.2466	0.4182
220.4632	0.4043
220.6797	0.4346
220.8962	0.4359
221.1127	0.4295
221.3292	0.4344
221.5457	0.4324
221.7622	0.4368
221.9787	0.4538
222.1951	0.4382
222.4116	0.4393
222.628	0.445
222.8444	0.441
223.0608	0.4178
223.2772	0.448
223.4936	0.4514
223.71	0.4312
223.9264	0.4494
224.1427	0.442
224.3591	0.4437
224.5754	0.4558
224.7917	0.4624
225.008	0.4476
225.2243	0.4572
225.4406	0.4565
225.6569	0.4467
225.8732	0.4535
226.0894	0.4639
226.3057	0.4557
226.5219	0.4724
226.7381	0.4714
226.9543	0.4688
227.1705	0.4716
227.3867	0.4831
227.6029	0.4719
227.8191	0.4841
228.0352	0.4992
228.2513	0.4956
228.4675	0.484
228.6836	0.4834
228.8997	0.4919
229.1158	0.4831
229.3319	0.4962
229.548	0.4967
229.764	0.4855
229.9801	0.5071
230.1961	0.5033
230.4121	0.5077
230.6282	0.4924
230.8442	0.5098
231.0602	0.5124
231.2761	0.5127
231.4921	0.5129
231.7081	0.5209
231.924	0.5183
232.14	0.5167
232.3559	0.5169
232.5718	0.5174
232.7877	0.5231
233.0036	0.5218
233.2195	0.5226
233.4353	0.5399
233.6512	0.5337
233.867	0.5416
234.0829	0.5289
234.2987	0.5218
234.5145	0.5362
234.7303	0.5208
234.9461	0.5274
235.1619	0.5214
235.3776	0.5241
235.5934	0.5228
235.8091	0.5247
236.0249	0.5359
236.2406	0.5398
236.4563	0.5395
236.672	0.5337
236.8877	0.5355
237.1034	0.5274
237.319	0.5373
237.5347	0.526
237.7503	0.5423
237.966	0.5388
238.1816	0.5201
238.3972	0.5396
238.6128	0.5323
238.8284	0.5379
239.0439	0.5484
239.2595	0.5383
239.475	0.5297
239.6906	0.5449
239.9061	0.5233
240.1216	0.531
240.3371	0.5153
240.5526	0.5224
240.7681	0.5322
240.9836	0.5212
241.199	0.512
241.4145	0.5028
241.6299	0.4886
241.8453	0.4959
242.0607	0.478
242.2761	0.4761
242.4915	0.4735
242.7069	0.4608
242.9223	0.4571
243.1376	0.4428
243.353	0.4366
243.5683	0.4423
243.7836	0.4243
243.9989	0.414
244.2142	0.4113
244.4295	0.4087
244.6448	0.3952
244.86	0.397
245.0753	0.3831
245.2905	0.3709
245.5057	0.3705
245.721	0.3609
245.9362	0.3444
246.1514	0.3343
246.3665	0.3385
246.5817	0.332
246.7969	0.3231
247.012	0.3134
247.2271	0.3088
247.4423	0.3058
247.6574	0.3046
247.8725	0.3019
248.0876	0.2943
248.3026	0.2888
248.5177	0.2784
248.7328	0.2732
248.9478	0.2693
249.1628	0.2647
249.3779	0.267
249.5929	0.2596
249.8079	0.2565
250.0228	0.2496
250.2378	0.2532
250.4528	0.2479
250.6677	0.2436
250.8827	0.2359
251.0976	0.239
251.3125	0.2341
251.5274	0.2311
251.7423	0.2289
251.9572	0.2205
252.172	0.2267
252.3869	0.2248
252.6017	0.2208
252.8166	0.2182
253.0314	0.2232
253.2462	0.2179
253.461	0.2144
253.6758	0.2108
253.8906	0.2075
254.1053	0.1991
254.3201	0.2032
254.5348	0.202
254.7496	0.2016
254.9643	0.1983
255.179	0.2005
255.3937	0.1982
255.6083	0.1968
255.823	0.2012
256.0377	0.2007
256.2523	0.1981
256.467	0.1991
256.6816	0.203
256.8962	0.1937
257.1108	0.1943
257.3254	0.1919
257.54	0.1942
257.7545	0.1932
257.9691	0.1882
258.1836	0.1884
258.3981	0.1868
258.6127	0.1891
258.8272	0.1827
259.0417	0.1873
259.2561	0.1804
259.4706	0.1908
259.6851	0.1865
259.8995	0.1823
260.114	0.1815
260.3284	0.1819
260.5428	0.1802
260.7572	0.1861
260.9716	0.1837
261.186	0.1778
261.4003	0.1828
261.6147	0.1826
261.829	0.1866
262.0433	0.1876
262.2577	0.1909
262.472	0.184
262.6863	0.1841
262.9005	0.1843
263.1148	0.1786
263.3291	0.1868
263.5433	0.19
263.7576	0.1801
263.9718	0.1865
264.186	0.1809
264.4002	0.1834
264.6144	0.1886
264.8286	0.1881
265.0427	0.1888
265.2569	0.1835
265.471	0.1844
265.6851	0.1828
265.8993	0.1826
266.1134	0.1889
266.3275	0.1865
266.5415	0.1814
266.7556	0.1775
266.9697	0.1859
267.1837	0.1813
267.3978	0.1889
267.6118	0.1814
267.8258	0.1864
268.0398	0.1843
268.2538	0.184
268.4677	0.1851
268.6817	0.1751
268.8957	0.1831
269.1096	0.1761
269.3235	0.192
269.5374	0.1799
269.7514	0.1814
269.9652	0.1813
270.1791	0.18
270.393	0.1787
270.6068	0.1717
270.8207	0.174
271.0345	0.176
271.2483	0.1789
271.4622	0.1794
271.676	0.1749
271.8897	0.1747
272.1035	0.1733
272.3173	0.174
272.531	0.1777
272.7448	0.1731
272.9585	0.1763
273.1722	0.1752
273.3859	0.1696
273.5996	0.1724
273.8133	0.1712
274.0269	0.1751
274.2406	0.1769
274.4542	0.166
274.6679	0.1662
274.8815	0.1762
275.0951	0.1727
275.3087	0.1805
275.5223	0.1753
275.7358	0.1764
275.9494	0.1703
276.1629	0.1717
276.3765	0.1727
276.59	0.1796
276.8035	0.1793
277.017	0.1765
277.2305	0.1767
277.444	0.1722
277.6574	0.1796
277.8709	0.177
278.0843	0.1802
278.2978	0.1787
278.5112	0.1816
278.7246	0.1766
278.938	0.1773
279.1513	0.1785
279.3647	0.1771
279.5781	0.179
279.7914	0.1807
280.0047	0.1793
280.2181	0.1849
280.4314	0.1815
280.6447	0.184
280.8579	0.178
281.0712	0.1851
281.2845	0.1845
281.4977	0.1796
281.711	0.1806
281.9242	0.1834
282.1374	0.1795
282.3506	0.1859
282.5638	0.1822
282.7769	0.1832
282.9901	0.1806
283.2033	0.187
283.4164	0.1797
283.6295	0.1858
283.8426	0.1852
284.0557	0.1833
284.2688	0.1896
284.4819	0.1911
284.695	0.1907
284.908	0.1949
285.1211	0.1832
285.3341	0.1923
285.5471	0.1938
285.7601	0.1929
285.9731	0.1909
286.1861	0.1919
286.3991	0.1924
286.612	0.1914
286.825	0.1895
287.0379	0.1965
287.2508	0.1965
287.4637	0.197
287.6766	0.2002
287.8895	0.193
288.1024	0.1943
288.3152	0.1911
288.5281	0.1969
288.7409	0.1972
288.9538	0.1961
289.1666	0.1983
289.3794	0.1978
289.5922	0.1949
289.8049	0.2037
290.0177	0.2019
290.2304	0.2016
290.4432	0.1988
290.6559	0.1912
290.8686	0.2005
291.0813	0.2038
291.294	0.2046
291.5067	0.2015
291.7194	0.1979
291.932	0.201
292.1447	0.1988
292.3573	0.2002
292.5699	0.2038
292.7825	0.1974
292.9951	0.1988
293.2077	0.205
293.4203	0.2013
293.6328	0.2008
293.8454	0.2012
294.0579	0.2008
294.2704	0.2
294.4829	0.1979
294.6954	0.1992
294.9079	0.2059
295.1204	0.1996
295.3328	0.1975
295.5453	0.2012
295.7577	0.1947
295.9701	0.1999
296.1825	0.2006
296.3949	0.2034
296.6073	0.2051
296.8197	0.2022
297.0321	0.2049
297.2444	0.1996
297.4567	0.1957
297.6691	0.1972
297.8814	0.2004
298.0937	0.1947
298.306	0.1964
298.5182	0.204
298.7305	0.1987
298.9428	0.1967
299.155	0.1965
299.3672	0.1965
299.5794	0.196
299.7916	0.2004
300.0038	0.1992
300.216	0.1985
300.4282	0.1919
300.6403	0.1959
300.8525	0.2026
301.0646	0.1986
301.2767	0.1953
301.4888	0.1954
301.7009	0.1959
301.913	0.1997
302.125	0.1956
302.3371	0.1988
302.5491	0.1976
302.7612	0.1956
302.9732	0.1921
303.1852	0.1948
303.3972	0.1964
303.6092	0.1975
303.8211	0.1869
304.0331	0.1892
304.245	0.1961
304.457	0.1945
304.6689	0.1927
304.8808	0.1899
305.0927	0.1885
305.3046	0.1865
305.5164	0.1833
305.7283	0.1872
305.9401	0.1778
306.152	0.1824
306.3638	0.1811
306.5756	0.1858
306.7874	0.178
306.9992	0.178
307.2109	0.174
307.4227	0.1715
307.6344	0.1753
307.8462	0.1691
308.0579	0.1704
308.2696	0.162
308.4813	0.1619
308.693	0.1687
308.9046	0.1611
309.1163	0.1654
309.328	0.1525
309.5396	0.1572
309.7512	0.1519
309.9628	0.1538
310.1744	0.1544
310.386	0.1522
310.5976	0.1432
310.8091	0.1467
311.0207	0.1498
311.2322	0.1484
311.4437	0.1433
311.6552	0.145
311.8667	0.1386
312.0782	0.1409
312.2897	0.1397
312.5012	0.1388
312.7126	0.1311
312.924	0.1396
313.1355	0.1282
313.3469	0.1305
313.5583	0.1313
313.7696	0.1304
313.981	0.1248
314.1924	0.126
314.4037	0.1237
314.6151	0.1246
314.8264	0.1299
315.0377	0.1281
315.249	0.124
315.4603	0.125
315.6716	0.1232
315.8828	0.1171
316.0941	0.121
316.3053	0.1211
316.5165	0.1205
316.7277	0.1236
316.9389	0.1226
317.1501	0.1213
317.3613	0.1177
317.5724	0.1216
317.7836	0.1168
317.9947	0.1095
318.2058	0.1139
318.417	0.1145
318.6281	0.1155
318.8391	0.1162
319.0502	0.1154
319.2613	0.1179
319.4723	0.1133
319.6834	0.1198
319.8944	0.1225
320.1054	0.1194
320.3164	0.1213
320.5274	0.1091
320.7383	0.1152
320.9493	0.1161
321.1602	0.1159
321.3712	0.1211
321.5821	0.1217
321.793	0.1155
322.0039	0.1195
322.2148	0.1193
322.4257	0.1177
322.6365	0.1118
322.8474	0.1111
323.0582	0.1177
323.269	0.111
323.4798	0.1199
323.6906	0.1193
323.9014	0.1142
324.1122	0.1143
324.3229	0.1188
324.5337	0.116
324.7444	0.1139
324.9551	0.1185
325.1658	0.1177
325.3765	0.1181
325.5872	0.122
325.7979	0.1195
326.0085	0.1111
326.2192	0.11
326.4298	0.1201
326.6404	0.1223
326.851	0.124
327.0616	0.1251
327.2722	0.1227
327.4828	0.1184
327.6933	0.1247
327.9039	0.1172
328.1144	0.1212
328.3249	0.1194
328.5354	0.1134
328.7459	0.1183
328.9564	0.1231
329.1669	0.123
329.3773	0.1206
329.5878	0.1269
329.7982	0.1223
330.0086	0.1257
330.219	0.1217
330.4294	0.123
330.6398	0.1251
330.8502	0.1226
331.0605	0.125
331.2708	0.1242
331.4812	0.1254
331.6915	0.122
331.9018	0.1212
332.1121	0.125
332.3224	0.1263
332.5326	0.1249
332.7429	0.116
332.9531	0.1255
333.1633	0.1235
333.3735	0.1239
333.5837	0.1239
333.7939	0.1305
334.0041	0.1189
334.2143	0.1261
334.4244	0.1198
334.6346	0.1214
334.8447	0.1302
335.0548	0.1282
335.2649	0.1337
335.475	0.1278
335.685	0.1235
335.8951	0.1259
336.1051	0.1253
336.3152	0.1302
336.5252	0.1295
336.7352	0.1228
336.9452	0.1286
337.1552	0.1329
337.3652	0.1284
337.5751	0.1308
337.7851	0.1228
337.995	0.1347
338.2049	0.1303
338.4148	0.1251
338.6247	0.1288
338.8346	0.1252
339.0445	0.1344
339.2543	0.1373
339.4642	0.1403
339.674	0.1346
339.8838	0.1284
340.0936	0.1384
340.3034	0.1326
340.5132	0.1286
340.7229	0.1395
340.9327	0.1365
341.1424	0.1382
341.3522	0.1345
341.5619	0.1356
341.7716	0.1406
341.9813	0.1466
342.1909	0.1452
342.4006	0.1398
342.6102	0.1401
342.8199	0.1352
343.0295	0.1413
343.2391	0.1404
343.4487	0.1482
343.6583	0.1497
343.8679	0.1408
344.0774	0.1463
344.287	0.1455
344.4965	0.1455
344.706	0.1461
344.9155	0.1417
345.125	0.1446
345.3345	0.1427
345.544	0.1488
345.7534	0.1487
345.9629	0.149
346.1723	0.1483
346.3817	0.1508
346.5911	0.1538
346.8005	0.1524
347.0099	0.1528
347.2193	0.1496
347.4286	0.1517
347.638	0.1546
347.8473	0.1613
348.0566	0.152
348.2659	0.1518
348.4752	0.1576
348.6845	0.1619
348.8937	0.1604
349.103	0.1558
349.3122	0.1642
349.5214	0.1595
349.7306	0.1667
349.9398	0.1573
350.149	0.1631
350.3582	0.1607
350.5674	0.1661
350.7765	0.1652
350.9856	0.1693
351.1948	0.1659
351.4039	0.1635
351.613	0.1696
351.822	0.1651
352.0311	0.1654
352.2402	0.1667
352.4492	0.1728
352.6582	0.1664
352.8672	0.1693
353.0762	0.1714
353.2852	0.172
353.4942	0.1674
353.7032	0.1697
353.9121	0.1777
354.1211	0.1694
354.33	0.1783
354.5389	0.1736
354.7478	0.1756
354.9567	0.1775
355.1655	0.179
355.3744	0.1807
355.5833	0.1794
355.7921	0.1803
356.0009	0.1787
356.2097	0.1939
356.4185	0.1883
356.6273	0.1784
356.8361	0.1914
357.0448	0.189
357.2536	0.1928
357.4623	0.1838
357.671	0.1819
357.8797	0.1901
358.0884	0.1947
358.2971	0.1941
358.5057	0.1886
358.7144	0.205
358.923	0.1958
359.1316	0.193
359.3402	0.1978
359.5488	0.199
359.7574	0.1949
359.966	0.1991
360.1746	0.203
360.3831	0.2058
360.5916	0.1997
360.8002	0.2123
361.0087	0.2063
361.2172	0.2167
361.4256	0.2022
361.6341	0.2193
361.8426	0.2051
362.051	0.2101
362.2594	0.2172
362.4678	0.2068
362.6762	0.2158
362.8846	0.2175
363.093	0.2142
363.3014	0.2254
363.5097	0.2185
363.718	0.2227
363.9264	0.22
364.1347	0.2267
364.343	0.2276
364.5513	0.2311
364.7595	0.2332
364.9678	0.2253
365.176	0.2242
365.3842	0.2237
365.5925	0.2249
365.8007	0.2315
366.0089	0.2331
366.217	0.2376
366.4252	0.2334
366.6333	0.239
366.8415	0.2356
367.0496	0.2373
367.2577	0.2451
367.4658	0.2412
367.6739	0.2387
367.882	0.2546
368.09	0.2448
368.2981	0.2379
368.5061	0.2477
368.7141	0.2485
368.9221	0.2494
369.1301	0.2484
369.3381	0.2523
369.5461	0.2605
369.754	0.2466
369.962	0.2566
370.1699	0.2558
370.3778	0.2602
370.5857	0.2608
370.7936	0.2624
371.0015	0.2556
371.2093	0.257
371.4172	0.262
371.625	0.2663
371.8328	0.2611
372.0406	0.2649
372.2484	0.259
372.4562	0.2624
372.664	0.2667
372.8717	0.2666
373.0795	0.2735
373.2872	0.2626
373.4949	0.2829
373.7026	0.28
373.9103	0.2606
374.118	0.2717
374.3256	0.2798
374.5333	0.2665
374.7409	0.2759
374.9485	0.2774
375.1561	0.2792
375.3637	0.2731
375.5713	0.2781
375.7789	0.2769
375.9864	0.2833
376.194	0.2791
376.4015	0.2873
376.609	0.2774
376.8165	0.2829
377.024	0.2845
377.2315	0.2898
377.4389	0.28
377.6464	0.2812
377.8538	0.2963
378.0612	0.2829
378.2686	0.2905
378.476	0.2873
378.6834	0.2953
378.8908	0.2854
379.0981	0.2969
379.3055	0.3072
379.5128	0.2869
379.7201	0.285
379.9274	0.2975
380.1347	0.2979
380.342	0.2956
380.5492	0.2946
380.7565	0.2987
380.9637	0.297
381.1709	0.2984
381.3781	0.3056
381.5853	0.3014
381.7925	0.3078
381.9997	0.3049
382.2068	0.302
382.4139	0.3109
382.6211	0.3155
382.8282	0.3116
383.0353	0.3022
383.2424	0.3068
383.4494	0.3201
383.6565	0.2959
383.8635	0.3215
384.0706	0.3124
384.2776	0.3174
384.4846	0.3104
384.6916	0.3036
384.8986	0.322
385.1055	0.3208
385.3125	0.309
385.5194	0.306
385.7263	0.3039
385.9333	0.3075
386.1402	0.3134
386.347	0.3134
386.5539	0.3127
386.7608	0.3206
386.9676	0.3129
387.1744	0.308
387.3813	0.3112
387.5881	0.3236
387.7948	0.3153
388.0016	0.3024
388.2084	0.3103
388.4151	0.3114
388.6219	0.3126
388.8286	0.3035
389.0353	0.3041
389.242	0.2999
389.4487	0.3043
389.6553	0.3016
389.862	0.3057
390.0686	0.3182
390.2753	0.302
390.4819	0.3054
390.6885	0.2998
390.8951	0.307
391.1016	0.3098
391.3082	0.2912
391.5147	0.3007
391.7213	0.2998
391.9278	0.3014
392.1343	0.2899
392.3408	0.284
392.5473	0.2938
392.7537	0.294
392.9602	0.2803
393.1666	0.299
393.373	0.29
393.5794	0.2862
393.7858	0.2994
393.9922	0.2904
394.1986	0.2787
394.4049	0.2915
394.6113	0.2966
394.8176	0.271
395.0239	0.274
395.2302	0.2633
395.4365	0.2785
395.6428	0.2833
395.8491	0.2749
396.0553	0.2678
396.2615	0.2726
396.4678	0.2758
396.674	0.2664
396.8802	0.2701
397.0863	0.2724
397.2925	0.2713
397.4987	0.2738
397.7048	0.2711
397.9109	0.2695
398.117	0.2643
398.3231	0.2759
398.5292	0.2772
398.7353	0.2588
398.9413	0.2718
399.1474	0.2728
399.3534	0.2659
399.5594	0.2716
399.7654	0.2685
399.9714	0.2682
400.1774	0.2663
400.3833	0.2749
400.5893	0.2514
400.7952	0.2675
401.0011	0.2598
401.207	0.2708
401.4129	0.2719
401.6188	0.2626
401.8247	0.2676
402.0305	0.2556
402.2364	0.269
402.4422	0.2639
402.648	0.2686
402.8538	0.2765
403.0596	0.2633
403.2654	0.2673
403.4711	0.2658
403.6768	0.2651
403.8826	0.2667
404.0883	0.2572
404.294	0.2674
404.4997	0.2614
404.7054	0.2665
404.911	0.2649
405.1167	0.2704
405.3223	0.2677
405.5279	0.2597
405.7335	0.2547
405.9391	0.2649
406.1447	0.2699
406.3502	0.272
406.5558	0.2662
406.7613	0.2724
406.9668	0.2621
407.1724	0.2623
407.3778	0.265
407.5833	0.2702
407.7888	0.2654
407.9942	0.2646
408.1997	0.2699
408.4051	0.2642
408.6105	0.2743
408.8159	0.2676
409.0213	0.2672
409.2267	0.2686
409.432	0.2679
409.6374	0.2658
409.8427	0.2674
410.048	0.2531
410.2533	0.2553
410.4586	0.2588
410.6639	0.2582
410.8691	0.2821
411.0744	0.2569
411.2796	0.2763
411.4848	0.2585
411.69	0.2604
411.8952	0.2583
412.1004	0.2624
412.3056	0.2604
412.5107	0.2682
412.7158	0.2681
412.921	0.2627
413.1261	0.261
413.3312	0.2588
413.5362	0.2586
413.7413	0.2635
413.9464	0.2656
414.1514	0.2612
414.3564	0.26
414.5614	0.2602
414.7664	0.2716
414.9714	0.2629
415.1764	0.2503
415.3813	0.2469
415.5863	0.2625
415.7912	0.2626
415.9961	0.258
416.201	0.2653
416.4059	0.2542
416.6108	0.2561
416.8156	0.2562
417.0205	0.2592
417.2253	0.2596
417.4301	0.262
417.6349	0.2507
417.8397	0.2711
418.0445	0.2596
418.2492	0.26
418.454	0.2536
418.6587	0.2565
418.8634	0.2524
419.0681	0.2531
419.2728	0.2549
419.4775	0.2579
419.6822	0.2541
419.8868	0.2506
420.0915	0.2572
420.2961	0.2453
420.5007	0.2521
420.7053	0.2523
420.9099	0.2441
421.1144	0.2397
421.319	0.2513
421.5235	0.2393
421.728	0.2369
421.9325	0.2426
422.137	0.2377
422.3415	0.2367
422.546	0.2381
422.7504	0.2362
422.9549	0.2327
423.1593	0.234
423.3637	0.2325
423.5681	0.2453
423.7725	0.2385
423.9769	0.2343
424.1812	0.2299
424.3856	0.2364
424.5899	0.2354
424.7942	0.2279
424.9985	0.232
425.2028	0.2307
425.4071	0.2182
425.6113	0.2275
425.8156	0.2235
426.0198	0.223
426.224	0.2237
426.4282	0.2271
426.6324	0.221
426.8366	0.2168
