Data from D4ACN5uM480nmA_Absorbance_12-08-01-631.txt Node
Date: Fri Feb 21 12:08:01 GMT 2025
User: LASERRRRR
Spectrometer: FLMT03099
Trigger mode: 0
Integration Time (sec): 1.500000E-2
Scans to average: 1
Electric dark correction enabled: true
Nonlinearity correction enabled: false
Boxcar width: 0
XAxis mode: Wavelengths
Number of Pixels in Spectrum: 3648
>>>>>Begin Spectral Data<<<<<
179.3399	-0
179.5586	-0
179.7771	-0
179.9957	0.188
180.2143	-0.5422
180.4329	-0
180.6514	0.4771
180.8699	-0
181.0885	-0
181.307	0.2468
181.5255	0.1264
181.744	-0
181.9625	0.1057
182.181	-0
182.3994	-0
182.6179	-0
182.8363	-0.0411
183.0547	-0
183.2732	0.1901
183.4916	0.2798
183.71	0.4452
183.9284	0.2064
184.1467	0.3584
184.3651	0.0987
184.5835	0.0707
184.8018	0.0658
185.0201	0.081
185.2385	0.2264
185.4568	0.0733
185.6751	0.2486
185.8934	0.1355
186.1117	0.4698
186.3299	0.2831
186.5482	0.3174
186.7664	0.8623
186.9847	0.304
187.2029	0.0707
187.4211	0.1119
187.6393	0.186
187.8575	0.0644
188.0757	0.2571
188.2939	0.1696
188.512	0.3741
188.7302	0.1986
188.9483	0.105
189.1665	0.6364
189.3846	0.1866
189.6027	0.3506
189.8208	0.3185
190.0389	0.3013
190.257	0.1942
190.475	0.1748
190.6931	0.4771
190.9111	0.5285
191.1292	0.4231
191.3472	0.1464
191.5652	0.5299
191.7832	0.3735
192.0012	0.3601
192.2192	0.4235
192.4371	0.4138
192.6551	0.356
192.873	0.4925
193.091	0.335
193.3089	0.3219
193.5268	1.0543
193.7447	0.4048
193.9626	0.5239
194.1805	0.4228
194.3984	0.4037
194.6162	0.5349
194.8341	0.7426
195.0519	0.441
195.2697	0.5327
195.4875	0.5374
195.7054	0.484
195.9231	0.4841
196.1409	0.6239
196.3587	0.5346
196.5765	0.5661
196.7942	0.6418
197.012	0.5254
197.2297	0.5316
197.4474	0.5996
197.6651	0.524
197.8828	0.6792
198.1005	0.6953
198.3182	0.5423
198.5358	0.5614
198.7535	0.6123
198.9711	0.6113
199.1888	0.6105
199.4064	0.5253
199.624	0.6346
199.8416	0.6266
200.0592	0.6322
200.2767	0.5762
200.4943	0.6805
200.7119	0.5932
200.9294	0.5235
201.1469	0.6197
201.3645	0.6771
201.582	0.5438
201.7995	0.6049
202.017	0.5457
202.2344	0.5413
202.4519	0.5458
202.6694	0.5838
202.8868	0.6066
203.1042	0.5562
203.3217	0.5807
203.5391	0.5654
203.7565	0.5071
203.9739	0.5206
204.1913	0.5288
204.4086	0.5047
204.626	0.5309
204.8433	0.5203
205.0607	0.4872
205.278	0.532
205.4953	0.4774
205.7126	0.4914
205.9299	0.452
206.1472	0.4861
206.3644	0.5055
206.5817	0.4946
206.7989	0.4846
207.0162	0.4407
207.2334	0.4406
207.4506	0.4597
207.6678	0.441
207.885	0.4402
208.1022	0.4576
208.3194	0.4243
208.5365	0.4493
208.7537	0.4512
208.9708	0.4316
209.1879	0.4032
209.405	0.4438
209.6222	0.4036
209.8392	0.4091
210.0563	0.466
210.2734	0.4078
210.4905	0.4191
210.7075	0.4246
210.9245	0.4183
211.1416	0.3944
211.3586	0.4245
211.5756	0.4172
211.7926	0.4009
212.0096	0.4081
212.2265	0.4109
212.4435	0.4227
212.6604	0.4107
212.8774	0.4146
213.0943	0.4221
213.3112	0.4123
213.5281	0.4119
213.745	0.4204
213.9619	0.3831
214.1788	0.3853
214.3956	0.4136
214.6125	0.4058
214.8293	0.421
215.0461	0.4132
215.2629	0.4178
215.4798	0.4017
215.6965	0.4019
215.9133	0.4271
216.1301	0.4163
216.3469	0.4186
216.5636	0.4006
216.7803	0.425
216.9971	0.416
217.2138	0.4109
217.4305	0.422
217.6472	0.4244
217.8639	0.3977
218.0805	0.4161
218.2972	0.4303
218.5138	0.4213
218.7305	0.4093
218.9471	0.433
219.1637	0.4364
219.3803	0.4308
219.5969	0.4343
219.8135	0.42
220.0301	0.4249
220.2466	0.4403
220.4632	0.4362
220.6797	0.4351
220.8962	0.4488
221.1127	0.4231
221.3292	0.4302
221.5457	0.4222
221.7622	0.4277
221.9787	0.4469
222.1951	0.4467
222.4116	0.4336
222.628	0.444
222.8444	0.4443
223.0608	0.4383
223.2772	0.4489
223.4936	0.4455
223.71	0.4681
223.9264	0.4533
224.1427	0.4517
224.3591	0.4509
224.5754	0.4481
224.7917	0.4507
225.008	0.4619
225.2243	0.4795
225.4406	0.4512
225.6569	0.4479
225.8732	0.4677
226.0894	0.4645
226.3057	0.4628
226.5219	0.4644
226.7381	0.4644
226.9543	0.4761
227.1705	0.4704
227.3867	0.5007
227.6029	0.4681
227.8191	0.484
228.0352	0.5101
228.2513	0.5037
228.4675	0.4898
228.6836	0.4895
228.8997	0.4924
229.1158	0.4965
229.3319	0.4892
229.548	0.4962
229.764	0.4925
229.9801	0.5109
230.1961	0.5013
230.4121	0.5149
230.6282	0.5054
230.8442	0.5124
231.0602	0.508
231.2761	0.525
231.4921	0.5119
231.7081	0.5259
231.924	0.5158
232.14	0.5153
232.3559	0.5261
232.5718	0.5278
232.7877	0.5268
233.0036	0.5183
233.2195	0.5255
233.4353	0.5318
233.6512	0.5258
233.867	0.5521
234.0829	0.5432
234.2987	0.5178
234.5145	0.5346
234.7303	0.5342
234.9461	0.5403
235.1619	0.5367
235.3776	0.5197
235.5934	0.5288
235.8091	0.5352
236.0249	0.5343
236.2406	0.554
236.4563	0.5393
236.672	0.5323
236.8877	0.5357
237.1034	0.5375
237.319	0.5397
237.5347	0.5321
237.7503	0.5421
237.966	0.535
238.1816	0.5199
238.3972	0.5376
238.6128	0.5395
238.8284	0.5335
239.0439	0.5402
239.2595	0.5366
239.475	0.5277
239.6906	0.5296
239.9061	0.5293
240.1216	0.5312
240.3371	0.5329
240.5526	0.5097
240.7681	0.5256
240.9836	0.518
241.199	0.5229
241.4145	0.5033
241.6299	0.4894
241.8453	0.4895
242.0607	0.4858
242.2761	0.4815
242.4915	0.4745
242.7069	0.4687
242.9223	0.4618
243.1376	0.4559
243.353	0.4365
243.5683	0.4494
243.7836	0.4348
243.9989	0.414
244.2142	0.4162
244.4295	0.4071
244.6448	0.395
244.86	0.3917
245.0753	0.3835
245.2905	0.3703
245.5057	0.3701
245.721	0.3555
245.9362	0.3493
246.1514	0.3341
246.3665	0.3475
246.5817	0.3369
246.7969	0.3288
247.012	0.325
247.2271	0.3209
247.4423	0.3068
247.6574	0.3105
247.8725	0.3056
248.0876	0.29
248.3026	0.2824
248.5177	0.2852
248.7328	0.2825
248.9478	0.2689
249.1628	0.2693
249.3779	0.265
249.5929	0.256
249.8079	0.2501
250.0228	0.2498
250.2378	0.2511
250.4528	0.2518
250.6677	0.2382
250.8827	0.2418
251.0976	0.2381
251.3125	0.2359
251.5274	0.2272
251.7423	0.2341
251.9572	0.2232
252.172	0.2192
252.3869	0.2188
252.6017	0.2147
252.8166	0.2215
253.0314	0.2167
253.2462	0.2149
253.461	0.2148
253.6758	0.2074
253.8906	0.2134
254.1053	0.2152
254.3201	0.1989
254.5348	0.2011
254.7496	0.2017
254.9643	0.21
255.179	0.2047
255.3937	0.1971
255.6083	0.2015
255.823	0.1985
256.0377	0.1985
256.2523	0.2016
256.467	0.2014
256.6816	0.1954
256.8962	0.1977
257.1108	0.1922
257.3254	0.1989
257.54	0.1907
257.7545	0.1897
257.9691	0.1927
258.1836	0.1954
258.3981	0.1892
258.6127	0.1795
258.8272	0.1864
259.0417	0.1807
259.2561	0.1859
259.4706	0.1863
259.6851	0.186
259.8995	0.1836
260.114	0.1802
260.3284	0.188
260.5428	0.182
260.7572	0.1855
260.9716	0.1859
261.186	0.1818
261.4003	0.1882
261.6147	0.1802
261.829	0.1849
262.0433	0.1825
262.2577	0.1884
262.472	0.1854
262.6863	0.1906
262.9005	0.1902
263.1148	0.1814
263.3291	0.1851
263.5433	0.1874
263.7576	0.1793
263.9718	0.1832
264.186	0.1855
264.4002	0.1815
264.6144	0.1869
264.8286	0.1878
265.0427	0.1862
265.2569	0.1885
265.471	0.1864
265.6851	0.1797
265.8993	0.1898
266.1134	0.1844
266.3275	0.1885
266.5415	0.187
266.7556	0.1814
266.9697	0.1846
267.1837	0.187
267.3978	0.1954
267.6118	0.1826
267.8258	0.1849
268.0398	0.1802
268.2538	0.1848
268.4677	0.1808
268.6817	0.1733
268.8957	0.1857
269.1096	0.1809
269.3235	0.1886
269.5374	0.1793
269.7514	0.1815
269.9652	0.1814
270.1791	0.1766
270.393	0.1817
270.6068	0.1713
270.8207	0.173
271.0345	0.1735
271.2483	0.1741
271.4622	0.1776
271.676	0.175
271.8897	0.1718
272.1035	0.1733
272.3173	0.1737
272.531	0.1734
272.7448	0.1671
272.9585	0.1807
273.1722	0.1741
273.3859	0.1728
273.5996	0.1726
273.8133	0.1697
274.0269	0.1806
274.2406	0.1701
274.4542	0.1653
274.6679	0.1714
274.8815	0.1726
275.0951	0.172
275.3087	0.1707
275.5223	0.1671
275.7358	0.1838
275.9494	0.1771
276.1629	0.1731
276.3765	0.1716
276.59	0.176
276.8035	0.1738
277.017	0.1713
277.2305	0.1757
277.444	0.1753
277.6574	0.1775
277.8709	0.1755
278.0843	0.1739
278.2978	0.1794
278.5112	0.1822
278.7246	0.1787
278.938	0.1782
279.1513	0.1826
279.3647	0.1781
279.5781	0.1825
279.7914	0.1823
280.0047	0.1808
280.2181	0.1829
280.4314	0.1837
280.6447	0.1826
280.8579	0.1755
281.0712	0.1836
281.2845	0.1845
281.4977	0.1912
281.711	0.181
281.9242	0.1867
282.1374	0.1855
282.3506	0.1896
282.5638	0.1865
282.7769	0.1828
282.9901	0.1831
283.2033	0.1817
283.4164	0.1878
283.6295	0.1821
283.8426	0.1892
284.0557	0.1849
284.2688	0.1933
284.4819	0.1925
284.695	0.1963
284.908	0.1916
285.1211	0.1933
285.3341	0.1962
285.5471	0.1927
285.7601	0.191
285.9731	0.189
286.1861	0.192
286.3991	0.1913
286.612	0.1926
286.825	0.1961
287.0379	0.1946
287.2508	0.1894
287.4637	0.1935
287.6766	0.1961
287.8895	0.2003
288.1024	0.198
288.3152	0.1956
288.5281	0.1965
288.7409	0.1971
288.9538	0.1991
289.1666	0.2021
289.3794	0.1986
289.5922	0.1907
289.8049	0.204
290.0177	0.1963
290.2304	0.1986
290.4432	0.1978
290.6559	0.1942
290.8686	0.2024
291.0813	0.1972
291.294	0.2055
291.5067	0.2039
291.7194	0.1896
291.932	0.1971
292.1447	0.199
292.3573	0.1982
292.5699	0.204
292.7825	0.199
292.9951	0.2017
293.2077	0.2005
293.4203	0.1969
293.6328	0.1961
293.8454	0.1994
294.0579	0.2049
294.2704	0.1999
294.4829	0.1986
294.6954	0.1977
294.9079	0.2074
295.1204	0.194
295.3328	0.2007
295.5453	0.198
295.7577	0.1929
295.9701	0.1994
296.1825	0.1957
296.3949	0.2055
296.6073	0.1971
296.8197	0.2034
297.0321	0.2036
297.2444	0.2019
297.4567	0.1971
297.6691	0.2014
297.8814	0.196
298.0937	0.2002
298.306	0.1958
298.5182	0.2013
298.7305	0.1973
298.9428	0.1967
299.155	0.1956
299.3672	0.2038
299.5794	0.1931
299.7916	0.1984
300.0038	0.1932
300.216	0.2014
300.4282	0.1975
300.6403	0.1938
300.8525	0.2033
301.0646	0.1958
301.2767	0.194
301.4888	0.1943
301.7009	0.199
301.913	0.2015
302.125	0.1975
302.3371	0.2001
302.5491	0.2021
302.7612	0.1974
302.9732	0.1978
303.1852	0.1946
303.3972	0.2008
303.6092	0.191
303.8211	0.1848
304.0331	0.1944
304.245	0.1926
304.457	0.1993
304.6689	0.1928
304.8808	0.191
305.0927	0.1925
305.3046	0.1865
305.5164	0.1847
305.7283	0.185
305.9401	0.1796
306.152	0.1826
306.3638	0.1798
306.5756	0.1839
306.7874	0.1836
306.9992	0.1762
307.2109	0.1703
307.4227	0.1741
307.6344	0.1725
307.8462	0.1698
308.0579	0.1638
308.2696	0.1667
308.4813	0.1661
308.693	0.1717
308.9046	0.1631
309.1163	0.1633
309.328	0.153
309.5396	0.1572
309.7512	0.1576
309.9628	0.1547
310.1744	0.154
310.386	0.1452
310.5976	0.1454
310.8091	0.1436
311.0207	0.1475
311.2322	0.1479
311.4437	0.1481
311.6552	0.1402
311.8667	0.1346
312.0782	0.1393
312.2897	0.1393
312.5012	0.1407
312.7126	0.1345
312.924	0.1369
313.1355	0.1298
313.3469	0.1274
313.5583	0.1282
313.7696	0.1279
313.981	0.1299
314.1924	0.128
314.4037	0.1201
314.6151	0.1313
314.8264	0.1265
315.0377	0.1263
315.249	0.1221
315.4603	0.1242
315.6716	0.1232
315.8828	0.12
316.0941	0.1237
316.3053	0.1218
316.5165	0.121
316.7277	0.1209
316.9389	0.1199
317.1501	0.1146
317.3613	0.1182
317.5724	0.1186
317.7836	0.1203
317.9947	0.1146
318.2058	0.1189
318.417	0.1157
318.6281	0.1156
318.8391	0.1214
319.0502	0.118
319.2613	0.1165
319.4723	0.1194
319.6834	0.1223
319.8944	0.1201
320.1054	0.1155
320.3164	0.1156
320.5274	0.1119
320.7383	0.1098
320.9493	0.1148
321.1602	0.1168
321.3712	0.1175
321.5821	0.1248
321.793	0.1119
322.0039	0.1179
322.2148	0.1161
322.4257	0.1188
322.6365	0.119
322.8474	0.11
323.0582	0.1204
323.269	0.1088
323.4798	0.1186
323.6906	0.1175
323.9014	0.1139
324.1122	0.1137
324.3229	0.1189
324.5337	0.1211
324.7444	0.114
324.9551	0.1241
325.1658	0.1207
325.3765	0.1195
325.5872	0.1145
325.7979	0.1186
326.0085	0.1166
326.2192	0.1109
326.4298	0.1224
326.6404	0.1216
326.851	0.1207
327.0616	0.1228
327.2722	0.1266
327.4828	0.1176
327.6933	0.123
327.9039	0.1209
328.1144	0.1237
328.3249	0.1195
328.5354	0.1259
328.7459	0.126
328.9564	0.1281
329.1669	0.1237
329.3773	0.1208
329.5878	0.1234
329.7982	0.1221
330.0086	0.1225
330.219	0.1229
330.4294	0.1249
330.6398	0.131
330.8502	0.1238
331.0605	0.1199
331.2708	0.1206
331.4812	0.1278
331.6915	0.1195
331.9018	0.1226
332.1121	0.1263
332.3224	0.1309
332.5326	0.1263
332.7429	0.1226
332.9531	0.128
333.1633	0.1296
333.3735	0.1263
333.5837	0.1323
333.7939	0.1187
334.0041	0.1267
334.2143	0.1274
334.4244	0.1285
334.6346	0.1282
334.8447	0.1268
335.0548	0.1273
335.2649	0.1295
335.475	0.1295
335.685	0.1269
335.8951	0.1298
336.1051	0.1312
336.3152	0.1231
336.5252	0.13
336.7352	0.1216
336.9452	0.133
337.1552	0.1295
337.3652	0.1284
337.5751	0.1254
337.7851	0.1312
337.995	0.1311
338.2049	0.1324
338.4148	0.1262
338.6247	0.1386
338.8346	0.1339
339.0445	0.1303
339.2543	0.135
339.4642	0.1362
339.674	0.1376
339.8838	0.1305
340.0936	0.1383
340.3034	0.1322
340.5132	0.1294
340.7229	0.1293
340.9327	0.1391
341.1424	0.1385
341.3522	0.1404
341.5619	0.1408
341.7716	0.1344
341.9813	0.1444
342.1909	0.145
342.4006	0.1396
342.6102	0.1415
342.8199	0.1347
343.0295	0.142
343.2391	0.1419
343.4487	0.1475
343.6583	0.148
343.8679	0.143
344.0774	0.1416
344.287	0.1469
344.4965	0.1434
344.706	0.1442
344.9155	0.1415
345.125	0.1505
345.3345	0.1412
345.544	0.1504
345.7534	0.1473
345.9629	0.1534
346.1723	0.1512
346.3817	0.1427
346.5911	0.1528
346.8005	0.1451
347.0099	0.1512
347.2193	0.1494
347.4286	0.154
347.638	0.1589
347.8473	0.1555
348.0566	0.1592
348.2659	0.1585
348.4752	0.1538
348.6845	0.1625
348.8937	0.1546
349.103	0.1592
349.3122	0.1619
349.5214	0.1568
349.7306	0.1544
349.9398	0.1575
350.149	0.1591
350.3582	0.1587
350.5674	0.1656
350.7765	0.1642
350.9856	0.1697
351.1948	0.1629
351.4039	0.1654
351.613	0.1807
351.822	0.1704
352.0311	0.1619
352.2402	0.1704
352.4492	0.1677
352.6582	0.1717
352.8672	0.1697
353.0762	0.1739
353.2852	0.174
353.4942	0.1725
353.7032	0.1747
353.9121	0.1729
354.1211	0.1703
354.33	0.1827
354.5389	0.1894
354.7478	0.1857
354.9567	0.1726
355.1655	0.1772
355.3744	0.1774
355.5833	0.1859
355.7921	0.1804
356.0009	0.1813
356.2097	0.1897
356.4185	0.1841
356.6273	0.1886
356.8361	0.1908
357.0448	0.1865
357.2536	0.1904
357.4623	0.1885
357.671	0.1829
357.8797	0.2017
358.0884	0.1889
358.2971	0.186
358.5057	0.1977
358.7144	0.2022
358.923	0.1946
359.1316	0.1962
359.3402	0.1992
359.5488	0.1996
359.7574	0.2008
359.966	0.2025
360.1746	0.199
360.3831	0.2098
360.5916	0.2036
360.8002	0.2118
361.0087	0.2127
361.2172	0.2193
361.4256	0.194
361.6341	0.2099
361.8426	0.211
362.051	0.2175
362.2594	0.2168
362.4678	0.2147
362.6762	0.216
362.8846	0.2231
363.093	0.2184
363.3014	0.2191
363.5097	0.2165
363.718	0.2294
363.9264	0.2176
364.1347	0.2318
364.343	0.2241
364.5513	0.2289
364.7595	0.2293
364.9678	0.2347
365.176	0.2323
365.3842	0.2346
365.5925	0.2271
365.8007	0.2346
366.0089	0.2343
366.217	0.2448
366.4252	0.2389
366.6333	0.2412
366.8415	0.2353
367.0496	0.2365
367.2577	0.2487
367.4658	0.2528
367.6739	0.2398
367.882	0.2488
368.09	0.247
368.2981	0.2388
368.5061	0.2408
368.7141	0.2468
368.9221	0.2538
369.1301	0.2465
369.3381	0.2561
369.5461	0.2546
369.754	0.2545
369.962	0.2508
370.1699	0.2606
370.3778	0.2553
370.5857	0.2521
370.7936	0.259
371.0015	0.251
371.2093	0.2678
371.4172	0.2623
371.625	0.2641
371.8328	0.2636
372.0406	0.2627
372.2484	0.2549
372.4562	0.2733
372.664	0.2646
372.8717	0.2672
373.0795	0.2779
373.2872	0.269
373.4949	0.2729
373.7026	0.2769
373.9103	0.2611
374.118	0.2693
374.3256	0.2882
374.5333	0.2779
374.7409	0.273
374.9485	0.2831
375.1561	0.2807
375.3637	0.2797
375.5713	0.2781
375.7789	0.28
375.9864	0.2819
376.194	0.2827
376.4015	0.2909
376.609	0.2896
376.8165	0.3073
377.024	0.28
377.2315	0.297
377.4389	0.2751
377.6464	0.2833
377.8538	0.2873
378.0612	0.2853
378.2686	0.2863
378.476	0.2872
378.6834	0.2854
378.8908	0.2853
379.0981	0.3033
379.3055	0.3026
379.5128	0.2908
379.7201	0.2969
379.9274	0.2913
380.1347	0.2983
380.342	0.3062
380.5492	0.2937
380.7565	0.3002
380.9637	0.2968
381.1709	0.2999
381.3781	0.3077
381.5853	0.303
381.7925	0.308
381.9997	0.3067
382.2068	0.311
382.4139	0.3101
382.6211	0.3229
382.8282	0.3107
383.0353	0.3103
383.2424	0.3071
383.4494	0.3067
383.6565	0.3087
383.8635	0.3239
384.0706	0.3057
384.2776	0.3102
384.4846	0.3206
384.6916	0.3075
384.8986	0.3261
385.1055	0.3156
385.3125	0.3125
385.5194	0.3127
385.7263	0.3119
385.9333	0.313
386.1402	0.3189
386.347	0.3163
386.5539	0.3194
386.7608	0.3194
386.9676	0.3144
387.1744	0.3196
387.3813	0.3142
387.5881	0.3121
387.7948	0.3146
388.0016	0.3201
388.2084	0.3184
388.4151	0.3082
388.6219	0.3154
388.8286	0.3193
389.0353	0.3062
389.242	0.307
389.4487	0.3155
389.6553	0.3046
389.862	0.3133
390.0686	0.3116
390.2753	0.2931
390.4819	0.3183
390.6885	0.3043
390.8951	0.3193
391.1016	0.3117
391.3082	0.2867
391.5147	0.2991
391.7213	0.2976
391.9278	0.3089
392.1343	0.2959
392.3408	0.2979
392.5473	0.2983
392.7537	0.3006
392.9602	0.2839
393.1666	0.2933
393.373	0.2937
393.5794	0.2888
393.7858	0.2912
393.9922	0.2882
394.1986	0.2838
394.4049	0.2802
394.6113	0.2885
394.8176	0.2805
395.0239	0.2802
395.2302	0.277
395.4365	0.2745
395.6428	0.2734
395.8491	0.2738
396.0553	0.2685
396.2615	0.2729
396.4678	0.2727
396.674	0.2714
396.8802	0.2705
397.0863	0.2709
397.2925	0.2639
397.4987	0.2739
397.7048	0.2777
397.9109	0.2729
398.117	0.266
398.3231	0.2767
398.5292	0.2754
398.7353	0.2666
398.9413	0.2781
399.1474	0.2715
399.3534	0.2651
399.5594	0.2762
399.7654	0.2674
399.9714	0.2606
400.1774	0.263
400.3833	0.2739
400.5893	0.2618
400.7952	0.2709
401.0011	0.2674
401.207	0.2726
401.4129	0.2784
401.6188	0.2608
401.8247	0.2661
402.0305	0.2636
402.2364	0.2636
402.4422	0.2735
402.648	0.2692
402.8538	0.276
403.0596	0.2601
403.2654	0.2679
403.4711	0.2658
403.6768	0.2683
403.8826	0.2673
404.0883	0.2635
404.294	0.2651
404.4997	0.2683
404.7054	0.2711
404.911	0.2595
405.1167	0.2623
405.3223	0.2748
405.5279	0.2638
405.7335	0.2711
405.9391	0.2625
406.1447	0.273
406.3502	0.2726
406.5558	0.2761
406.7613	0.2705
406.9668	0.2675
407.1724	0.2722
407.3778	0.2689
407.5833	0.2666
407.7888	0.2695
407.9942	0.2618
408.1997	0.2692
408.4051	0.2671
408.6105	0.2702
408.8159	0.2693
409.0213	0.265
409.2267	0.2649
409.432	0.2598
409.6374	0.2693
409.8427	0.28
410.048	0.2649
410.2533	0.2535
410.4586	0.2702
410.6639	0.2678
410.8691	0.2845
411.0744	0.2655
411.2796	0.2669
411.4848	0.259
411.69	0.2646
411.8952	0.2603
412.1004	0.2614
412.3056	0.2604
412.5107	0.2753
412.7158	0.2651
412.921	0.2628
413.1261	0.2735
413.3312	0.2617
413.5362	0.2595
413.7413	0.27
413.9464	0.2553
414.1514	0.2602
414.3564	0.2586
414.5614	0.2629
414.7664	0.2552
414.9714	0.2634
415.1764	0.2579
415.3813	0.2535
415.5863	0.2629
415.7912	0.2665
415.9961	0.2654
416.201	0.2664
416.4059	0.2532
416.6108	0.2668
416.8156	0.2523
417.0205	0.2581
417.2253	0.2572
417.4301	0.2781
417.6349	0.2584
417.8397	0.2612
418.0445	0.2626
418.2492	0.2628
418.454	0.2563
418.6587	0.2646
418.8634	0.2618
419.0681	0.2602
419.2728	0.2549
419.4775	0.2529
419.6822	0.2417
419.8868	0.2474
420.0915	0.2537
420.2961	0.2478
420.5007	0.2458
420.7053	0.2451
420.9099	0.2266
421.1144	0.2495
421.319	0.2463
421.5235	0.2421
421.728	0.2472
421.9325	0.2424
422.137	0.2458
422.3415	0.2377
422.546	0.239
422.7504	0.2416
422.9549	0.2453
423.1593	0.2401
423.3637	0.2319
423.5681	0.249
423.7725	0.2367
423.9769	0.2378
424.1812	0.2465
424.3856	0.2367
424.5899	0.2397
424.7942	0.2289
424.9985	0.2345
425.2028	0.226
425.4071	0.2224
425.6113	0.2374
425.8156	0.2326
426.0198	0.2202
426.224	0.2213
426.4282	0.2304
426.6324	0.2173
426.8366	0.2204
427.0407	0.2207
