Data from D4ACN5uM480nmA_Absorbance_12-08-01-481.txt Node
Date: Fri Feb 21 12:08:01 GMT 2025
User: LASERRRRR
Spectrometer: FLMT03099
Trigger mode: 0
Integration Time (sec): 1.500000E-2
Scans to average: 1
Electric dark correction enabled: true
Nonlinearity correction enabled: false
Boxcar width: 0
XAxis mode: Wavelengths
Number of Pixels in Spectrum: 3648
>>>>>Begin Spectral Data<<<<<
179.3399	-0.2842
179.5586	-0.2842
179.7771	-0.2842
179.9957	0.1125
180.2143	0.7404
180.4329	-0
180.6514	-0.017
180.8699	-0.254
181.0885	-0
181.307	0.2371
181.5255	0.4144
181.744	-0
181.9625	0.1189
182.181	0.1624
182.3994	-0
182.6179	-0
182.8363	-0.5154
183.0547	-1.1856
183.2732	0.2368
183.4916	0.1148
183.71	0.2824
183.9284	0.1162
184.1467	0.046
184.3651	0.2829
184.5835	0.1665
184.8018	0.2395
185.0201	0.209
185.2385	0.166
185.4568	0.1825
185.6751	0.135
185.8934	0.2761
186.1117	0.4444
186.3299	0.2632
186.5482	0.0529
186.7664	0.2281
186.9847	0.4848
187.2029	0.085
187.4211	0.1175
187.6393	0.3182
187.8575	0.0736
188.0757	0.5459
188.2939	0.1831
188.512	0.2128
188.7302	0.0164
188.9483	0.4523
189.1665	-0
189.3846	0.0395
189.6027	-0.0385
189.8208	0.5916
190.0389	0.1972
190.257	0.1834
190.475	0.2485
190.6931	0.2663
190.9111	0.4154
191.1292	0.136
191.3472	0.1224
191.5652	0.5889
191.7832	0.4033
192.0012	0.1827
192.2192	0.4562
192.4371	0.3807
192.6551	0.33
192.873	0.1513
193.091	0.231
193.3089	0.1775
193.5268	0.5391
193.7447	0.4159
193.9626	0.49
194.1805	0.3195
194.3984	0.3951
194.6162	0.4452
194.8341	0.4908
195.0519	0.4138
195.2697	0.6325
195.4875	0.6527
195.7054	0.5132
195.9231	0.3576
196.1409	0.6761
196.3587	0.512
196.5765	0.4204
196.7942	0.5405
197.012	0.5328
197.2297	0.5096
197.4474	0.7043
197.6651	0.6392
197.8828	0.7859
198.1005	0.6571
198.3182	0.6325
198.5358	0.5414
198.7535	0.5761
198.9711	0.627
199.1888	0.633
199.4064	0.658
199.624	0.5951
199.8416	0.5031
200.0592	0.5794
200.2767	0.6264
200.4943	0.7122
200.7119	0.5838
200.9294	0.5897
201.1469	0.5956
201.3645	0.5972
201.582	0.5504
201.7995	0.5863
202.017	0.5505
202.2344	0.5172
202.4519	0.6093
202.6694	0.6323
202.8868	0.5439
203.1042	0.4802
203.3217	0.5481
203.5391	0.5407
203.7565	0.5478
203.9739	0.4622
204.1913	0.5436
204.4086	0.5784
204.626	0.5103
204.8433	0.4698
205.0607	0.5295
205.278	0.5665
205.4953	0.488
205.7126	0.4903
205.9299	0.4406
206.1472	0.5031
206.3644	0.475
206.5817	0.471
206.7989	0.4731
207.0162	0.4275
207.2334	0.4378
207.4506	0.4814
207.6678	0.4734
207.885	0.4744
208.1022	0.4605
208.3194	0.4356
208.5365	0.4618
208.7537	0.4561
208.9708	0.4594
209.1879	0.4429
209.405	0.4253
209.6222	0.4263
209.8392	0.4352
210.0563	0.4339
210.2734	0.4218
210.4905	0.4273
210.7075	0.4308
210.9245	0.4348
211.1416	0.4213
211.3586	0.4215
211.5756	0.4036
211.7926	0.399
212.0096	0.4048
212.2265	0.4014
212.4435	0.4173
212.6604	0.411
212.8774	0.4403
213.0943	0.4094
213.3112	0.4085
213.5281	0.4279
213.745	0.4106
213.9619	0.4089
214.1788	0.3889
214.3956	0.4086
214.6125	0.3888
214.8293	0.419
215.0461	0.4044
215.2629	0.4112
215.4798	0.4019
215.6965	0.3844
215.9133	0.4061
216.1301	0.4127
216.3469	0.4044
216.5636	0.4131
216.7803	0.4333
216.9971	0.4354
217.2138	0.4164
217.4305	0.4241
217.6472	0.4239
217.8639	0.428
218.0805	0.4101
218.2972	0.4308
218.5138	0.4301
218.7305	0.4218
218.9471	0.4067
219.1637	0.4449
219.3803	0.412
219.5969	0.4318
219.8135	0.4104
220.0301	0.4281
220.2466	0.4361
220.4632	0.4057
220.6797	0.4457
220.8962	0.4263
221.1127	0.4395
221.3292	0.4536
221.5457	0.4413
221.7622	0.4296
221.9787	0.4403
222.1951	0.4379
222.4116	0.4497
222.628	0.451
222.8444	0.4669
223.0608	0.4551
223.2772	0.4491
223.4936	0.454
223.71	0.452
223.9264	0.4356
224.1427	0.4543
224.3591	0.4599
224.5754	0.4708
224.7917	0.4547
225.008	0.4698
225.2243	0.4565
225.4406	0.4617
225.6569	0.46
225.8732	0.4526
226.0894	0.4557
226.3057	0.4659
226.5219	0.4562
226.7381	0.4642
226.9543	0.4779
227.1705	0.4582
227.3867	0.4906
227.6029	0.4748
227.8191	0.4776
228.0352	0.5002
228.2513	0.4895
228.4675	0.4864
228.6836	0.4968
228.8997	0.4976
229.1158	0.4883
229.3319	0.4918
229.548	0.4911
229.764	0.5005
229.9801	0.5099
230.1961	0.5015
230.4121	0.5074
230.6282	0.5147
230.8442	0.5148
231.0602	0.5232
231.2761	0.5295
231.4921	0.5077
231.7081	0.5247
231.924	0.512
232.14	0.5326
232.3559	0.53
232.5718	0.5375
232.7877	0.5283
233.0036	0.5282
233.2195	0.5295
233.4353	0.5215
233.6512	0.5318
233.867	0.5328
234.0829	0.529
234.2987	0.5274
234.5145	0.5307
234.7303	0.5322
234.9461	0.5404
235.1619	0.5432
235.3776	0.5329
235.5934	0.5284
235.8091	0.5367
236.0249	0.5348
236.2406	0.5412
236.4563	0.5375
236.672	0.5366
236.8877	0.5261
237.1034	0.5389
237.319	0.5328
237.5347	0.5319
237.7503	0.5323
237.966	0.5306
238.1816	0.5266
238.3972	0.5412
238.6128	0.5374
238.8284	0.5257
239.0439	0.5308
239.2595	0.5292
239.475	0.5286
239.6906	0.5358
239.9061	0.5287
240.1216	0.5316
240.3371	0.524
240.5526	0.5179
240.7681	0.5263
240.9836	0.5131
241.199	0.5162
241.4145	0.5049
241.6299	0.4954
241.8453	0.5053
242.0607	0.4859
242.2761	0.4863
242.4915	0.4741
242.7069	0.4597
242.9223	0.4558
243.1376	0.4522
243.353	0.449
243.5683	0.449
243.7836	0.4269
243.9989	0.4163
244.2142	0.4083
244.4295	0.4002
244.6448	0.4012
244.86	0.4002
245.0753	0.3873
245.2905	0.3792
245.5057	0.3647
245.721	0.3574
245.9362	0.3499
246.1514	0.3318
246.3665	0.3397
246.5817	0.3343
246.7969	0.322
247.012	0.3234
247.2271	0.3084
247.4423	0.3063
247.6574	0.3095
247.8725	0.3006
248.0876	0.2964
248.3026	0.2894
248.5177	0.2783
248.7328	0.2847
248.9478	0.2684
249.1628	0.2654
249.3779	0.2667
249.5929	0.2613
249.8079	0.2529
250.0228	0.2523
250.2378	0.25
250.4528	0.253
250.6677	0.24
250.8827	0.2398
251.0976	0.2417
251.3125	0.2388
251.5274	0.228
251.7423	0.229
251.9572	0.2221
252.172	0.2122
252.3869	0.2211
252.6017	0.2155
252.8166	0.2174
253.0314	0.2214
253.2462	0.2125
253.461	0.2156
253.6758	0.2075
253.8906	0.2038
254.1053	0.2032
254.3201	0.2076
254.5348	0.2032
254.7496	0.2061
254.9643	0.2057
255.179	0.2018
255.3937	0.2009
255.6083	0.1994
255.823	0.2011
256.0377	0.1975
256.2523	0.1952
256.467	0.1997
256.6816	0.2021
256.8962	0.194
257.1108	0.1929
257.3254	0.1934
257.54	0.1947
257.7545	0.1952
257.9691	0.189
258.1836	0.1881
258.3981	0.1869
258.6127	0.1866
258.8272	0.1862
259.0417	0.182
259.2561	0.1894
259.4706	0.1933
259.6851	0.1867
259.8995	0.1815
260.114	0.1832
260.3284	0.1853
260.5428	0.1848
260.7572	0.1865
260.9716	0.1894
261.186	0.1807
261.4003	0.1853
261.6147	0.1839
261.829	0.1822
262.0433	0.1774
262.2577	0.1907
262.472	0.1875
262.6863	0.1857
262.9005	0.1943
263.1148	0.1806
263.3291	0.1869
263.5433	0.181
263.7576	0.1787
263.9718	0.1838
264.186	0.1836
264.4002	0.1847
264.6144	0.1908
264.8286	0.1879
265.0427	0.1892
265.2569	0.1894
265.471	0.1845
265.6851	0.1859
265.8993	0.1884
266.1134	0.1825
266.3275	0.1827
266.5415	0.1855
266.7556	0.1809
266.9697	0.1855
267.1837	0.1879
267.3978	0.1971
267.6118	0.1791
267.8258	0.1863
268.0398	0.1792
268.2538	0.188
268.4677	0.1803
268.6817	0.1796
268.8957	0.1864
269.1096	0.1728
269.3235	0.1839
269.5374	0.184
269.7514	0.1792
269.9652	0.1807
270.1791	0.1802
270.393	0.1861
270.6068	0.1741
270.8207	0.1777
271.0345	0.1756
271.2483	0.1786
271.4622	0.1817
271.676	0.172
271.8897	0.1681
272.1035	0.1765
272.3173	0.1718
272.531	0.1753
272.7448	0.1739
272.9585	0.1761
273.1722	0.1825
273.3859	0.1739
273.5996	0.17
273.8133	0.1694
274.0269	0.1781
274.2406	0.1705
274.4542	0.168
274.6679	0.1685
274.8815	0.1745
275.0951	0.1715
275.3087	0.1769
275.5223	0.1694
275.7358	0.1789
275.9494	0.1747
276.1629	0.1726
276.3765	0.1709
276.59	0.176
276.8035	0.1835
277.017	0.1764
277.2305	0.1804
277.444	0.1771
277.6574	0.1798
277.8709	0.176
278.0843	0.1816
278.2978	0.1809
278.5112	0.176
278.7246	0.1762
278.938	0.1781
279.1513	0.1804
279.3647	0.1751
279.5781	0.1762
279.7914	0.1803
280.0047	0.1732
280.2181	0.1805
280.4314	0.1806
280.6447	0.1838
280.8579	0.18
281.0712	0.1879
281.2845	0.1844
281.4977	0.1852
281.711	0.1783
281.9242	0.1807
282.1374	0.1806
282.3506	0.1841
282.5638	0.1859
282.7769	0.1811
282.9901	0.1818
283.2033	0.1874
283.4164	0.1854
283.6295	0.1822
283.8426	0.1857
284.0557	0.1885
284.2688	0.1931
284.4819	0.1874
284.695	0.193
284.908	0.1852
285.1211	0.1904
285.3341	0.1929
285.5471	0.1925
285.7601	0.1944
285.9731	0.1885
286.1861	0.1937
286.3991	0.1955
286.612	0.1967
286.825	0.2004
287.0379	0.197
287.2508	0.1991
287.4637	0.1923
287.6766	0.194
287.8895	0.1891
288.1024	0.2028
288.3152	0.1927
288.5281	0.1914
288.7409	0.1932
288.9538	0.1948
289.1666	0.1993
289.3794	0.1991
289.5922	0.192
289.8049	0.2093
290.0177	0.2015
290.2304	0.2053
290.4432	0.2011
290.6559	0.1904
290.8686	0.2029
291.0813	0.2039
291.294	0.1995
291.5067	0.2048
291.7194	0.203
291.932	0.1963
292.1447	0.2025
292.3573	0.1973
292.5699	0.2073
292.7825	0.2004
292.9951	0.2006
293.2077	0.2034
293.4203	0.1996
293.6328	0.1956
293.8454	0.1987
294.0579	0.2029
294.2704	0.2022
294.4829	0.1999
294.6954	0.1996
294.9079	0.1984
295.1204	0.2006
295.3328	0.2014
295.5453	0.1978
295.7577	0.1924
295.9701	0.2011
296.1825	0.1976
296.3949	0.203
296.6073	0.2013
296.8197	0.2043
297.0321	0.2038
297.2444	0.1988
297.4567	0.1926
297.6691	0.1999
297.8814	0.1964
298.0937	0.1998
298.306	0.2018
298.5182	0.1968
298.7305	0.1958
298.9428	0.1936
299.155	0.1988
299.3672	0.2002
299.5794	0.194
299.7916	0.2027
300.0038	0.1945
300.216	0.2038
300.4282	0.1935
300.6403	0.1999
300.8525	0.2041
301.0646	0.2
301.2767	0.1948
301.4888	0.1952
301.7009	0.2
301.913	0.2015
302.125	0.1972
302.3371	0.1961
302.5491	0.2001
302.7612	0.1941
302.9732	0.1933
303.1852	0.1971
303.3972	0.1958
303.6092	0.1953
303.8211	0.1944
304.0331	0.1944
304.245	0.1934
304.457	0.1942
304.6689	0.1959
304.8808	0.1906
305.0927	0.1914
305.3046	0.1825
305.5164	0.1859
305.7283	0.1967
305.9401	0.1855
306.152	0.184
306.3638	0.1792
306.5756	0.1747
306.7874	0.1835
306.9992	0.1822
307.2109	0.178
307.4227	0.1693
307.6344	0.1719
307.8462	0.1676
308.0579	0.1707
308.2696	0.1687
308.4813	0.1571
308.693	0.1681
308.9046	0.1667
309.1163	0.1605
309.328	0.1511
309.5396	0.1582
309.7512	0.1587
309.9628	0.1504
310.1744	0.162
310.386	0.1455
310.5976	0.1441
310.8091	0.145
311.0207	0.1508
311.2322	0.1476
311.4437	0.1447
311.6552	0.1433
311.8667	0.144
312.0782	0.1412
312.2897	0.1386
312.5012	0.1383
312.7126	0.1352
312.924	0.1377
313.1355	0.1301
313.3469	0.133
313.5583	0.1343
313.7696	0.1273
313.981	0.1291
314.1924	0.1313
314.4037	0.1219
314.6151	0.1248
314.8264	0.1259
315.0377	0.127
315.249	0.125
315.4603	0.124
315.6716	0.1253
315.8828	0.1247
316.0941	0.1256
316.3053	0.1274
316.5165	0.1238
316.7277	0.1277
316.9389	0.1195
317.1501	0.1156
317.3613	0.1181
317.5724	0.1182
317.7836	0.1221
317.9947	0.1107
318.2058	0.1185
318.417	0.114
318.6281	0.1182
318.8391	0.122
319.0502	0.1179
319.2613	0.1176
319.4723	0.1186
319.6834	0.1214
319.8944	0.1226
320.1054	0.1161
320.3164	0.121
320.5274	0.1102
320.7383	0.1133
320.9493	0.1201
321.1602	0.114
321.3712	0.119
321.5821	0.118
321.793	0.1152
322.0039	0.1133
322.2148	0.1199
322.4257	0.1207
322.6365	0.1167
322.8474	0.1071
323.0582	0.1176
323.269	0.1147
323.4798	0.1167
323.6906	0.1172
323.9014	0.1103
324.1122	0.1134
324.3229	0.1189
324.5337	0.1139
324.7444	0.1175
324.9551	0.1207
325.1658	0.1142
325.3765	0.1207
325.5872	0.1201
325.7979	0.1187
326.0085	0.1156
326.2192	0.1167
326.4298	0.1244
326.6404	0.1176
326.851	0.1211
327.0616	0.1227
327.2722	0.1264
327.4828	0.1222
327.6933	0.1186
327.9039	0.1205
328.1144	0.1188
328.3249	0.12
328.5354	0.1184
328.7459	0.1211
328.9564	0.1279
329.1669	0.1224
329.3773	0.1225
329.5878	0.1235
329.7982	0.1201
330.0086	0.1217
330.219	0.1236
330.4294	0.12
330.6398	0.1257
330.8502	0.1216
331.0605	0.1275
331.2708	0.1278
331.4812	0.1266
331.6915	0.1209
331.9018	0.1218
332.1121	0.1283
332.3224	0.1227
332.5326	0.1204
332.7429	0.1202
332.9531	0.1224
333.1633	0.1214
333.3735	0.1234
333.5837	0.1269
333.7939	0.128
334.0041	0.1252
334.2143	0.1212
334.4244	0.1191
334.6346	0.1281
334.8447	0.1269
335.0548	0.124
335.2649	0.1308
335.475	0.123
335.685	0.124
335.8951	0.1305
336.1051	0.1302
336.3152	0.1363
336.5252	0.1265
336.7352	0.1185
336.9452	0.1279
337.1552	0.1297
337.3652	0.1231
337.5751	0.1241
337.7851	0.13
337.995	0.1327
338.2049	0.1291
338.4148	0.1307
338.6247	0.1333
338.8346	0.1258
339.0445	0.1345
339.2543	0.1345
339.4642	0.1384
339.674	0.1371
339.8838	0.1352
340.0936	0.1364
340.3034	0.1399
340.5132	0.133
340.7229	0.1337
340.9327	0.1372
341.1424	0.1368
341.3522	0.138
341.5619	0.1346
341.7716	0.1364
341.9813	0.1433
342.1909	0.1449
342.4006	0.1461
342.6102	0.1403
342.8199	0.134
343.0295	0.1452
343.2391	0.1411
343.4487	0.1425
343.6583	0.145
343.8679	0.1465
344.0774	0.1422
344.287	0.1413
344.4965	0.1484
344.706	0.1524
344.9155	0.1401
345.125	0.1471
345.3345	0.1479
345.544	0.1523
345.7534	0.1544
345.9629	0.1518
346.1723	0.1571
346.3817	0.151
346.5911	0.148
346.8005	0.149
347.0099	0.149
347.2193	0.1503
347.4286	0.1541
347.638	0.1564
347.8473	0.1569
348.0566	0.1608
348.2659	0.1606
348.4752	0.1572
348.6845	0.1613
348.8937	0.163
349.103	0.1528
349.3122	0.1623
349.5214	0.1601
349.7306	0.1573
349.9398	0.1641
350.149	0.1665
350.3582	0.1564
350.5674	0.1679
350.7765	0.1706
350.9856	0.1645
351.1948	0.164
351.4039	0.167
351.613	0.1707
351.822	0.1592
352.0311	0.1714
352.2402	0.1753
352.4492	0.1699
352.6582	0.1699
352.8672	0.1741
353.0762	0.1737
353.2852	0.1696
353.4942	0.1723
353.7032	0.1734
353.9121	0.1768
354.1211	0.1683
354.33	0.177
354.5389	0.177
354.7478	0.1787
354.9567	0.1743
355.1655	0.1768
355.3744	0.1739
355.5833	0.1849
355.7921	0.1702
356.0009	0.181
356.2097	0.1884
356.4185	0.1944
356.6273	0.1837
356.8361	0.193
357.0448	0.1909
357.2536	0.1829
357.4623	0.1853
357.671	0.1773
357.8797	0.1944
358.0884	0.1874
358.2971	0.2014
358.5057	0.1861
358.7144	0.2064
358.923	0.194
359.1316	0.192
359.3402	0.1981
359.5488	0.1988
359.7574	0.1994
359.966	0.2081
360.1746	0.1951
360.3831	0.2049
360.5916	0.2067
360.8002	0.2067
361.0087	0.2124
361.2172	0.2176
361.4256	0.2033
361.6341	0.2087
361.8426	0.2086
362.051	0.2029
362.2594	0.2153
362.4678	0.2141
362.6762	0.22
362.8846	0.2256
363.093	0.2134
363.3014	0.2219
363.5097	0.2191
363.718	0.2224
363.9264	0.2199
364.1347	0.2273
364.343	0.2275
364.5513	0.2274
364.7595	0.235
364.9678	0.2307
365.176	0.2263
365.3842	0.2278
365.5925	0.2238
365.8007	0.2335
366.0089	0.2308
366.217	0.2389
366.4252	0.2359
366.6333	0.2332
366.8415	0.24
367.0496	0.2412
367.2577	0.2449
367.4658	0.2544
367.6739	0.2382
367.882	0.2498
368.09	0.2483
368.2981	0.2346
368.5061	0.2459
368.7141	0.2428
368.9221	0.2547
369.1301	0.2568
369.3381	0.2547
369.5461	0.256
369.754	0.2461
369.962	0.2513
370.1699	0.2627
370.3778	0.2491
370.5857	0.2565
370.7936	0.2576
371.0015	0.2565
371.2093	0.2589
371.4172	0.2589
371.625	0.2727
371.8328	0.2697
372.0406	0.2724
372.2484	0.2642
372.4562	0.2675
372.664	0.2709
372.8717	0.2696
373.0795	0.2734
373.2872	0.2677
373.4949	0.2882
373.7026	0.278
373.9103	0.2639
374.118	0.2692
374.3256	0.2825
374.5333	0.2722
374.7409	0.2663
374.9485	0.2736
375.1561	0.2787
375.3637	0.2803
375.5713	0.2749
375.7789	0.2728
375.9864	0.2816
376.194	0.2778
376.4015	0.2828
376.609	0.2869
376.8165	0.2892
377.024	0.2911
377.2315	0.2909
377.4389	0.2787
377.6464	0.2867
377.8538	0.2986
378.0612	0.2877
378.2686	0.2919
378.476	0.2892
378.6834	0.2851
378.8908	0.2987
379.0981	0.3081
379.3055	0.2956
379.5128	0.2985
379.7201	0.2952
379.9274	0.2979
380.1347	0.2991
380.342	0.3087
380.5492	0.2912
380.7565	0.2938
380.9637	0.2931
381.1709	0.2954
381.3781	0.3045
381.5853	0.3175
381.7925	0.3151
381.9997	0.3106
382.2068	0.2971
382.4139	0.3138
382.6211	0.2945
382.8282	0.3055
383.0353	0.3111
383.2424	0.3103
383.4494	0.3143
383.6565	0.3126
383.8635	0.3204
384.0706	0.3148
384.2776	0.3247
384.4846	0.3085
384.6916	0.3079
384.8986	0.3134
385.1055	0.3157
385.3125	0.3109
385.5194	0.3039
385.7263	0.3088
385.9333	0.3171
386.1402	0.3232
386.347	0.3147
386.5539	0.3185
386.7608	0.32
386.9676	0.3162
387.1744	0.3147
387.3813	0.3114
387.5881	0.3106
387.7948	0.3152
388.0016	0.3099
388.2084	0.3098
388.4151	0.3075
388.6219	0.315
388.8286	0.3131
389.0353	0.3041
389.242	0.2967
389.4487	0.309
389.6553	0.29
389.862	0.3123
390.0686	0.312
390.2753	0.2994
390.4819	0.3065
390.6885	0.3039
390.8951	0.311
391.1016	0.2998
391.3082	0.2979
391.5147	0.3018
391.7213	0.3027
391.9278	0.2971
392.1343	0.2955
392.3408	0.286
392.5473	0.2888
392.7537	0.2924
392.9602	0.2894
393.1666	0.2933
393.373	0.293
393.5794	0.2887
393.7858	0.2918
393.9922	0.2843
394.1986	0.2855
394.4049	0.2839
394.6113	0.2789
394.8176	0.2701
395.0239	0.2748
395.2302	0.2686
395.4365	0.2728
395.6428	0.2783
395.8491	0.2762
396.0553	0.2796
396.2615	0.2819
396.4678	0.2845
396.674	0.2739
396.8802	0.2721
397.0863	0.2637
397.2925	0.2694
397.4987	0.2655
397.7048	0.2813
397.9109	0.2728
398.117	0.2687
398.3231	0.2779
398.5292	0.2713
398.7353	0.2764
398.9413	0.2694
399.1474	0.2757
399.3534	0.2687
399.5594	0.2663
399.7654	0.2671
399.9714	0.2575
400.1774	0.2715
400.3833	0.2727
400.5893	0.2641
400.7952	0.2653
401.0011	0.2556
401.207	0.2734
401.4129	0.2626
401.6188	0.2568
401.8247	0.2684
402.0305	0.2708
402.2364	0.2717
402.4422	0.2711
402.648	0.2759
402.8538	0.2731
403.0596	0.2628
403.2654	0.2668
403.4711	0.2558
403.6768	0.2717
403.8826	0.2642
404.0883	0.2585
404.294	0.2707
404.4997	0.2754
404.7054	0.2656
404.911	0.2679
405.1167	0.2741
405.3223	0.2747
405.5279	0.2707
405.7335	0.2606
405.9391	0.2578
406.1447	0.2725
406.3502	0.2678
406.5558	0.2777
406.7613	0.268
406.9668	0.2669
407.1724	0.2743
407.3778	0.2691
407.5833	0.2591
407.7888	0.273
407.9942	0.2725
408.1997	0.2564
408.4051	0.2615
408.6105	0.2721
408.8159	0.2688
409.0213	0.277
409.2267	0.2621
409.432	0.2794
409.6374	0.2673
409.8427	0.275
410.048	0.2573
410.2533	0.2601
410.4586	0.2671
410.6639	0.265
410.8691	0.2772
411.0744	0.2638
411.2796	0.2722
411.4848	0.2655
411.69	0.26
411.8952	0.2709
412.1004	0.2542
412.3056	0.2679
412.5107	0.2729
412.7158	0.2681
412.921	0.2625
413.1261	0.2679
413.3312	0.2603
413.5362	0.2634
413.7413	0.2604
413.9464	0.2644
414.1514	0.269
414.3564	0.2596
414.5614	0.2632
414.7664	0.2627
414.9714	0.2676
415.1764	0.2523
415.3813	0.2443
415.5863	0.2692
415.7912	0.2632
415.9961	0.2604
416.201	0.2664
416.4059	0.2581
416.6108	0.2515
416.8156	0.2469
417.0205	0.2591
417.2253	0.2607
417.4301	0.2597
417.6349	0.2569
417.8397	0.2662
418.0445	0.2627
418.2492	0.2618
418.454	0.2617
418.6587	0.2536
418.8634	0.2578
419.0681	0.2574
419.2728	0.2579
419.4775	0.255
419.6822	0.2565
419.8868	0.2503
420.0915	0.2566
420.2961	0.2525
420.5007	0.249
420.7053	0.2565
420.9099	0.2393
421.1144	0.2458
421.319	0.2472
421.5235	0.2401
421.728	0.2339
421.9325	0.2492
422.137	0.2413
422.3415	0.2367
422.546	0.2454
422.7504	0.2433
422.9549	0.2409
423.1593	0.2398
423.3637	0.2417
423.5681	0.2472
423.7725	0.2372
423.9769	0.2448
424.1812	0.2441
424.3856	0.2414
424.5899	0.2296
424.7942	0.2308
424.9985	0.2383
425.2028	0.2366
425.4071	0.2173
425.6113	0.2268
425.8156	0.227
426.0198	0.2272
426.224	0.2226
426.4282	0.2168
426.6324	0.2147
426.8366	0.2269
427.0407	0.2234
