Data from D4ACN5uM480nmA_Absorbance_12-08-01-525.txt Node
Date: Fri Feb 21 12:08:01 GMT 2025
User: LASERRRRR
Spectrometer: FLMT03099
Trigger mode: 0
Integration Time (sec): 1.500000E-2
Scans to average: 1
Electric dark correction enabled: true
Nonlinearity correction enabled: false
Boxcar width: 0
XAxis mode: Wavelengths
Number of Pixels in Spectrum: 3648
>>>>>Begin Spectral Data<<<<<
179.3399	0.381
179.5586	0.381
179.7771	0.381
179.9957	0.1473
180.2143	0.1801
180.4329	0.6471
180.6514	-0
180.8699	-0
181.0885	-0
181.307	0.4819
181.5255	0.0744
181.744	-0
181.9625	-0.3749
182.181	-0
182.3994	-0
182.6179	-0
182.8363	-0.3627
183.0547	-0
183.2732	0.4721
183.4916	0.8789
183.71	0.1595
183.9284	0.7524
184.1467	0.0683
184.3651	0.2704
184.5835	0.0638
184.8018	0.0972
185.0201	0.2067
185.2385	0.3281
185.4568	0.3153
185.6751	0.1876
185.8934	0.5169
186.1117	0.2041
186.3299	0.3413
186.5482	0.1602
186.7664	0.5225
186.9847	0.305
187.2029	0.0402
187.4211	0.3575
187.6393	0.2889
187.8575	0.2304
188.0757	1.4908
188.2939	0.2688
188.512	0.1721
188.7302	0.0868
188.9483	-0
189.1665	0.608
189.3846	0.0999
189.6027	0.0884
189.8208	0.4485
190.0389	0.3365
190.257	0.223
190.475	0.2892
190.6931	0.1375
190.9111	0.3197
191.1292	0.3902
191.3472	0.2357
191.5652	0.4971
191.7832	0.4731
192.0012	0.3131
192.2192	0.4386
192.4371	0.3408
192.6551	0.2981
192.873	0.3172
193.091	0.3612
193.3089	0.1008
193.5268	0.4323
193.7447	0.3687
193.9626	0.7696
194.1805	0.4927
194.3984	0.5059
194.6162	0.4638
194.8341	0.4676
195.0519	0.4853
195.2697	0.5768
195.4875	0.5268
195.7054	0.4995
195.9231	0.5328
196.1409	0.5114
196.3587	0.5812
196.5765	0.457
196.7942	0.7423
197.012	0.425
197.2297	0.5429
197.4474	0.6537
197.6651	0.6349
197.8828	0.6262
198.1005	0.855
198.3182	0.555
198.5358	0.6717
198.7535	0.5553
198.9711	0.6748
199.1888	0.6272
199.4064	0.6249
199.624	0.569
199.8416	0.4759
200.0592	0.5422
200.2767	0.529
200.4943	0.672
200.7119	0.5533
200.9294	0.5872
201.1469	0.5805
201.3645	0.5585
201.582	0.581
201.7995	0.6418
202.017	0.5904
202.2344	0.5497
202.4519	0.5863
202.6694	0.6113
202.8868	0.6114
203.1042	0.513
203.3217	0.55
203.5391	0.5335
203.7565	0.4725
203.9739	0.5208
204.1913	0.4991
204.4086	0.5389
204.626	0.5471
204.8433	0.4653
205.0607	0.5743
205.278	0.5293
205.4953	0.4726
205.7126	0.4981
205.9299	0.4759
206.1472	0.4972
206.3644	0.4723
206.5817	0.49
206.7989	0.5272
207.0162	0.4438
207.2334	0.4777
207.4506	0.465
207.6678	0.4385
207.885	0.444
208.1022	0.4495
208.3194	0.4278
208.5365	0.4482
208.7537	0.4463
208.9708	0.4202
209.1879	0.4206
209.405	0.4344
209.6222	0.4321
209.8392	0.4123
210.0563	0.4283
210.2734	0.3975
210.4905	0.3962
210.7075	0.4242
210.9245	0.4065
211.1416	0.3998
211.3586	0.393
211.5756	0.4204
211.7926	0.4149
212.0096	0.4109
212.2265	0.4224
212.4435	0.4365
212.6604	0.4064
212.8774	0.4233
213.0943	0.4201
213.3112	0.4153
213.5281	0.4265
213.745	0.3979
213.9619	0.3738
214.1788	0.4112
214.3956	0.4182
214.6125	0.3894
214.8293	0.4121
215.0461	0.414
215.2629	0.4004
215.4798	0.3947
215.6965	0.3582
215.9133	0.3954
216.1301	0.3885
216.3469	0.4012
216.5636	0.4123
216.7803	0.4324
216.9971	0.4107
217.2138	0.4084
217.4305	0.4185
217.6472	0.4058
217.8639	0.4113
218.0805	0.4357
218.2972	0.4129
218.5138	0.4241
218.7305	0.3949
218.9471	0.4333
219.1637	0.4169
219.3803	0.4359
219.5969	0.4264
219.8135	0.4336
220.0301	0.4136
220.2466	0.4318
220.4632	0.4272
220.6797	0.4303
220.8962	0.4197
221.1127	0.4237
221.3292	0.4394
221.5457	0.4258
221.7622	0.4402
221.9787	0.4321
222.1951	0.425
222.4116	0.4374
222.628	0.4426
222.8444	0.4564
223.0608	0.436
223.2772	0.4372
223.4936	0.4635
223.71	0.4414
223.9264	0.433
224.1427	0.4459
224.3591	0.446
224.5754	0.4532
224.7917	0.4481
225.008	0.4596
225.2243	0.4709
225.4406	0.4649
225.6569	0.4525
225.8732	0.4673
226.0894	0.4765
226.3057	0.4612
226.5219	0.4644
226.7381	0.4637
226.9543	0.4883
227.1705	0.4724
227.3867	0.492
227.6029	0.4753
227.8191	0.481
228.0352	0.4954
228.2513	0.498
228.4675	0.4895
228.6836	0.4889
228.8997	0.4963
229.1158	0.485
229.3319	0.4929
229.548	0.488
229.764	0.4948
229.9801	0.5078
230.1961	0.5021
230.4121	0.4991
230.6282	0.5075
230.8442	0.5133
231.0602	0.5308
231.2761	0.5158
231.4921	0.5148
231.7081	0.5054
231.924	0.5255
232.14	0.5194
232.3559	0.5358
232.5718	0.5406
232.7877	0.5216
233.0036	0.5219
233.2195	0.5285
233.4353	0.5394
233.6512	0.5228
233.867	0.5252
234.0829	0.5311
234.2987	0.5422
234.5145	0.5285
234.7303	0.5411
234.9461	0.5431
235.1619	0.5349
235.3776	0.547
235.5934	0.5392
235.8091	0.5313
236.0249	0.5384
236.2406	0.536
236.4563	0.5399
236.672	0.526
236.8877	0.538
237.1034	0.5289
237.319	0.5441
237.5347	0.5191
237.7503	0.5375
237.966	0.5302
238.1816	0.5265
238.3972	0.5438
238.6128	0.5355
238.8284	0.5352
239.0439	0.5435
239.2595	0.5251
239.475	0.5314
239.6906	0.5228
239.9061	0.5255
240.1216	0.5361
240.3371	0.5165
240.5526	0.51
240.7681	0.5182
240.9836	0.5172
241.199	0.5126
241.4145	0.5027
241.6299	0.4868
241.8453	0.4889
242.0607	0.4873
242.2761	0.4839
242.4915	0.4664
242.7069	0.462
242.9223	0.454
243.1376	0.4506
243.353	0.4433
243.5683	0.4463
243.7836	0.4257
243.9989	0.4182
244.2142	0.4115
244.4295	0.4009
244.6448	0.399
244.86	0.3929
245.0753	0.3785
245.2905	0.3728
245.5057	0.3714
245.721	0.3614
245.9362	0.3505
246.1514	0.3354
246.3665	0.3379
246.5817	0.3333
246.7969	0.3274
247.012	0.3259
247.2271	0.3106
247.4423	0.3041
247.6574	0.309
247.8725	0.3038
248.0876	0.2941
248.3026	0.2891
248.5177	0.2767
248.7328	0.2761
248.9478	0.2737
249.1628	0.2632
249.3779	0.2684
249.5929	0.2636
249.8079	0.2546
250.0228	0.2566
250.2378	0.2516
250.4528	0.2495
250.6677	0.238
250.8827	0.237
251.0976	0.2476
251.3125	0.2418
251.5274	0.2292
251.7423	0.2257
251.9572	0.2222
252.172	0.2192
252.3869	0.2215
252.6017	0.2209
252.8166	0.2176
253.0314	0.225
253.2462	0.2168
253.461	0.2131
253.6758	0.2088
253.8906	0.2024
254.1053	0.2037
254.3201	0.2041
254.5348	0.2005
254.7496	0.2004
254.9643	0.2081
255.179	0.1991
255.3937	0.196
255.6083	0.1989
255.823	0.204
256.0377	0.1991
256.2523	0.1984
256.467	0.198
256.6816	0.1924
256.8962	0.1956
257.1108	0.1944
257.3254	0.1906
257.54	0.193
257.7545	0.191
257.9691	0.1919
258.1836	0.1864
258.3981	0.1857
258.6127	0.1809
258.8272	0.1945
259.0417	0.1827
259.2561	0.183
259.4706	0.1847
259.6851	0.1842
259.8995	0.1808
260.114	0.1833
260.3284	0.1845
260.5428	0.1894
260.7572	0.1885
260.9716	0.1808
261.186	0.1831
261.4003	0.1869
261.6147	0.1794
261.829	0.1857
262.0433	0.1796
262.2577	0.1852
262.472	0.187
262.6863	0.1864
262.9005	0.1862
263.1148	0.1836
263.3291	0.1887
263.5433	0.1905
263.7576	0.186
263.9718	0.1853
264.186	0.1875
264.4002	0.1862
264.6144	0.1886
264.8286	0.1869
265.0427	0.1914
265.2569	0.1888
265.471	0.184
265.6851	0.1839
265.8993	0.1928
266.1134	0.1815
266.3275	0.1847
266.5415	0.1753
266.7556	0.1863
266.9697	0.1815
267.1837	0.1856
267.3978	0.1884
267.6118	0.185
267.8258	0.183
268.0398	0.1848
268.2538	0.1848
268.4677	0.1816
268.6817	0.1774
268.8957	0.1788
269.1096	0.1819
269.3235	0.1926
269.5374	0.177
269.7514	0.1806
269.9652	0.1878
270.1791	0.1811
270.393	0.1812
270.6068	0.1748
270.8207	0.1763
271.0345	0.1756
271.2483	0.1782
271.4622	0.177
271.676	0.1674
271.8897	0.1721
272.1035	0.1765
272.3173	0.1674
272.531	0.1755
272.7448	0.1725
272.9585	0.1728
273.1722	0.1736
273.3859	0.1696
273.5996	0.1751
273.8133	0.1707
274.0269	0.1761
274.2406	0.1698
274.4542	0.166
274.6679	0.1721
274.8815	0.1709
275.0951	0.1737
275.3087	0.1786
275.5223	0.1704
275.7358	0.1716
275.9494	0.1728
276.1629	0.1748
276.3765	0.1792
276.59	0.1751
276.8035	0.1739
277.017	0.1731
277.2305	0.172
277.444	0.1774
277.6574	0.1759
277.8709	0.1765
278.0843	0.1769
278.2978	0.1762
278.5112	0.1837
278.7246	0.1785
278.938	0.1785
279.1513	0.1845
279.3647	0.1771
279.5781	0.1799
279.7914	0.1816
280.0047	0.1778
280.2181	0.1817
280.4314	0.1798
280.6447	0.1844
280.8579	0.1759
281.0712	0.1827
281.2845	0.1817
281.4977	0.1868
281.711	0.1806
281.9242	0.1831
282.1374	0.1816
282.3506	0.1926
282.5638	0.1848
282.7769	0.1841
282.9901	0.1831
283.2033	0.1837
283.4164	0.1879
283.6295	0.1816
283.8426	0.1851
284.0557	0.1806
284.2688	0.1923
284.4819	0.1926
284.695	0.1889
284.908	0.194
285.1211	0.1893
285.3341	0.1907
285.5471	0.1934
285.7601	0.1942
285.9731	0.1944
286.1861	0.1925
286.3991	0.1922
286.612	0.1918
286.825	0.1972
287.0379	0.1928
287.2508	0.1954
287.4637	0.1915
287.6766	0.1953
287.8895	0.1927
288.1024	0.1967
288.3152	0.1939
288.5281	0.1964
288.7409	0.1934
288.9538	0.1951
289.1666	0.1977
289.3794	0.1984
289.5922	0.1941
289.8049	0.2033
290.0177	0.2054
290.2304	0.2066
290.4432	0.2051
290.6559	0.1936
290.8686	0.1973
291.0813	0.1964
291.294	0.2055
291.5067	0.2058
291.7194	0.2007
291.932	0.2002
292.1447	0.2008
292.3573	0.2032
292.5699	0.2064
292.7825	0.205
292.9951	0.2008
293.2077	0.198
293.4203	0.2037
293.6328	0.1905
293.8454	0.2015
294.0579	0.2003
294.2704	0.2018
294.4829	0.1999
294.6954	0.1952
294.9079	0.206
295.1204	0.2011
295.3328	0.2017
295.5453	0.2017
295.7577	0.1964
295.9701	0.2019
296.1825	0.1891
296.3949	0.204
296.6073	0.2013
296.8197	0.2051
297.0321	0.2044
297.2444	0.2035
297.4567	0.204
297.6691	0.1997
297.8814	0.1964
298.0937	0.2002
298.306	0.1987
298.5182	0.2066
298.7305	0.1929
298.9428	0.1955
299.155	0.2014
299.3672	0.2026
299.5794	0.1933
299.7916	0.1978
300.0038	0.1934
300.216	0.1971
300.4282	0.1927
300.6403	0.1995
300.8525	0.1998
301.0646	0.1973
301.2767	0.1975
301.4888	0.1983
301.7009	0.2001
301.913	0.2036
302.125	0.198
302.3371	0.2036
302.5491	0.1996
302.7612	0.1975
302.9732	0.1887
303.1852	0.1933
303.3972	0.1938
303.6092	0.1939
303.8211	0.1888
304.0331	0.1939
304.245	0.1923
304.457	0.1986
304.6689	0.1973
304.8808	0.1945
305.0927	0.1909
305.3046	0.1851
305.5164	0.1848
305.7283	0.1897
305.9401	0.1817
306.152	0.1801
306.3638	0.1807
306.5756	0.1778
306.7874	0.1796
306.9992	0.1824
307.2109	0.1745
307.4227	0.1732
307.6344	0.1739
307.8462	0.1634
308.0579	0.1669
308.2696	0.1688
308.4813	0.163
308.693	0.1679
308.9046	0.1636
309.1163	0.1608
309.328	0.1566
309.5396	0.1606
309.7512	0.1525
309.9628	0.1532
310.1744	0.1575
310.386	0.1472
310.5976	0.146
310.8091	0.1446
311.0207	0.1474
311.2322	0.1456
311.4437	0.1475
311.6552	0.1436
311.8667	0.139
312.0782	0.1448
312.2897	0.1442
312.5012	0.1417
312.7126	0.1329
312.924	0.1371
313.1355	0.1317
313.3469	0.127
313.5583	0.1295
313.7696	0.128
313.981	0.1259
314.1924	0.1287
314.4037	0.1237
314.6151	0.1261
314.8264	0.1228
315.0377	0.1283
315.249	0.1211
315.4603	0.1205
315.6716	0.1227
315.8828	0.1256
316.0941	0.1216
316.3053	0.1225
316.5165	0.1186
316.7277	0.1223
316.9389	0.1194
317.1501	0.1196
317.3613	0.1169
317.5724	0.1222
317.7836	0.1177
317.9947	0.1137
318.2058	0.1196
318.417	0.1131
318.6281	0.1204
318.8391	0.1258
319.0502	0.1172
319.2613	0.1186
319.4723	0.1195
319.6834	0.1156
319.8944	0.1193
320.1054	0.1136
320.3164	0.1197
320.5274	0.1101
320.7383	0.1136
320.9493	0.112
321.1602	0.1122
321.3712	0.1158
321.5821	0.1225
321.793	0.113
322.0039	0.1187
322.2148	0.1176
322.4257	0.1208
322.6365	0.1145
322.8474	0.113
323.0582	0.1168
323.269	0.1154
323.4798	0.1132
323.6906	0.1208
323.9014	0.1121
324.1122	0.1162
324.3229	0.1192
324.5337	0.1286
324.7444	0.1118
324.9551	0.1216
325.1658	0.1236
325.3765	0.1175
325.5872	0.1106
325.7979	0.1211
326.0085	0.1175
326.2192	0.1207
326.4298	0.1293
326.6404	0.1157
326.851	0.1208
327.0616	0.124
327.2722	0.1275
327.4828	0.1171
327.6933	0.1175
327.9039	0.1222
328.1144	0.1216
328.3249	0.1295
328.5354	0.1203
328.7459	0.1212
328.9564	0.1229
329.1669	0.1225
329.3773	0.1212
329.5878	0.1203
329.7982	0.1225
330.0086	0.1265
330.219	0.1273
330.4294	0.1239
330.6398	0.125
330.8502	0.1238
331.0605	0.1197
331.2708	0.1272
331.4812	0.1215
331.6915	0.1228
331.9018	0.1132
332.1121	0.1318
332.3224	0.1237
332.5326	0.125
332.7429	0.1215
332.9531	0.1312
333.1633	0.1276
333.3735	0.1218
333.5837	0.1259
333.7939	0.1247
334.0041	0.1259
334.2143	0.1271
334.4244	0.1199
334.6346	0.1238
334.8447	0.1269
335.0548	0.1228
335.2649	0.1278
335.475	0.1225
335.685	0.1308
335.8951	0.1292
336.1051	0.1327
336.3152	0.122
336.5252	0.1313
336.7352	0.1271
336.9452	0.1337
337.1552	0.1236
337.3652	0.1327
337.5751	0.122
337.7851	0.123
337.995	0.1308
338.2049	0.1366
338.4148	0.128
338.6247	0.1288
338.8346	0.1294
339.0445	0.1343
339.2543	0.141
339.4642	0.1319
339.674	0.1392
339.8838	0.1307
340.0936	0.1354
340.3034	0.1347
340.5132	0.1349
340.7229	0.1338
340.9327	0.1378
341.1424	0.1341
341.3522	0.1397
341.5619	0.1368
341.7716	0.1404
341.9813	0.1395
342.1909	0.1413
342.4006	0.1432
342.6102	0.134
342.8199	0.1324
343.0295	0.1394
343.2391	0.1416
343.4487	0.1432
343.6583	0.1455
343.8679	0.1411
344.0774	0.1424
344.287	0.1462
344.4965	0.1467
344.706	0.1487
344.9155	0.1441
345.125	0.1487
345.3345	0.1438
345.544	0.1506
345.7534	0.1497
345.9629	0.1513
346.1723	0.1524
346.3817	0.1478
346.5911	0.146
346.8005	0.1482
347.0099	0.153
347.2193	0.1488
347.4286	0.152
347.638	0.1548
347.8473	0.1583
348.0566	0.1549
348.2659	0.1566
348.4752	0.1549
348.6845	0.1624
348.8937	0.1567
349.103	0.1568
349.3122	0.159
349.5214	0.153
349.7306	0.1608
349.9398	0.162
350.149	0.1626
350.3582	0.1556
350.5674	0.1625
350.7765	0.1721
350.9856	0.1629
351.1948	0.164
351.4039	0.1629
351.613	0.1706
351.822	0.1619
352.0311	0.1619
352.2402	0.1729
352.4492	0.1736
352.6582	0.168
352.8672	0.1702
353.0762	0.1765
353.2852	0.1713
353.4942	0.1709
353.7032	0.1709
353.9121	0.1769
354.1211	0.178
354.33	0.1737
354.5389	0.1828
354.7478	0.181
354.9567	0.1783
355.1655	0.1813
355.3744	0.1809
355.5833	0.1736
355.7921	0.1807
356.0009	0.1859
356.2097	0.1847
356.4185	0.1855
356.6273	0.1822
356.8361	0.19
357.0448	0.1935
357.2536	0.1888
357.4623	0.1856
357.671	0.1882
357.8797	0.1852
358.0884	0.1935
358.2971	0.1939
358.5057	0.1939
358.7144	0.1881
358.923	0.1918
359.1316	0.1966
359.3402	0.1946
359.5488	0.1964
359.7574	0.1964
359.966	0.2016
360.1746	0.1934
360.3831	0.2074
360.5916	0.1975
360.8002	0.2127
361.0087	0.216
361.2172	0.2152
361.4256	0.2041
361.6341	0.2169
361.8426	0.209
362.051	0.2083
362.2594	0.2153
362.4678	0.2172
362.6762	0.2214
362.8846	0.2143
363.093	0.2161
363.3014	0.2208
363.5097	0.2171
363.718	0.2235
363.9264	0.2212
364.1347	0.2249
364.343	0.2305
364.5513	0.2378
364.7595	0.229
364.9678	0.2347
365.176	0.2308
365.3842	0.2283
365.5925	0.2275
365.8007	0.2376
366.0089	0.2331
366.217	0.2376
366.4252	0.2397
366.6333	0.2348
366.8415	0.2382
367.0496	0.2411
367.2577	0.2466
367.4658	0.2423
367.6739	0.2377
367.882	0.2485
368.09	0.2452
368.2981	0.2497
368.5061	0.2531
368.7141	0.2463
368.9221	0.2453
369.1301	0.2496
369.3381	0.2573
369.5461	0.2446
369.754	0.2464
369.962	0.2573
370.1699	0.2651
370.3778	0.2593
370.5857	0.258
370.7936	0.2578
371.0015	0.2536
371.2093	0.2643
371.4172	0.2516
371.625	0.2693
371.8328	0.2656
372.0406	0.2534
372.2484	0.2613
372.4562	0.2552
372.664	0.2682
372.8717	0.2672
373.0795	0.2682
373.2872	0.2747
373.4949	0.2666
373.7026	0.2708
373.9103	0.2695
374.118	0.2696
374.3256	0.2751
374.5333	0.2738
374.7409	0.2738
374.9485	0.2638
375.1561	0.2752
375.3637	0.2749
375.5713	0.2786
375.7789	0.2798
375.9864	0.2861
376.194	0.2849
376.4015	0.2802
376.609	0.287
376.8165	0.2884
377.024	0.2888
377.2315	0.2873
377.4389	0.2724
377.6464	0.2868
377.8538	0.2882
378.0612	0.2867
378.2686	0.283
378.476	0.2929
378.6834	0.2811
378.8908	0.2935
379.0981	0.2955
379.3055	0.3087
379.5128	0.2947
379.7201	0.2877
379.9274	0.292
380.1347	0.2959
380.342	0.314
380.5492	0.2926
380.7565	0.301
380.9637	0.2887
381.1709	0.2942
381.3781	0.3027
381.5853	0.3081
381.7925	0.314
381.9997	0.3108
382.2068	0.2972
382.4139	0.302
382.6211	0.3232
382.8282	0.3089
383.0353	0.3043
383.2424	0.3216
383.4494	0.3207
383.6565	0.3129
383.8635	0.3188
384.0706	0.312
384.2776	0.3219
384.4846	0.3211
384.6916	0.3133
384.8986	0.3057
385.1055	0.3163
385.3125	0.3051
385.5194	0.3066
385.7263	0.3151
385.9333	0.3091
386.1402	0.3149
386.347	0.3134
386.5539	0.3184
386.7608	0.3159
386.9676	0.3177
387.1744	0.3123
387.3813	0.3119
387.5881	0.3184
387.7948	0.3101
388.0016	0.315
388.2084	0.3187
388.4151	0.3162
388.6219	0.3132
388.8286	0.3195
389.0353	0.3014
389.242	0.3055
389.4487	0.3106
389.6553	0.3031
389.862	0.3034
390.0686	0.3105
390.2753	0.3042
390.4819	0.3072
390.6885	0.2986
390.8951	0.302
391.1016	0.311
391.3082	0.2982
391.5147	0.3026
391.7213	0.2991
391.9278	0.2986
392.1343	0.3015
392.3408	0.2898
392.5473	0.2918
392.7537	0.2965
392.9602	0.286
393.1666	0.2884
393.373	0.2823
393.5794	0.2831
393.7858	0.2891
393.9922	0.2839
394.1986	0.2854
394.4049	0.2795
394.6113	0.2856
394.8176	0.2694
395.0239	0.2839
395.2302	0.2739
395.4365	0.2841
395.6428	0.2829
395.8491	0.2745
396.0553	0.2794
396.2615	0.2743
396.4678	0.276
396.674	0.2735
396.8802	0.2735
397.0863	0.2626
397.2925	0.2679
397.4987	0.261
397.7048	0.2743
397.9109	0.2767
398.117	0.271
398.3231	0.2753
398.5292	0.2748
398.7353	0.2697
398.9413	0.2648
399.1474	0.2718
399.3534	0.2718
399.5594	0.2704
399.7654	0.2689
399.9714	0.2552
400.1774	0.2692
400.3833	0.2759
400.5893	0.2653
400.7952	0.2629
401.0011	0.2559
401.207	0.2684
401.4129	0.2719
401.6188	0.2668
401.8247	0.2663
402.0305	0.2575
402.2364	0.2686
402.4422	0.2712
402.648	0.2668
402.8538	0.2724
403.0596	0.2648
403.2654	0.2617
403.4711	0.2679
403.6768	0.2644
403.8826	0.2674
404.0883	0.2591
404.294	0.2709
404.4997	0.261
404.7054	0.2694
404.911	0.2697
405.1167	0.2716
405.3223	0.2676
405.5279	0.2793
405.7335	0.2568
405.9391	0.2688
406.1447	0.2658
406.3502	0.2666
406.5558	0.2709
406.7613	0.2714
406.9668	0.2661
407.1724	0.2775
407.3778	0.2696
407.5833	0.2689
407.7888	0.2707
407.9942	0.2635
408.1997	0.2653
408.4051	0.2602
408.6105	0.2732
408.8159	0.2656
409.0213	0.2778
409.2267	0.2603
409.432	0.2768
409.6374	0.2616
409.8427	0.2622
410.048	0.258
410.2533	0.261
410.4586	0.2627
410.6639	0.2658
410.8691	0.2779
411.0744	0.2692
411.2796	0.2707
411.4848	0.273
411.69	0.2674
411.8952	0.2652
412.1004	0.2665
412.3056	0.257
412.5107	0.2629
412.7158	0.2613
412.921	0.2671
413.1261	0.2577
413.3312	0.2633
413.5362	0.2577
413.7413	0.2586
413.9464	0.262
414.1514	0.2591
414.3564	0.2607
414.5614	0.2585
414.7664	0.253
414.9714	0.271
415.1764	0.2628
415.3813	0.2528
415.5863	0.2439
415.7912	0.2566
415.9961	0.2513
416.201	0.2725
416.4059	0.253
416.6108	0.2564
416.8156	0.2523
417.0205	0.2504
417.2253	0.2565
417.4301	0.257
417.6349	0.2502
417.8397	0.2642
418.0445	0.2567
418.2492	0.2621
418.454	0.2439
418.6587	0.2547
418.8634	0.2561
419.0681	0.2511
419.2728	0.2469
419.4775	0.2713
419.6822	0.2454
419.8868	0.2605
420.0915	0.2504
420.2961	0.253
420.5007	0.2449
420.7053	0.256
420.9099	0.2333
421.1144	0.2463
421.319	0.2424
421.5235	0.2474
421.728	0.2418
421.9325	0.2438
422.137	0.2432
422.3415	0.2299
422.546	0.2453
422.7504	0.2403
422.9549	0.2412
423.1593	0.2426
423.3637	0.2332
423.5681	0.2433
423.7725	0.2298
423.9769	0.2317
424.1812	0.2292
424.3856	0.2382
424.5899	0.232
424.7942	0.2315
424.9985	0.233
425.2028	0.2226
425.4071	0.2281
425.6113	0.2233
425.8156	0.2219
426.0198	0.2133
426.224	0.2307
426.4282	0.2366
426.6324	0.2252
426.8366	0.2183
427.0407	0.217
