Data from D4ACN5uM480nmA_Absorbance_12-07-59-772.txt Node
Date: Fri Feb 21 12:07:59 GMT 2025
User: LASERRRRR
Spectrometer: FLMT03099
Trigger mode: 0
Integration Time (sec): 1.500000E-2
Scans to average: 1
Electric dark correction enabled: true
Nonlinearity correction enabled: false
Boxcar width: 0
XAxis mode: Wavelengths
Number of Pixels in Spectrum: 3648
>>>>>Begin Spectral Data<<<<<
179.3399	0.641
179.5586	0.641
179.7771	0.641
179.9957	0.1779
180.2143	-0
180.4329	-0
180.6514	-0
180.8699	-0.5295
181.0885	0.8678
181.307	0.4843
181.5255	-0.0287
181.744	-0
181.9625	0.0451
182.181	-0
182.3994	-0
182.6179	-1.1509
182.8363	0.2249
183.0547	-0
183.2732	0.0695
183.4916	0.3072
183.71	0.3472
183.9284	0.1916
184.1467	0.1143
184.3651	0.2598
184.5835	-0.0088
184.8018	0.2049
185.0201	0.2063
185.2385	0.169
185.4568	0.2955
185.6751	0.1302
185.8934	0.4369
186.1117	0.3568
186.3299	0.2661
186.5482	0.1001
186.7664	0.3522
186.9847	0.2235
187.2029	0.5593
187.4211	0.2109
187.6393	0.1283
187.8575	0.1069
188.0757	0.5652
188.2939	0.0987
188.512	0.008
188.7302	-0.0738
188.9483	0.2182
189.1665	-0
189.3846	0.2879
189.6027	0.0794
189.8208	0.1019
190.0389	0.154
190.257	0.2423
190.475	0.1654
190.6931	0.0855
190.9111	0.0272
191.1292	0.3016
191.3472	0.1638
191.5652	0.4962
191.7832	0.3933
192.0012	0.6229
192.2192	0.424
192.4371	0.2088
192.6551	0.574
192.873	0.2069
193.091	0.2596
193.3089	0.2876
193.5268	0.3856
193.7447	0.5052
193.9626	0.4535
194.1805	0.5625
194.3984	0.3529
194.6162	0.3707
194.8341	0.4672
195.0519	0.5681
195.2697	0.4239
195.4875	0.5265
195.7054	0.5085
195.9231	0.4784
196.1409	0.5265
196.3587	0.5076
196.5765	0.5308
196.7942	0.4926
197.012	0.558
197.2297	0.5372
197.4474	0.5814
197.6651	0.62
197.8828	0.6621
198.1005	0.5987
198.3182	0.5649
198.5358	0.5357
198.7535	0.5161
198.9711	0.6773
199.1888	0.555
199.4064	0.5312
199.624	0.5489
199.8416	0.5592
200.0592	0.5556
200.2767	0.5668
200.4943	0.6045
200.7119	0.5662
200.9294	0.6086
201.1469	0.6502
201.3645	0.7303
201.582	0.5886
201.7995	0.5577
202.017	0.5634
202.2344	0.5102
202.4519	0.5689
202.6694	0.5642
202.8868	0.5874
203.1042	0.5488
203.3217	0.537
203.5391	0.5526
203.7565	0.5273
203.9739	0.5218
204.1913	0.479
204.4086	0.5145
204.626	0.5471
204.8433	0.4915
205.0607	0.4881
205.278	0.4944
205.4953	0.5129
205.7126	0.5013
205.9299	0.4642
206.1472	0.5328
206.3644	0.4849
206.5817	0.4646
206.7989	0.4641
207.0162	0.4307
207.2334	0.4511
207.4506	0.4432
207.6678	0.4302
207.885	0.4502
208.1022	0.4288
208.3194	0.3987
208.5365	0.4438
208.7537	0.4117
208.9708	0.4351
209.1879	0.4006
209.405	0.3851
209.6222	0.4136
209.8392	0.3932
210.0563	0.4193
210.2734	0.3914
210.4905	0.4157
210.7075	0.4411
210.9245	0.4097
211.1416	0.4234
211.3586	0.4112
211.5756	0.4131
211.7926	0.4057
212.0096	0.3918
212.2265	0.3907
212.4435	0.3791
212.6604	0.3766
212.8774	0.3958
213.0943	0.3899
213.3112	0.4194
213.5281	0.3873
213.745	0.3875
213.9619	0.3816
214.1788	0.4003
214.3956	0.4037
214.6125	0.3749
214.8293	0.415
215.0461	0.4087
215.2629	0.4216
215.4798	0.3756
215.6965	0.3966
215.9133	0.3837
216.1301	0.3958
216.3469	0.3965
216.5636	0.4106
216.7803	0.4021
216.9971	0.4031
217.2138	0.4195
217.4305	0.4217
217.6472	0.4253
217.8639	0.411
218.0805	0.4328
218.2972	0.4223
218.5138	0.4303
218.7305	0.4202
218.9471	0.4042
219.1637	0.4165
219.3803	0.4088
219.5969	0.4214
219.8135	0.4263
220.0301	0.4227
220.2466	0.4251
220.4632	0.4208
220.6797	0.42
220.8962	0.43
221.1127	0.4185
221.3292	0.426
221.5457	0.4263
221.7622	0.4297
221.9787	0.4341
222.1951	0.4349
222.4116	0.4412
222.628	0.4484
222.8444	0.4348
223.0608	0.4398
223.2772	0.4468
223.4936	0.4511
223.71	0.4459
223.9264	0.4388
224.1427	0.4446
224.3591	0.4587
224.5754	0.4736
224.7917	0.4596
225.008	0.4511
225.2243	0.4711
225.4406	0.4618
225.6569	0.4503
225.8732	0.4567
226.0894	0.4678
226.3057	0.4644
226.5219	0.4603
226.7381	0.4606
226.9543	0.4671
227.1705	0.4705
227.3867	0.4941
227.6029	0.4774
227.8191	0.4873
228.0352	0.5103
228.2513	0.4898
228.4675	0.4819
228.6836	0.4956
228.8997	0.5036
229.1158	0.4988
229.3319	0.5105
229.548	0.488
229.764	0.5007
229.9801	0.4911
230.1961	0.4871
230.4121	0.5067
230.6282	0.5091
230.8442	0.5197
231.0602	0.5132
231.2761	0.5162
231.4921	0.5106
231.7081	0.5072
231.924	0.5129
232.14	0.5225
232.3559	0.5305
232.5718	0.5243
232.7877	0.5385
233.0036	0.5164
233.2195	0.5215
233.4353	0.5328
233.6512	0.5388
233.867	0.5287
234.0829	0.535
234.2987	0.5276
234.5145	0.544
234.7303	0.5251
234.9461	0.5244
235.1619	0.535
235.3776	0.539
235.5934	0.5263
235.8091	0.5274
236.0249	0.5362
236.2406	0.5453
236.4563	0.5363
236.672	0.5356
236.8877	0.5286
237.1034	0.5258
237.319	0.5351
237.5347	0.5119
237.7503	0.5399
237.966	0.525
238.1816	0.5318
238.3972	0.547
238.6128	0.5379
238.8284	0.5229
239.0439	0.5404
239.2595	0.5309
239.475	0.5408
239.6906	0.5263
239.9061	0.5221
240.1216	0.5329
240.3371	0.5089
240.5526	0.5137
240.7681	0.5158
240.9836	0.5147
241.199	0.5059
241.4145	0.4921
241.6299	0.4984
241.8453	0.4848
242.0607	0.482
242.2761	0.485
242.4915	0.4613
242.7069	0.4617
242.9223	0.4599
243.1376	0.4528
243.353	0.4355
243.5683	0.4409
243.7836	0.4254
243.9989	0.4169
244.2142	0.4151
244.4295	0.4132
244.6448	0.401
244.86	0.3829
245.0753	0.3832
245.2905	0.378
245.5057	0.3697
245.721	0.3542
245.9362	0.3494
246.1514	0.3374
246.3665	0.3381
246.5817	0.3337
246.7969	0.3233
247.012	0.3198
247.2271	0.3049
247.4423	0.3082
247.6574	0.2973
247.8725	0.3017
248.0876	0.294
248.3026	0.2919
248.5177	0.2819
248.7328	0.2821
248.9478	0.2648
249.1628	0.2659
249.3779	0.2653
249.5929	0.2638
249.8079	0.2514
250.0228	0.2499
250.2378	0.2522
250.4528	0.2478
250.6677	0.2396
250.8827	0.2382
251.0976	0.2382
251.3125	0.2343
251.5274	0.2307
251.7423	0.2289
251.9572	0.2216
252.172	0.2093
252.3869	0.2201
252.6017	0.2196
252.8166	0.2195
253.0314	0.2177
253.2462	0.2174
253.461	0.2121
253.6758	0.205
253.8906	0.2104
254.1053	0.2011
254.3201	0.2055
254.5348	0.2022
254.7496	0.2066
254.9643	0.2012
255.179	0.2083
255.3937	0.1969
255.6083	0.197
255.823	0.1985
256.0377	0.2005
256.2523	0.1989
256.467	0.1974
256.6816	0.1996
256.8962	0.1952
257.1108	0.1884
257.3254	0.1875
257.54	0.1958
257.7545	0.1897
257.9691	0.19
258.1836	0.1863
258.3981	0.191
258.6127	0.1779
258.8272	0.1854
259.0417	0.182
259.2561	0.185
259.4706	0.1905
259.6851	0.1849
259.8995	0.1806
260.114	0.1804
260.3284	0.1816
260.5428	0.1848
260.7572	0.1916
260.9716	0.1789
261.186	0.1836
261.4003	0.184
261.6147	0.1799
261.829	0.1778
262.0433	0.1831
262.2577	0.192
262.472	0.1804
262.6863	0.1895
262.9005	0.1898
263.1148	0.1789
263.3291	0.1862
263.5433	0.1838
263.7576	0.1876
263.9718	0.1878
264.186	0.182
264.4002	0.1801
264.6144	0.1928
264.8286	0.1887
265.0427	0.1895
265.2569	0.1916
265.471	0.1807
265.6851	0.1848
265.8993	0.1833
266.1134	0.1836
266.3275	0.1867
266.5415	0.1859
266.7556	0.1777
266.9697	0.1825
267.1837	0.1844
267.3978	0.1913
267.6118	0.1876
267.8258	0.1875
268.0398	0.1789
268.2538	0.186
268.4677	0.1856
268.6817	0.1776
268.8957	0.1805
269.1096	0.1742
269.3235	0.1823
269.5374	0.1771
269.7514	0.1784
269.9652	0.1838
270.1791	0.1786
270.393	0.18
270.6068	0.1746
270.8207	0.17
271.0345	0.1708
271.2483	0.1743
271.4622	0.1759
271.676	0.1732
271.8897	0.1732
272.1035	0.1699
272.3173	0.1679
272.531	0.1701
272.7448	0.1699
272.9585	0.1758
273.1722	0.1738
273.3859	0.17
273.5996	0.167
273.8133	0.1705
274.0269	0.1767
274.2406	0.1679
274.4542	0.1677
274.6679	0.1736
274.8815	0.1713
275.0951	0.1796
275.3087	0.176
275.5223	0.1683
275.7358	0.1778
275.9494	0.1773
276.1629	0.1773
276.3765	0.1673
276.59	0.1768
276.8035	0.1766
277.017	0.1745
277.2305	0.1732
277.444	0.1749
277.6574	0.1753
277.8709	0.1768
278.0843	0.1789
278.2978	0.1763
278.5112	0.1823
278.7246	0.1776
278.938	0.1765
279.1513	0.1753
279.3647	0.1745
279.5781	0.1787
279.7914	0.1769
280.0047	0.177
280.2181	0.1825
280.4314	0.1826
280.6447	0.1924
280.8579	0.1822
281.0712	0.1825
281.2845	0.1813
281.4977	0.1829
281.711	0.1811
281.9242	0.1823
282.1374	0.1855
282.3506	0.1822
282.5638	0.1857
282.7769	0.1841
282.9901	0.182
283.2033	0.1853
283.4164	0.1794
283.6295	0.1844
283.8426	0.1837
284.0557	0.1868
284.2688	0.1902
284.4819	0.1863
284.695	0.187
284.908	0.1924
285.1211	0.1901
285.3341	0.1967
285.5471	0.1958
285.7601	0.1847
285.9731	0.1906
286.1861	0.1948
286.3991	0.1901
286.612	0.1953
286.825	0.1918
287.0379	0.1963
287.2508	0.1977
287.4637	0.1945
287.6766	0.1907
287.8895	0.1932
288.1024	0.1929
288.3152	0.1978
288.5281	0.1986
288.7409	0.1963
288.9538	0.1943
289.1666	0.2043
289.3794	0.1961
289.5922	0.1969
289.8049	0.2036
290.0177	0.198
290.2304	0.2007
290.4432	0.1982
290.6559	0.1879
290.8686	0.2019
291.0813	0.197
291.294	0.2031
291.5067	0.2056
291.7194	0.2009
291.932	0.1971
292.1447	0.2008
292.3573	0.2002
292.5699	0.2023
292.7825	0.2037
292.9951	0.2055
293.2077	0.2004
293.4203	0.2046
293.6328	0.1931
293.8454	0.2014
294.0579	0.2024
294.2704	0.1983
294.4829	0.2018
294.6954	0.2013
294.9079	0.2005
295.1204	0.1921
295.3328	0.1969
295.5453	0.2051
295.7577	0.1941
295.9701	0.1967
296.1825	0.1922
296.3949	0.2068
296.6073	0.1995
296.8197	0.2015
297.0321	0.1999
297.2444	0.1963
297.4567	0.2054
297.6691	0.1949
297.8814	0.1969
298.0937	0.1991
298.306	0.1991
298.5182	0.2049
298.7305	0.1939
298.9428	0.1942
299.155	0.1941
299.3672	0.2012
299.5794	0.1971
299.7916	0.2042
300.0038	0.1966
300.216	0.197
300.4282	0.1984
300.6403	0.1927
300.8525	0.2034
301.0646	0.193
301.2767	0.1998
301.4888	0.1986
301.7009	0.1978
301.913	0.2039
302.125	0.1981
302.3371	0.1939
302.5491	0.1965
302.7612	0.1941
302.9732	0.1899
303.1852	0.1973
303.3972	0.1899
303.6092	0.1926
303.8211	0.1848
304.0331	0.1909
304.245	0.1931
304.457	0.1985
304.6689	0.192
304.8808	0.1931
305.0927	0.1872
305.3046	0.1908
305.5164	0.1905
305.7283	0.1887
305.9401	0.1811
306.152	0.1814
306.3638	0.1775
306.5756	0.1886
306.7874	0.1822
306.9992	0.1844
307.2109	0.1672
307.4227	0.1742
307.6344	0.1717
307.8462	0.1712
308.0579	0.1689
308.2696	0.1603
308.4813	0.1592
308.693	0.1609
308.9046	0.1638
309.1163	0.1653
309.328	0.1505
309.5396	0.1602
309.7512	0.1544
309.9628	0.1498
310.1744	0.1573
310.386	0.1453
310.5976	0.1456
310.8091	0.1477
311.0207	0.1458
311.2322	0.1446
311.4437	0.1465
311.6552	0.1456
311.8667	0.1398
312.0782	0.1413
312.2897	0.144
312.5012	0.1369
312.7126	0.1357
312.924	0.1351
313.1355	0.1314
313.3469	0.1318
313.5583	0.1286
313.7696	0.1269
313.981	0.1256
314.1924	0.1302
314.4037	0.1239
314.6151	0.1238
314.8264	0.1235
315.0377	0.1309
315.249	0.1205
315.4603	0.1264
315.6716	0.1218
315.8828	0.1206
316.0941	0.1178
316.3053	0.1179
316.5165	0.1208
316.7277	0.1207
316.9389	0.1175
317.1501	0.1192
317.3613	0.115
317.5724	0.119
317.7836	0.1169
317.9947	0.1161
318.2058	0.1211
318.417	0.1148
318.6281	0.1141
318.8391	0.1229
319.0502	0.1189
319.2613	0.1149
319.4723	0.1202
319.6834	0.115
319.8944	0.1213
320.1054	0.1187
320.3164	0.1154
320.5274	0.115
320.7383	0.1109
320.9493	0.1188
321.1602	0.1172
321.3712	0.1143
321.5821	0.1166
321.793	0.1141
322.0039	0.1208
322.2148	0.1188
322.4257	0.1169
322.6365	0.1194
322.8474	0.1119
323.0582	0.1116
323.269	0.1116
323.4798	0.1151
323.6906	0.1189
323.9014	0.114
324.1122	0.1139
324.3229	0.1165
324.5337	0.1202
324.7444	0.1129
324.9551	0.1198
325.1658	0.1212
325.3765	0.1221
325.5872	0.1189
325.7979	0.1162
326.0085	0.1155
326.2192	0.1184
326.4298	0.1222
326.6404	0.1165
326.851	0.1192
327.0616	0.1241
327.2722	0.1206
327.4828	0.1158
327.6933	0.1199
327.9039	0.1194
328.1144	0.1193
328.3249	0.1195
328.5354	0.1209
328.7459	0.1143
328.9564	0.1235
329.1669	0.1226
329.3773	0.113
329.5878	0.1238
329.7982	0.1172
330.0086	0.1222
330.219	0.1188
330.4294	0.1265
330.6398	0.1241
330.8502	0.1191
331.0605	0.1236
331.2708	0.123
331.4812	0.1236
331.6915	0.1197
331.9018	0.1159
332.1121	0.1283
332.3224	0.1226
332.5326	0.1252
332.7429	0.122
332.9531	0.1271
333.1633	0.1205
333.3735	0.1192
333.5837	0.1313
333.7939	0.1258
334.0041	0.1231
334.2143	0.1264
334.4244	0.1215
334.6346	0.1228
334.8447	0.1227
335.0548	0.128
335.2649	0.1289
335.475	0.1267
335.685	0.1254
335.8951	0.1312
336.1051	0.1317
336.3152	0.1271
336.5252	0.1298
336.7352	0.1267
336.9452	0.1304
337.1552	0.125
337.3652	0.1291
337.5751	0.1274
337.7851	0.1277
337.995	0.1302
338.2049	0.1283
338.4148	0.1298
338.6247	0.1285
338.8346	0.1279
339.0445	0.1292
339.2543	0.137
339.4642	0.1366
339.674	0.1357
339.8838	0.1309
340.0936	0.132
340.3034	0.1294
340.5132	0.1312
340.7229	0.1304
340.9327	0.1395
341.1424	0.1345
341.3522	0.1343
341.5619	0.1415
341.7716	0.1361
341.9813	0.1425
342.1909	0.1415
342.4006	0.1471
342.6102	0.1389
342.8199	0.138
343.0295	0.1422
343.2391	0.1442
343.4487	0.1428
343.6583	0.1464
343.8679	0.1526
344.0774	0.147
344.287	0.1442
344.4965	0.146
344.706	0.1473
344.9155	0.1446
345.125	0.1469
345.3345	0.1529
345.544	0.1506
345.7534	0.1462
345.9629	0.1531
346.1723	0.1511
346.3817	0.1444
346.5911	0.155
346.8005	0.1479
347.0099	0.1537
347.2193	0.1523
347.4286	0.1539
347.638	0.1549
347.8473	0.1534
348.0566	0.1577
348.2659	0.1618
348.4752	0.1528
348.6845	0.1624
348.8937	0.1599
349.103	0.1473
349.3122	0.1624
349.5214	0.1559
349.7306	0.158
349.9398	0.1642
350.149	0.1621
350.3582	0.1593
350.5674	0.1626
350.7765	0.1656
350.9856	0.1663
351.1948	0.1564
351.4039	0.1639
351.613	0.1703
351.822	0.1689
352.0311	0.1667
352.2402	0.1727
352.4492	0.1748
352.6582	0.1724
352.8672	0.1661
353.0762	0.1698
353.2852	0.1722
353.4942	0.1683
353.7032	0.1731
353.9121	0.1768
354.1211	0.1718
354.33	0.171
354.5389	0.1835
354.7478	0.173
354.9567	0.1758
355.1655	0.1795
355.3744	0.1788
355.5833	0.1857
355.7921	0.1831
356.0009	0.1775
356.2097	0.184
356.4185	0.1868
356.6273	0.1758
356.8361	0.1869
357.0448	0.1893
357.2536	0.1893
357.4623	0.1886
357.671	0.188
357.8797	0.1945
358.0884	0.1851
358.2971	0.1909
358.5057	0.1901
358.7144	0.1949
358.923	0.1926
359.1316	0.19
359.3402	0.1944
359.5488	0.1922
359.7574	0.2069
359.966	0.2068
360.1746	0.1974
360.3831	0.2055
360.5916	0.1965
360.8002	0.2088
361.0087	0.2143
361.2172	0.2094
361.4256	0.2069
361.6341	0.2152
361.8426	0.2113
362.051	0.1992
362.2594	0.214
362.4678	0.2095
362.6762	0.2197
362.8846	0.2164
363.093	0.2171
363.3014	0.2228
363.5097	0.2208
363.718	0.2302
363.9264	0.2241
364.1347	0.2287
364.343	0.2296
364.5513	0.221
364.7595	0.2348
364.9678	0.2324
365.176	0.2279
365.3842	0.2279
365.5925	0.2305
365.8007	0.229
366.0089	0.2278
366.217	0.2465
366.4252	0.2338
366.6333	0.2351
366.8415	0.2387
367.0496	0.2388
367.2577	0.2467
367.4658	0.2462
367.6739	0.2437
367.882	0.2435
368.09	0.2448
368.2981	0.2403
368.5061	0.2528
368.7141	0.2447
368.9221	0.25
369.1301	0.2491
369.3381	0.2556
369.5461	0.2576
369.754	0.2525
369.962	0.2552
370.1699	0.2548
370.3778	0.2612
370.5857	0.2563
370.7936	0.2603
371.0015	0.2602
371.2093	0.2608
371.4172	0.2645
371.625	0.2706
371.8328	0.2681
372.0406	0.2642
372.2484	0.2566
372.4562	0.2593
372.664	0.2683
372.8717	0.2634
373.0795	0.2765
373.2872	0.2723
373.4949	0.2762
373.7026	0.2718
373.9103	0.2594
374.118	0.2773
374.3256	0.2777
374.5333	0.281
374.7409	0.278
374.9485	0.2733
375.1561	0.2698
375.3637	0.2809
375.5713	0.2752
375.7789	0.2754
375.9864	0.2826
376.194	0.287
376.4015	0.2898
376.609	0.2801
376.8165	0.2879
377.024	0.2766
377.2315	0.291
377.4389	0.2737
377.6464	0.2846
377.8538	0.2894
378.0612	0.2796
378.2686	0.297
378.476	0.2952
378.6834	0.2788
378.8908	0.2867
379.0981	0.2959
379.3055	0.2992
379.5128	0.2944
379.7201	0.2924
379.9274	0.2899
380.1347	0.2923
380.342	0.3102
380.5492	0.2963
380.7565	0.2987
380.9637	0.3011
381.1709	0.3008
381.3781	0.3059
381.5853	0.2923
381.7925	0.3107
381.9997	0.3035
382.2068	0.2992
382.4139	0.3082
382.6211	0.31
382.8282	0.3163
383.0353	0.305
383.2424	0.3124
383.4494	0.3143
383.6565	0.3027
383.8635	0.3196
384.0706	0.3029
384.2776	0.3168
384.4846	0.316
384.6916	0.3068
384.8986	0.31
385.1055	0.3213
385.3125	0.3078
385.5194	0.3096
385.7263	0.3074
385.9333	0.3142
386.1402	0.3225
386.347	0.3199
386.5539	0.3095
386.7608	0.3189
386.9676	0.3129
387.1744	0.3151
387.3813	0.3136
387.5881	0.3185
387.7948	0.3181
388.0016	0.3132
388.2084	0.3153
388.4151	0.3017
388.6219	0.3071
388.8286	0.3174
389.0353	0.301
389.242	0.3071
389.4487	0.3094
389.6553	0.2995
389.862	0.308
390.0686	0.3094
390.2753	0.2962
390.4819	0.3063
390.6885	0.305
390.8951	0.3104
391.1016	0.3013
391.3082	0.2967
391.5147	0.2995
391.7213	0.3071
391.9278	0.3037
392.1343	0.287
392.3408	0.286
392.5473	0.2868
392.7537	0.2942
392.9602	0.2876
393.1666	0.2949
393.373	0.2953
393.5794	0.2857
393.7858	0.2913
393.9922	0.2912
394.1986	0.2843
394.4049	0.2803
394.6113	0.283
394.8176	0.2775
395.0239	0.2773
395.2302	0.2753
395.4365	0.2819
395.6428	0.2831
395.8491	0.2735
396.0553	0.268
396.2615	0.2726
396.4678	0.2829
396.674	0.2769
396.8802	0.2693
397.0863	0.2748
397.2925	0.2661
397.4987	0.2701
397.7048	0.273
397.9109	0.2695
398.117	0.2692
398.3231	0.2818
398.5292	0.2763
398.7353	0.266
398.9413	0.2653
399.1474	0.2742
399.3534	0.2746
399.5594	0.2763
399.7654	0.2648
399.9714	0.2504
400.1774	0.2624
400.3833	0.2813
400.5893	0.2538
400.7952	0.2695
401.0011	0.2661
401.207	0.2647
401.4129	0.2657
401.6188	0.2704
401.8247	0.2717
402.0305	0.2621
402.2364	0.268
402.4422	0.2582
402.648	0.2701
402.8538	0.2825
403.0596	0.2649
403.2654	0.2572
403.4711	0.2766
403.6768	0.2667
403.8826	0.268
404.0883	0.2621
404.294	0.2667
404.4997	0.2658
404.7054	0.2569
404.911	0.2659
405.1167	0.2672
405.3223	0.2705
405.5279	0.2579
405.7335	0.2624
405.9391	0.2569
406.1447	0.2704
406.3502	0.2699
406.5558	0.2698
406.7613	0.2715
406.9668	0.2677
407.1724	0.261
407.3778	0.2632
407.5833	0.2659
407.7888	0.2755
407.9942	0.2675
408.1997	0.2602
408.4051	0.2651
408.6105	0.2815
408.8159	0.2653
409.0213	0.2756
409.2267	0.2629
409.432	0.2643
409.6374	0.2678
409.8427	0.2706
410.048	0.2606
410.2533	0.2678
410.4586	0.2691
410.6639	0.267
410.8691	0.2722
411.0744	0.2654
411.2796	0.2758
411.4848	0.2655
411.69	0.2606
411.8952	0.2763
412.1004	0.2664
412.3056	0.2568
412.5107	0.2589
412.7158	0.2703
412.921	0.2615
413.1261	0.2609
413.3312	0.2666
413.5362	0.2679
413.7413	0.2632
413.9464	0.2474
414.1514	0.2621
414.3564	0.2615
414.5614	0.2665
414.7664	0.2567
414.9714	0.2665
415.1764	0.2578
415.3813	0.2567
415.5863	0.2627
415.7912	0.2542
415.9961	0.2564
416.201	0.2631
416.4059	0.2519
416.6108	0.2531
416.8156	0.2439
417.0205	0.2595
417.2253	0.2573
417.4301	0.2662
417.6349	0.2542
417.8397	0.2696
418.0445	0.2604
418.2492	0.2586
418.454	0.262
418.6587	0.2633
418.8634	0.256
419.0681	0.2481
419.2728	0.247
419.4775	0.2518
419.6822	0.2579
419.8868	0.2571
420.0915	0.2563
420.2961	0.2386
420.5007	0.255
420.7053	0.2514
420.9099	0.2339
421.1144	0.2364
421.319	0.2477
421.5235	0.2431
421.728	0.2404
421.9325	0.2448
422.137	0.2406
422.3415	0.2339
422.546	0.2429
422.7504	0.2398
422.9549	0.2467
423.1593	0.2398
423.3637	0.2314
423.5681	0.2484
423.7725	0.2408
423.9769	0.2459
424.1812	0.2326
424.3856	0.242
424.5899	0.2339
424.7942	0.2259
424.9985	0.2323
425.2028	0.225
425.4071	0.2176
425.6113	0.2323
425.8156	0.2185
426.0198	0.2224
426.224	0.225
426.4282	0.2265
426.6324	0.214
426.8366	0.2253
