Data from D4ACN5uM480nmA_Absorbance_12-08-01-765.txt Node
Date: Fri Feb 21 12:08:01 GMT 2025
User: LASERRRRR
Spectrometer: FLMT03099
Trigger mode: 0
Integration Time (sec): 1.500000E-2
Scans to average: 1
Electric dark correction enabled: true
Nonlinearity correction enabled: false
Boxcar width: 0
XAxis mode: Wavelengths
Number of Pixels in Spectrum: 3648
>>>>>Begin Spectral Data<<<<<
179.3399	0.5489
179.5586	0.5489
179.7771	0.5489
179.9957	-0.1905
180.2143	-0.1068
180.4329	-0
180.6514	-0
180.8699	-0
181.0885	-0.4604
181.307	0.4407
181.5255	-0.2784
181.744	-0
181.9625	-0.5259
182.181	0.4373
182.3994	-0
182.6179	-0.7291
182.8363	-0
183.0547	0.1619
183.2732	0.2094
183.4916	0.108
183.71	0.1765
183.9284	0.1124
184.1467	-0.108
184.3651	0.3771
184.5835	0.0545
184.8018	0.1977
185.0201	0.4481
185.2385	0.238
185.4568	0.5613
185.6751	0.1649
185.8934	0.4422
186.1117	0.0753
186.3299	0.1323
186.5482	0.1229
186.7664	0.3428
186.9847	0.3368
187.2029	0.1026
187.4211	0.2757
187.6393	0.2325
187.8575	0.074
188.0757	0.5729
188.2939	-0.0406
188.512	0.1909
188.7302	0.1166
188.9483	0.5811
189.1665	0.4416
189.3846	0.1218
189.6027	0.1274
189.8208	0.2775
190.0389	0.3395
190.257	0.3291
190.475	0.1585
190.6931	0.2962
190.9111	0.6854
191.1292	0.4771
191.3472	0.3092
191.5652	0.7367
191.7832	0.1544
192.0012	0.2846
192.2192	0.3459
192.4371	0.2457
192.6551	0.3937
192.873	0.2179
193.091	0.3504
193.3089	0.1609
193.5268	0.526
193.7447	0.7111
193.9626	0.5869
194.1805	0.4172
194.3984	0.4324
194.6162	0.5096
194.8341	0.549
195.0519	0.5072
195.2697	0.6176
195.4875	0.6682
195.7054	0.498
195.9231	0.5178
196.1409	0.6226
196.3587	0.576
196.5765	0.555
196.7942	0.6562
197.012	0.5388
197.2297	0.5817
197.4474	0.6813
197.6651	0.5374
197.8828	0.6888
198.1005	0.7872
198.3182	0.5111
198.5358	0.5581
198.7535	0.5785
198.9711	0.7014
199.1888	0.6709
199.4064	0.5874
199.624	0.613
199.8416	0.581
200.0592	0.5981
200.2767	0.5316
200.4943	0.6515
200.7119	0.6426
200.9294	0.6266
201.1469	0.6683
201.3645	0.6215
201.582	0.5802
201.7995	0.6908
202.017	0.5272
202.2344	0.5504
202.4519	0.5405
202.6694	0.5651
202.8868	0.548
203.1042	0.5458
203.3217	0.5689
203.5391	0.5083
203.7565	0.5182
203.9739	0.5042
204.1913	0.5468
204.4086	0.523
204.626	0.5487
204.8433	0.5265
205.0607	0.4853
205.278	0.5512
205.4953	0.4796
205.7126	0.5026
205.9299	0.4884
206.1472	0.4897
206.3644	0.4976
206.5817	0.4748
206.7989	0.4888
207.0162	0.4561
207.2334	0.4851
207.4506	0.4133
207.6678	0.4401
207.885	0.4928
208.1022	0.4412
208.3194	0.4045
208.5365	0.4554
208.7537	0.462
208.9708	0.4576
209.1879	0.4264
209.405	0.4078
209.6222	0.3962
209.8392	0.4173
210.0563	0.4307
210.2734	0.4053
210.4905	0.4194
210.7075	0.4353
210.9245	0.4129
211.1416	0.4218
211.3586	0.402
211.5756	0.4188
211.7926	0.4313
212.0096	0.3834
212.2265	0.4054
212.4435	0.4372
212.6604	0.4044
212.8774	0.4178
213.0943	0.419
213.3112	0.3921
213.5281	0.4198
213.745	0.431
213.9619	0.4054
214.1788	0.4302
214.3956	0.4214
214.6125	0.4072
214.8293	0.4061
215.0461	0.4026
215.2629	0.4057
215.4798	0.3945
215.6965	0.405
215.9133	0.4198
216.1301	0.399
216.3469	0.3994
216.5636	0.4012
216.7803	0.4126
216.9971	0.4207
217.2138	0.3951
217.4305	0.4157
217.6472	0.4264
217.8639	0.4033
218.0805	0.4114
218.2972	0.4168
218.5138	0.4399
218.7305	0.461
218.9471	0.4015
219.1637	0.4196
219.3803	0.4287
219.5969	0.3964
219.8135	0.4204
220.0301	0.4228
220.2466	0.4215
220.4632	0.4247
220.6797	0.4282
220.8962	0.4363
221.1127	0.4374
221.3292	0.4372
221.5457	0.4362
221.7622	0.4335
221.9787	0.4499
222.1951	0.4308
222.4116	0.4287
222.628	0.4545
222.8444	0.4392
223.0608	0.4418
223.2772	0.4428
223.4936	0.4631
223.71	0.4669
223.9264	0.4358
224.1427	0.4453
224.3591	0.4549
224.5754	0.4661
224.7917	0.4623
225.008	0.4524
225.2243	0.46
225.4406	0.4648
225.6569	0.4635
225.8732	0.4614
226.0894	0.4793
226.3057	0.4597
226.5219	0.4714
226.7381	0.4496
226.9543	0.4706
227.1705	0.4749
227.3867	0.4952
227.6029	0.4607
227.8191	0.4831
228.0352	0.4986
228.2513	0.4953
228.4675	0.4833
228.6836	0.4968
228.8997	0.5072
229.1158	0.4859
229.3319	0.4897
229.548	0.4912
229.764	0.4836
229.9801	0.4936
230.1961	0.5126
230.4121	0.5102
230.6282	0.5132
230.8442	0.5086
231.0602	0.513
231.2761	0.5148
231.4921	0.5144
231.7081	0.5156
231.924	0.5122
232.14	0.5245
232.3559	0.5393
232.5718	0.5284
232.7877	0.5272
233.0036	0.5185
233.2195	0.5289
233.4353	0.5396
233.6512	0.5323
233.867	0.5346
234.0829	0.5343
234.2987	0.5209
234.5145	0.5378
234.7303	0.5289
234.9461	0.5328
235.1619	0.5266
235.3776	0.5308
235.5934	0.5255
235.8091	0.5264
236.0249	0.541
236.2406	0.5375
236.4563	0.5466
236.672	0.5472
236.8877	0.5462
237.1034	0.5228
237.319	0.5424
237.5347	0.5208
237.7503	0.5305
237.966	0.535
238.1816	0.5285
238.3972	0.5314
238.6128	0.5428
238.8284	0.5316
239.0439	0.5472
239.2595	0.5238
239.475	0.5412
239.6906	0.54
239.9061	0.523
240.1216	0.5368
240.3371	0.527
240.5526	0.5136
240.7681	0.5268
240.9836	0.5169
241.199	0.5152
241.4145	0.4985
241.6299	0.4995
241.8453	0.4988
242.0607	0.4965
242.2761	0.4757
242.4915	0.4749
242.7069	0.4667
242.9223	0.4635
243.1376	0.4466
243.353	0.4448
243.5683	0.438
243.7836	0.4294
243.9989	0.4187
244.2142	0.4139
244.4295	0.4061
244.6448	0.403
244.86	0.3852
245.0753	0.3761
245.2905	0.3726
245.5057	0.3645
245.721	0.3653
245.9362	0.3538
246.1514	0.335
246.3665	0.3382
246.5817	0.3369
246.7969	0.3248
247.012	0.3244
247.2271	0.3117
247.4423	0.3096
247.6574	0.3069
247.8725	0.2958
248.0876	0.2961
248.3026	0.2905
248.5177	0.2833
248.7328	0.282
248.9478	0.2666
249.1628	0.2683
249.3779	0.2708
249.5929	0.2602
249.8079	0.2534
250.0228	0.2488
250.2378	0.2494
250.4528	0.249
250.6677	0.2447
250.8827	0.2387
251.0976	0.249
251.3125	0.2344
251.5274	0.2347
251.7423	0.2271
251.9572	0.2197
252.172	0.212
252.3869	0.2213
252.6017	0.2213
252.8166	0.2197
253.0314	0.2198
253.2462	0.2167
253.461	0.2164
253.6758	0.2093
253.8906	0.2041
254.1053	0.2061
254.3201	0.2053
254.5348	0.2041
254.7496	0.2027
254.9643	0.205
255.179	0.2078
255.3937	0.195
255.6083	0.1979
255.823	0.1992
256.0377	0.1925
256.2523	0.1983
256.467	0.2053
256.6816	0.2086
256.8962	0.196
257.1108	0.1931
257.3254	0.1941
257.54	0.1947
257.7545	0.1922
257.9691	0.1844
258.1836	0.1877
258.3981	0.1861
258.6127	0.1855
258.8272	0.1848
259.0417	0.1816
259.2561	0.1856
259.4706	0.1914
259.6851	0.1837
259.8995	0.1834
260.114	0.1856
260.3284	0.1881
260.5428	0.1839
260.7572	0.1878
260.9716	0.1806
261.186	0.1798
261.4003	0.1917
261.6147	0.1874
261.829	0.186
262.0433	0.181
262.2577	0.18
262.472	0.1836
262.6863	0.1882
262.9005	0.1869
263.1148	0.1813
263.3291	0.1893
263.5433	0.1845
263.7576	0.1782
263.9718	0.1879
264.186	0.1823
264.4002	0.1806
264.6144	0.1928
264.8286	0.1921
265.0427	0.1853
265.2569	0.1936
265.471	0.19
265.6851	0.1798
265.8993	0.1855
266.1134	0.1837
266.3275	0.1863
266.5415	0.1851
266.7556	0.185
266.9697	0.1803
267.1837	0.1846
267.3978	0.191
267.6118	0.1848
267.8258	0.1829
268.0398	0.1868
268.2538	0.1866
268.4677	0.185
268.6817	0.177
268.8957	0.1784
269.1096	0.1748
269.3235	0.1878
269.5374	0.1742
269.7514	0.1841
269.9652	0.1832
270.1791	0.1849
270.393	0.1863
270.6068	0.1691
270.8207	0.1713
271.0345	0.1782
271.2483	0.1802
271.4622	0.1772
271.676	0.1736
271.8897	0.1713
272.1035	0.1727
272.3173	0.1749
272.531	0.1729
272.7448	0.1691
272.9585	0.1722
273.1722	0.174
273.3859	0.17
273.5996	0.1672
273.8133	0.1688
274.0269	0.1729
274.2406	0.1735
274.4542	0.1647
274.6679	0.1769
274.8815	0.172
275.0951	0.1759
275.3087	0.1757
275.5223	0.1715
275.7358	0.1789
275.9494	0.1751
276.1629	0.1806
276.3765	0.1747
276.59	0.1791
276.8035	0.1867
277.017	0.174
277.2305	0.1764
277.444	0.1764
277.6574	0.1776
277.8709	0.1785
278.0843	0.1759
278.2978	0.1759
278.5112	0.183
278.7246	0.1748
278.938	0.1762
279.1513	0.1837
279.3647	0.1826
279.5781	0.1751
279.7914	0.184
280.0047	0.1815
280.2181	0.1799
280.4314	0.1836
280.6447	0.1884
280.8579	0.1807
281.0712	0.1849
281.2845	0.189
281.4977	0.1859
281.711	0.1835
281.9242	0.1837
282.1374	0.1848
282.3506	0.1894
282.5638	0.1832
282.7769	0.1865
282.9901	0.1839
283.2033	0.1869
283.4164	0.1866
283.6295	0.1791
283.8426	0.1849
284.0557	0.1885
284.2688	0.1897
284.4819	0.1943
284.695	0.1877
284.908	0.1914
285.1211	0.1888
285.3341	0.1905
285.5471	0.1892
285.7601	0.1935
285.9731	0.1934
286.1861	0.1923
286.3991	0.1921
286.612	0.1951
286.825	0.192
287.0379	0.1898
287.2508	0.1965
287.4637	0.1966
287.6766	0.1947
287.8895	0.1877
288.1024	0.1997
288.3152	0.195
288.5281	0.1916
288.7409	0.1983
288.9538	0.2016
289.1666	0.1997
289.3794	0.2022
289.5922	0.1951
289.8049	0.2023
290.0177	0.1954
290.2304	0.2015
290.4432	0.1976
290.6559	0.1907
290.8686	0.2005
291.0813	0.1974
291.294	0.208
291.5067	0.2029
291.7194	0.1957
291.932	0.2007
292.1447	0.2013
292.3573	0.2025
292.5699	0.2003
292.7825	0.2012
292.9951	0.2048
293.2077	0.2031
293.4203	0.2003
293.6328	0.1957
293.8454	0.2049
294.0579	0.2016
294.2704	0.1973
294.4829	0.1941
294.6954	0.1959
294.9079	0.2059
295.1204	0.1979
295.3328	0.1979
295.5453	0.2035
295.7577	0.1979
295.9701	0.2001
296.1825	0.1936
296.3949	0.2038
296.6073	0.2003
296.8197	0.2062
297.0321	0.1977
297.2444	0.1953
297.4567	0.1981
297.6691	0.1973
297.8814	0.2018
298.0937	0.1991
298.306	0.1975
298.5182	0.2014
298.7305	0.1938
298.9428	0.1988
299.155	0.1945
299.3672	0.1981
299.5794	0.1971
299.7916	0.199
300.0038	0.1963
300.216	0.1999
300.4282	0.1952
300.6403	0.1923
300.8525	0.2021
301.0646	0.1996
301.2767	0.2001
301.4888	0.1981
301.7009	0.1957
301.913	0.2034
302.125	0.2001
302.3371	0.1961
302.5491	0.1976
302.7612	0.2008
302.9732	0.1938
303.1852	0.1996
303.3972	0.1954
303.6092	0.1917
303.8211	0.1837
304.0331	0.1903
304.245	0.1918
304.457	0.1959
304.6689	0.1939
304.8808	0.1915
305.0927	0.1961
305.3046	0.1884
305.5164	0.1868
305.7283	0.1911
305.9401	0.1776
306.152	0.1829
306.3638	0.1778
306.5756	0.1799
306.7874	0.1823
306.9992	0.1773
307.2109	0.1692
307.4227	0.1735
307.6344	0.1753
307.8462	0.167
308.0579	0.1665
308.2696	0.1677
308.4813	0.1648
308.693	0.1692
308.9046	0.1621
309.1163	0.1602
309.328	0.1567
309.5396	0.163
309.7512	0.153
309.9628	0.1528
310.1744	0.1587
310.386	0.1506
310.5976	0.1472
310.8091	0.1448
311.0207	0.1474
311.2322	0.1457
311.4437	0.1441
311.6552	0.1445
311.8667	0.1384
312.0782	0.1416
312.2897	0.1415
312.5012	0.142
312.7126	0.1304
312.924	0.1352
313.1355	0.1335
313.3469	0.1289
313.5583	0.1328
313.7696	0.1273
313.981	0.1305
314.1924	0.1298
314.4037	0.1226
314.6151	0.1246
314.8264	0.1269
315.0377	0.1321
315.249	0.1208
315.4603	0.1222
315.6716	0.1236
315.8828	0.1244
316.0941	0.1221
316.3053	0.1199
316.5165	0.1235
316.7277	0.1221
316.9389	0.1219
317.1501	0.117
317.3613	0.1198
317.5724	0.119
317.7836	0.1176
317.9947	0.1186
318.2058	0.1187
318.417	0.1212
318.6281	0.1168
318.8391	0.1184
319.0502	0.1189
319.2613	0.1211
319.4723	0.1127
319.6834	0.1191
319.8944	0.1192
320.1054	0.1151
320.3164	0.117
320.5274	0.11
320.7383	0.1082
320.9493	0.1157
321.1602	0.1181
321.3712	0.1165
321.5821	0.1201
321.793	0.1166
322.0039	0.1159
322.2148	0.1147
322.4257	0.1183
322.6365	0.1167
322.8474	0.1156
323.0582	0.1181
323.269	0.1126
323.4798	0.1222
323.6906	0.1172
323.9014	0.1086
324.1122	0.1178
324.3229	0.1172
324.5337	0.1203
324.7444	0.1097
324.9551	0.1226
325.1658	0.1208
325.3765	0.119
325.5872	0.1188
325.7979	0.1148
326.0085	0.12
326.2192	0.1155
326.4298	0.1177
326.6404	0.1179
326.851	0.1225
327.0616	0.1225
327.2722	0.1257
327.4828	0.1179
327.6933	0.1173
327.9039	0.1168
328.1144	0.1191
328.3249	0.1169
328.5354	0.1217
328.7459	0.1233
328.9564	0.1239
329.1669	0.1216
329.3773	0.1241
329.5878	0.1199
329.7982	0.1224
330.0086	0.121
330.219	0.1238
330.4294	0.1276
330.6398	0.1315
330.8502	0.1208
331.0605	0.1206
331.2708	0.1241
331.4812	0.122
331.6915	0.1197
331.9018	0.1202
332.1121	0.1265
332.3224	0.1336
332.5326	0.1227
332.7429	0.1213
332.9531	0.1264
333.1633	0.1232
333.3735	0.1248
333.5837	0.1267
333.7939	0.126
334.0041	0.1255
334.2143	0.1214
334.4244	0.1234
334.6346	0.1232
334.8447	0.1318
335.0548	0.1239
335.2649	0.1294
335.475	0.1275
335.685	0.1263
335.8951	0.1298
336.1051	0.1318
336.3152	0.1302
336.5252	0.1329
336.7352	0.1234
336.9452	0.1356
337.1552	0.1258
337.3652	0.1343
337.5751	0.1279
337.7851	0.1275
337.995	0.1363
338.2049	0.1314
338.4148	0.1297
338.6247	0.1302
338.8346	0.1246
339.0445	0.1355
339.2543	0.135
339.4642	0.1362
339.674	0.1374
339.8838	0.1281
340.0936	0.1336
340.3034	0.1331
340.5132	0.1295
340.7229	0.1321
340.9327	0.1433
341.1424	0.1356
341.3522	0.1359
341.5619	0.1349
341.7716	0.1365
341.9813	0.1428
342.1909	0.1458
342.4006	0.1426
342.6102	0.1364
342.8199	0.1352
343.0295	0.1422
343.2391	0.1437
343.4487	0.1444
343.6583	0.1489
343.8679	0.1438
344.0774	0.1429
344.287	0.1507
344.4965	0.1494
344.706	0.1444
344.9155	0.148
345.125	0.1489
345.3345	0.1482
345.544	0.1482
345.7534	0.141
345.9629	0.1507
346.1723	0.1516
346.3817	0.1484
346.5911	0.155
346.8005	0.1494
347.0099	0.1562
347.2193	0.1465
347.4286	0.1546
347.638	0.1538
347.8473	0.1587
348.0566	0.1626
348.2659	0.152
348.4752	0.1594
348.6845	0.1584
348.8937	0.1606
349.103	0.1574
349.3122	0.1573
349.5214	0.1531
349.7306	0.1582
349.9398	0.1592
350.149	0.1675
350.3582	0.1616
350.5674	0.1668
350.7765	0.1691
350.9856	0.1695
351.1948	0.1657
351.4039	0.1681
351.613	0.1745
351.822	0.1695
352.0311	0.1646
352.2402	0.1701
352.4492	0.1705
352.6582	0.1679
352.8672	0.1692
353.0762	0.1704
353.2852	0.1653
353.4942	0.175
353.7032	0.1691
353.9121	0.1684
354.1211	0.1746
354.33	0.172
354.5389	0.1765
354.7478	0.1814
354.9567	0.173
355.1655	0.1789
355.3744	0.18
355.5833	0.1892
355.7921	0.1818
356.0009	0.1836
356.2097	0.1872
356.4185	0.1962
356.6273	0.1883
356.8361	0.1869
357.0448	0.1906
357.2536	0.1855
357.4623	0.1809
357.671	0.1913
357.8797	0.1934
358.0884	0.1878
358.2971	0.2008
358.5057	0.1922
358.7144	0.1943
358.923	0.1993
359.1316	0.1922
359.3402	0.2032
359.5488	0.1971
359.7574	0.2028
359.966	0.2075
360.1746	0.1956
360.3831	0.21
360.5916	0.205
360.8002	0.2094
361.0087	0.2058
361.2172	0.2045
361.4256	0.199
361.6341	0.2119
361.8426	0.2052
362.051	0.2043
362.2594	0.2142
362.4678	0.2102
362.6762	0.2189
362.8846	0.221
363.093	0.2149
363.3014	0.2226
363.5097	0.2185
363.718	0.2281
363.9264	0.219
364.1347	0.2293
364.343	0.2301
364.5513	0.2359
364.7595	0.2303
364.9678	0.228
365.176	0.2298
365.3842	0.2381
365.5925	0.2267
365.8007	0.2343
366.0089	0.2347
366.217	0.2403
366.4252	0.2392
366.6333	0.2358
366.8415	0.2412
367.0496	0.2401
367.2577	0.2471
367.4658	0.2428
367.6739	0.2357
367.882	0.2454
368.09	0.2437
368.2981	0.2426
368.5061	0.2555
368.7141	0.2515
368.9221	0.2493
369.1301	0.2494
369.3381	0.2602
369.5461	0.255
369.754	0.2525
369.962	0.2479
370.1699	0.2602
370.3778	0.2551
370.5857	0.2598
370.7936	0.2669
371.0015	0.2559
371.2093	0.2607
371.4172	0.2608
371.625	0.2603
371.8328	0.2661
372.0406	0.2737
372.2484	0.2667
372.4562	0.2619
372.664	0.2681
372.8717	0.2731
373.0795	0.2636
373.2872	0.2674
373.4949	0.2841
373.7026	0.282
373.9103	0.2653
374.118	0.2795
374.3256	0.2794
374.5333	0.2737
374.7409	0.2716
374.9485	0.2787
375.1561	0.2777
375.3637	0.2799
375.5713	0.2756
375.7789	0.2711
375.9864	0.2858
376.194	0.2835
376.4015	0.2859
376.609	0.293
376.8165	0.2912
377.024	0.2807
377.2315	0.3015
377.4389	0.2784
377.6464	0.291
377.8538	0.2908
378.0612	0.2918
378.2686	0.2835
378.476	0.2906
378.6834	0.2886
378.8908	0.2963
379.0981	0.2934
379.3055	0.2981
379.5128	0.2954
379.7201	0.2955
379.9274	0.2986
380.1347	0.3029
380.342	0.2995
380.5492	0.2978
380.7565	0.2932
380.9637	0.2978
381.1709	0.3001
381.3781	0.2975
381.5853	0.3017
381.7925	0.3138
381.9997	0.3045
382.2068	0.2886
382.4139	0.3127
382.6211	0.3107
382.8282	0.3023
383.0353	0.3105
383.2424	0.3076
383.4494	0.3079
383.6565	0.3129
383.8635	0.3189
384.0706	0.3081
384.2776	0.3176
384.4846	0.3172
384.6916	0.3071
384.8986	0.3123
385.1055	0.319
385.3125	0.3209
385.5194	0.3052
385.7263	0.3079
385.9333	0.3148
386.1402	0.3117
386.347	0.3185
386.5539	0.3146
386.7608	0.3149
386.9676	0.3134
387.1744	0.3119
387.3813	0.3164
387.5881	0.318
387.7948	0.317
388.0016	0.3144
388.2084	0.3147
388.4151	0.3099
388.6219	0.3119
388.8286	0.3072
389.0353	0.3093
389.242	0.3062
389.4487	0.314
389.6553	0.3048
389.862	0.3039
390.0686	0.3207
390.2753	0.3015
390.4819	0.3112
390.6885	0.3039
390.8951	0.3166
391.1016	0.3097
391.3082	0.2916
391.5147	0.2939
391.7213	0.3061
391.9278	0.3039
392.1343	0.2915
392.3408	0.294
392.5473	0.2974
392.7537	0.2953
392.9602	0.2858
393.1666	0.2899
393.373	0.3002
393.5794	0.285
393.7858	0.2796
393.9922	0.2938
394.1986	0.2785
394.4049	0.2809
394.6113	0.2883
394.8176	0.2666
395.0239	0.2765
395.2302	0.2751
395.4365	0.2833
395.6428	0.2906
395.8491	0.279
396.0553	0.2745
396.2615	0.2705
396.4678	0.2798
396.674	0.2726
396.8802	0.2677
397.0863	0.2664
397.2925	0.2635
397.4987	0.2684
397.7048	0.2757
397.9109	0.2729
398.117	0.2648
398.3231	0.2743
398.5292	0.2673
398.7353	0.2722
398.9413	0.2603
399.1474	0.271
399.3534	0.273
399.5594	0.2684
399.7654	0.2681
399.9714	0.2594
400.1774	0.2646
400.3833	0.2681
400.5893	0.2627
400.7952	0.2676
401.0011	0.2619
401.207	0.2753
401.4129	0.2767
401.6188	0.2656
401.8247	0.2672
402.0305	0.2613
402.2364	0.2685
402.4422	0.271
402.648	0.2791
402.8538	0.2771
403.0596	0.259
403.2654	0.2621
403.4711	0.2689
403.6768	0.2639
403.8826	0.2667
404.0883	0.2625
404.294	0.2668
404.4997	0.2626
404.7054	0.258
404.911	0.2565
405.1167	0.2765
405.3223	0.2719
405.5279	0.2579
405.7335	0.2697
405.9391	0.2672
406.1447	0.2695
406.3502	0.2765
406.5558	0.2752
406.7613	0.2696
406.9668	0.2667
407.1724	0.2754
407.3778	0.2675
407.5833	0.2709
407.7888	0.2734
407.9942	0.2735
408.1997	0.2726
408.4051	0.2592
408.6105	0.2759
408.8159	0.2744
409.0213	0.2769
409.2267	0.262
409.432	0.2693
409.6374	0.266
409.8427	0.2698
410.048	0.2596
410.2533	0.2595
410.4586	0.2673
410.6639	0.2616
410.8691	0.279
411.0744	0.2611
411.2796	0.2725
411.4848	0.261
411.69	0.2593
411.8952	0.2618
412.1004	0.2631
412.3056	0.2641
412.5107	0.2647
412.7158	0.2605
412.921	0.2663
413.1261	0.2701
413.3312	0.2574
413.5362	0.2611
413.7413	0.264
413.9464	0.2544
414.1514	0.2653
414.3564	0.2603
414.5614	0.2575
414.7664	0.2631
414.9714	0.2774
415.1764	0.2567
415.3813	0.2553
415.5863	0.2552
415.7912	0.2611
415.9961	0.2615
416.201	0.2669
416.4059	0.2534
416.6108	0.2484
416.8156	0.2526
417.0205	0.2679
417.2253	0.2573
417.4301	0.2741
417.6349	0.2564
417.8397	0.2693
418.0445	0.2534
418.2492	0.2565
418.454	0.2546
418.6587	0.2486
418.8634	0.2605
419.0681	0.2567
419.2728	0.2529
419.4775	0.2508
419.6822	0.2503
419.8868	0.2587
420.0915	0.2477
420.2961	0.2465
420.5007	0.2531
420.7053	0.257
420.9099	0.2448
421.1144	0.2426
421.319	0.2533
421.5235	0.2373
421.728	0.2461
421.9325	0.2491
422.137	0.2364
422.3415	0.2331
422.546	0.2398
422.7504	0.2404
422.9549	0.2392
423.1593	0.2335
423.3637	0.2324
423.5681	0.234
423.7725	0.2343
423.9769	0.2391
424.1812	0.2393
424.3856	0.239
424.5899	0.2437
424.7942	0.225
424.9985	0.2385
425.2028	0.2314
425.4071	0.2217
425.6113	0.2302
425.8156	0.2226
426.0198	0.2235
426.224	0.2345
426.4282	0.2278
426.6324	0.2101
426.8366	0.2249
