Data from D4ACN5uM480nmA_Absorbance_12-08-01-332.txt Node
Date: Fri Feb 21 12:08:01 GMT 2025
User: LASERRRRR
Spectrometer: FLMT03099
Trigger mode: 0
Integration Time (sec): 1.500000E-2
Scans to average: 1
Electric dark correction enabled: true
Nonlinearity correction enabled: false
Boxcar width: 0
XAxis mode: Wavelengths
Number of Pixels in Spectrum: 3648
>>>>>Begin Spectral Data<<<<<
179.3399	-0.0267
179.5586	-0.0267
179.7771	-0.0267
179.9957	-0.039
180.2143	-0
180.4329	-0
180.6514	-0.8265
180.8699	-0.3551
181.0885	-0.0097
181.307	0.4031
181.5255	0.0259
181.744	-0.8746
181.9625	0.0166
182.181	0.4187
182.3994	-0
182.6179	-0.9493
182.8363	-0.1085
183.0547	-0.7288
183.2732	0.323
183.4916	0.4146
183.71	0.2209
183.9284	0.3914
184.1467	0.0261
184.3651	0.5469
184.5835	0.0527
184.8018	0.2053
185.0201	0.252
185.2385	0.0399
185.4568	0.1177
185.6751	0.1273
185.8934	0.1943
186.1117	0.1287
186.3299	0.04
186.5482	0.1467
186.7664	0.197
186.9847	0.1105
187.2029	0.259
187.4211	0.1771
187.6393	0.2122
187.8575	0.2389
188.0757	0.5663
188.2939	0.379
188.512	0.0229
188.7302	0.1308
188.9483	0.2793
189.1665	0.2773
189.3846	0.0938
189.6027	0.0884
189.8208	0.2644
190.0389	0.2266
190.257	0.2908
190.475	0.4528
190.6931	0.1819
190.9111	0.5399
191.1292	0.1758
191.3472	0.4417
191.5652	0.2885
191.7832	0.3441
192.0012	0.2384
192.2192	0.3262
192.4371	0.2475
192.6551	0.3609
192.873	0.3669
193.091	0.2961
193.3089	0.163
193.5268	0.3716
193.7447	0.2466
193.9626	0.4267
194.1805	0.3282
194.3984	0.3436
194.6162	0.2862
194.8341	0.6649
195.0519	0.534
195.2697	0.6201
195.4875	0.855
195.7054	0.639
195.9231	0.4225
196.1409	0.5206
196.3587	0.44
196.5765	0.4758
196.7942	0.6424
197.012	0.4318
197.2297	0.5402
197.4474	0.6502
197.6651	0.6202
197.8828	0.59
198.1005	0.5718
198.3182	0.5997
198.5358	0.4454
198.7535	0.5935
198.9711	0.6721
199.1888	0.6883
199.4064	0.5126
199.624	0.6209
199.8416	0.6312
200.0592	0.5242
200.2767	0.4925
200.4943	0.6463
200.7119	0.6319
200.9294	0.5802
201.1469	0.6098
201.3645	0.5568
201.582	0.5469
201.7995	0.6455
202.017	0.4997
202.2344	0.5511
202.4519	0.6016
202.6694	0.5498
202.8868	0.6318
203.1042	0.5378
203.3217	0.55
203.5391	0.5369
203.7565	0.5177
203.9739	0.4872
204.1913	0.4954
204.4086	0.4916
204.626	0.4852
204.8433	0.5176
205.0607	0.4695
205.278	0.5079
205.4953	0.4884
205.7126	0.4657
205.9299	0.4658
206.1472	0.4526
206.3644	0.4599
206.5817	0.4386
206.7989	0.4291
207.0162	0.4314
207.2334	0.4466
207.4506	0.4432
207.6678	0.4253
207.885	0.4496
208.1022	0.4165
208.3194	0.3929
208.5365	0.4501
208.7537	0.4271
208.9708	0.4352
209.1879	0.3826
209.405	0.4267
209.6222	0.4037
209.8392	0.4284
210.0563	0.4418
210.2734	0.4089
210.4905	0.4187
210.7075	0.3962
210.9245	0.4381
211.1416	0.4007
211.3586	0.4402
211.5756	0.4012
211.7926	0.4238
212.0096	0.4082
212.2265	0.427
212.4435	0.4219
212.6604	0.4317
212.8774	0.4138
213.0943	0.4188
213.3112	0.4059
213.5281	0.4462
213.745	0.3925
213.9619	0.379
214.1788	0.4011
214.3956	0.436
214.6125	0.3926
214.8293	0.4026
215.0461	0.411
215.2629	0.41
215.4798	0.3916
215.6965	0.3846
215.9133	0.392
216.1301	0.4077
216.3469	0.4049
216.5636	0.416
216.7803	0.4091
216.9971	0.4241
217.2138	0.409
217.4305	0.4162
217.6472	0.412
217.8639	0.4019
218.0805	0.413
218.2972	0.4123
218.5138	0.4365
218.7305	0.428
218.9471	0.4133
219.1637	0.4183
219.3803	0.4085
219.5969	0.4215
219.8135	0.4244
220.0301	0.404
220.2466	0.4346
220.4632	0.4373
220.6797	0.4185
220.8962	0.4478
221.1127	0.429
221.3292	0.4448
221.5457	0.4243
221.7622	0.4348
221.9787	0.4521
222.1951	0.4311
222.4116	0.4445
222.628	0.443
222.8444	0.4395
223.0608	0.4318
223.2772	0.4247
223.4936	0.4537
223.71	0.4385
223.9264	0.4465
224.1427	0.4535
224.3591	0.4646
224.5754	0.4738
224.7917	0.4601
225.008	0.4534
225.2243	0.4728
225.4406	0.4641
225.6569	0.4534
225.8732	0.442
226.0894	0.47
226.3057	0.4557
226.5219	0.4711
226.7381	0.4612
226.9543	0.4686
227.1705	0.4688
227.3867	0.4846
227.6029	0.4866
227.8191	0.4715
228.0352	0.5029
228.2513	0.4878
228.4675	0.4863
228.6836	0.4826
228.8997	0.5083
229.1158	0.4978
229.3319	0.4947
229.548	0.4976
229.764	0.5084
229.9801	0.5069
230.1961	0.5172
230.4121	0.5026
230.6282	0.5184
230.8442	0.5217
231.0602	0.5213
231.2761	0.5269
231.4921	0.5097
231.7081	0.5357
231.924	0.5139
232.14	0.5127
232.3559	0.528
232.5718	0.5311
232.7877	0.5197
233.0036	0.5124
233.2195	0.5405
233.4353	0.5346
233.6512	0.5331
233.867	0.5335
234.0829	0.5314
234.2987	0.5274
234.5145	0.546
234.7303	0.5356
234.9461	0.5399
235.1619	0.5283
235.3776	0.5404
235.5934	0.5273
235.8091	0.5221
236.0249	0.5347
236.2406	0.5297
236.4563	0.5361
236.672	0.5301
236.8877	0.5442
237.1034	0.5264
237.319	0.5276
237.5347	0.5262
237.7503	0.5268
237.966	0.5304
238.1816	0.5391
238.3972	0.5447
238.6128	0.5436
238.8284	0.5304
239.0439	0.5347
239.2595	0.5185
239.475	0.5322
239.6906	0.5356
239.9061	0.5343
240.1216	0.5261
240.3371	0.5104
240.5526	0.5094
240.7681	0.5185
240.9836	0.5324
241.199	0.5025
241.4145	0.5014
241.6299	0.4993
241.8453	0.4947
242.0607	0.4863
242.2761	0.4828
242.4915	0.4767
242.7069	0.462
242.9223	0.4608
243.1376	0.4531
243.353	0.4364
243.5683	0.437
243.7836	0.4243
243.9989	0.4183
244.2142	0.4127
244.4295	0.4078
244.6448	0.3962
244.86	0.3834
245.0753	0.3881
245.2905	0.3817
245.5057	0.3737
245.721	0.3568
245.9362	0.3565
246.1514	0.3384
246.3665	0.3391
246.5817	0.3303
246.7969	0.3267
247.012	0.32
247.2271	0.3128
247.4423	0.3033
247.6574	0.3043
247.8725	0.3038
248.0876	0.2885
248.3026	0.2869
248.5177	0.2759
248.7328	0.2863
248.9478	0.2799
249.1628	0.2648
249.3779	0.2673
249.5929	0.262
249.8079	0.2555
250.0228	0.2501
250.2378	0.2545
250.4528	0.2468
250.6677	0.2391
250.8827	0.2412
251.0976	0.2382
251.3125	0.2357
251.5274	0.2277
251.7423	0.2291
251.9572	0.222
252.172	0.2156
252.3869	0.2215
252.6017	0.218
252.8166	0.2185
253.0314	0.2142
253.2462	0.2181
253.461	0.2163
253.6758	0.2056
253.8906	0.2094
254.1053	0.2025
254.3201	0.2068
254.5348	0.2024
254.7496	0.2098
254.9643	0.204
255.179	0.2008
255.3937	0.1976
255.6083	0.195
255.823	0.1957
256.0377	0.2001
256.2523	0.2017
256.467	0.1966
256.6816	0.1971
256.8962	0.1953
257.1108	0.1952
257.3254	0.1891
257.54	0.1932
257.7545	0.193
257.9691	0.1942
258.1836	0.1848
258.3981	0.1846
258.6127	0.1754
258.8272	0.1838
259.0417	0.1847
259.2561	0.1796
259.4706	0.1938
259.6851	0.1816
259.8995	0.1871
260.114	0.1856
260.3284	0.1859
260.5428	0.1829
260.7572	0.1858
260.9716	0.1839
261.186	0.1832
261.4003	0.1867
261.6147	0.186
261.829	0.1778
262.0433	0.1827
262.2577	0.1878
262.472	0.1847
262.6863	0.1884
262.9005	0.1883
263.1148	0.1813
263.3291	0.1831
263.5433	0.1861
263.7576	0.1832
263.9718	0.1833
264.186	0.1845
264.4002	0.1798
264.6144	0.1885
264.8286	0.1907
265.0427	0.195
265.2569	0.1811
265.471	0.1922
265.6851	0.1829
265.8993	0.1832
266.1134	0.1839
266.3275	0.1858
266.5415	0.182
266.7556	0.1788
266.9697	0.1803
267.1837	0.1839
267.3978	0.1897
267.6118	0.1833
267.8258	0.1819
268.0398	0.1859
268.2538	0.1851
268.4677	0.1828
268.6817	0.1777
268.8957	0.1817
269.1096	0.1778
269.3235	0.1891
269.5374	0.1786
269.7514	0.1793
269.9652	0.1837
270.1791	0.1796
270.393	0.1841
270.6068	0.1738
270.8207	0.173
271.0345	0.1738
271.2483	0.1767
271.4622	0.1787
271.676	0.1763
271.8897	0.1637
272.1035	0.1656
272.3173	0.1703
272.531	0.1739
272.7448	0.1733
272.9585	0.1764
273.1722	0.1735
273.3859	0.1681
273.5996	0.1692
273.8133	0.1688
274.0269	0.1723
274.2406	0.1764
274.4542	0.1705
274.6679	0.1728
274.8815	0.1704
275.0951	0.177
275.3087	0.1761
275.5223	0.1746
275.7358	0.18
275.9494	0.1708
276.1629	0.1767
276.3765	0.1727
276.59	0.1762
276.8035	0.1778
277.017	0.1771
277.2305	0.1777
277.444	0.1758
277.6574	0.1773
277.8709	0.1759
278.0843	0.1785
278.2978	0.1817
278.5112	0.1842
278.7246	0.1745
278.938	0.1799
279.1513	0.1846
279.3647	0.1825
279.5781	0.1847
279.7914	0.1815
280.0047	0.1773
280.2181	0.188
280.4314	0.1766
280.6447	0.1867
280.8579	0.1773
281.0712	0.1795
281.2845	0.1917
281.4977	0.1889
281.711	0.1835
281.9242	0.1838
282.1374	0.1811
282.3506	0.1892
282.5638	0.1853
282.7769	0.1833
282.9901	0.1853
283.2033	0.1803
283.4164	0.1821
283.6295	0.1795
283.8426	0.1849
284.0557	0.1846
284.2688	0.1892
284.4819	0.1937
284.695	0.1996
284.908	0.1936
285.1211	0.1839
285.3341	0.1903
285.5471	0.1993
285.7601	0.197
285.9731	0.188
286.1861	0.1926
286.3991	0.1956
286.612	0.1921
286.825	0.1954
287.0379	0.1981
287.2508	0.1947
287.4637	0.1956
287.6766	0.1958
287.8895	0.1928
288.1024	0.196
288.3152	0.1944
288.5281	0.1959
288.7409	0.1939
288.9538	0.191
289.1666	0.201
289.3794	0.1981
289.5922	0.1993
289.8049	0.2045
290.0177	0.2001
290.2304	0.2017
290.4432	0.1951
290.6559	0.1944
290.8686	0.2001
291.0813	0.1993
291.294	0.2009
291.5067	0.202
291.7194	0.2025
291.932	0.2059
292.1447	0.2022
292.3573	0.2063
292.5699	0.2027
292.7825	0.2058
292.9951	0.1971
293.2077	0.1978
293.4203	0.2009
293.6328	0.1966
293.8454	0.1988
294.0579	0.2032
294.2704	0.2055
294.4829	0.196
294.6954	0.1976
294.9079	0.2049
295.1204	0.1995
295.3328	0.1947
295.5453	0.1988
295.7577	0.1939
295.9701	0.1952
296.1825	0.1958
296.3949	0.2011
296.6073	0.2058
296.8197	0.1971
297.0321	0.2014
297.2444	0.1979
297.4567	0.1977
297.6691	0.2044
297.8814	0.1985
298.0937	0.2014
298.306	0.197
298.5182	0.203
298.7305	0.1945
298.9428	0.1968
299.155	0.1972
299.3672	0.205
299.5794	0.1921
299.7916	0.2024
300.0038	0.1913
300.216	0.2045
300.4282	0.1968
300.6403	0.2011
300.8525	0.2038
301.0646	0.1967
301.2767	0.2008
301.4888	0.1949
301.7009	0.1966
301.913	0.1969
302.125	0.1979
302.3371	0.2014
302.5491	0.1921
302.7612	0.1942
302.9732	0.1976
303.1852	0.1961
303.3972	0.1961
303.6092	0.1971
303.8211	0.1886
304.0331	0.1897
304.245	0.195
304.457	0.2003
304.6689	0.1965
304.8808	0.192
305.0927	0.1914
305.3046	0.1848
305.5164	0.1892
305.7283	0.1891
305.9401	0.1817
306.152	0.1783
306.3638	0.1784
306.5756	0.1802
306.7874	0.1816
306.9992	0.1824
307.2109	0.1737
307.4227	0.1738
307.6344	0.1742
307.8462	0.1632
308.0579	0.1661
308.2696	0.1683
308.4813	0.1647
308.693	0.1655
308.9046	0.1628
309.1163	0.1618
309.328	0.1524
309.5396	0.1578
309.7512	0.1563
309.9628	0.1531
310.1744	0.1616
310.386	0.1462
310.5976	0.1487
310.8091	0.1501
311.0207	0.1463
311.2322	0.1481
311.4437	0.1409
311.6552	0.1488
311.8667	0.1399
312.0782	0.1424
312.2897	0.1416
312.5012	0.1354
312.7126	0.1305
312.924	0.138
313.1355	0.1243
313.3469	0.1316
313.5583	0.1293
313.7696	0.1288
313.981	0.1283
314.1924	0.1277
314.4037	0.1225
314.6151	0.1257
314.8264	0.1305
315.0377	0.1289
315.249	0.1225
315.4603	0.1204
315.6716	0.1229
315.8828	0.1227
316.0941	0.121
316.3053	0.1216
316.5165	0.1184
316.7277	0.1225
316.9389	0.1198
317.1501	0.1254
317.3613	0.1212
317.5724	0.123
317.7836	0.1181
317.9947	0.1145
318.2058	0.1165
318.417	0.1157
318.6281	0.1161
318.8391	0.1185
319.0502	0.1198
319.2613	0.1126
319.4723	0.1161
319.6834	0.1159
319.8944	0.1209
320.1054	0.118
320.3164	0.1204
320.5274	0.1167
320.7383	0.1132
320.9493	0.1178
321.1602	0.1139
321.3712	0.1191
321.5821	0.1224
321.793	0.112
322.0039	0.1148
322.2148	0.123
322.4257	0.1161
322.6365	0.1144
322.8474	0.1185
323.0582	0.1162
323.269	0.1097
323.4798	0.1178
323.6906	0.1131
323.9014	0.1104
324.1122	0.1127
324.3229	0.1218
324.5337	0.1234
324.7444	0.1188
324.9551	0.1189
325.1658	0.1189
325.3765	0.1184
325.5872	0.1175
325.7979	0.1175
326.0085	0.1211
326.2192	0.1194
326.4298	0.1242
326.6404	0.123
326.851	0.1183
327.0616	0.1225
327.2722	0.131
327.4828	0.1218
327.6933	0.1214
327.9039	0.1217
328.1144	0.1205
328.3249	0.1255
328.5354	0.1203
328.7459	0.1259
328.9564	0.1298
329.1669	0.1239
329.3773	0.1258
329.5878	0.1214
329.7982	0.1251
330.0086	0.1227
330.219	0.1232
330.4294	0.1263
330.6398	0.1237
330.8502	0.1216
331.0605	0.1201
331.2708	0.1205
331.4812	0.1209
331.6915	0.1178
331.9018	0.1223
332.1121	0.1246
332.3224	0.1259
332.5326	0.1268
332.7429	0.1214
332.9531	0.126
333.1633	0.1279
333.3735	0.1245
333.5837	0.1317
333.7939	0.1254
334.0041	0.1264
334.2143	0.1214
334.4244	0.124
334.6346	0.1305
334.8447	0.131
335.0548	0.13
335.2649	0.1309
335.475	0.1299
335.685	0.1292
335.8951	0.1374
336.1051	0.1275
336.3152	0.126
336.5252	0.1294
336.7352	0.1184
336.9452	0.1317
337.1552	0.1321
337.3652	0.1255
337.5751	0.1313
337.7851	0.1232
337.995	0.1313
338.2049	0.1365
338.4148	0.1245
338.6247	0.1329
338.8346	0.1211
339.0445	0.1322
339.2543	0.1354
339.4642	0.1319
339.674	0.1348
339.8838	0.1366
340.0936	0.1351
340.3034	0.1335
340.5132	0.1332
340.7229	0.138
340.9327	0.1399
341.1424	0.1389
341.3522	0.1402
341.5619	0.1324
341.7716	0.1438
341.9813	0.1382
342.1909	0.1411
342.4006	0.1426
342.6102	0.1383
342.8199	0.1379
343.0295	0.1433
343.2391	0.1375
343.4487	0.1451
343.6583	0.144
343.8679	0.1417
344.0774	0.1457
344.287	0.1495
344.4965	0.1483
344.706	0.1492
344.9155	0.1415
345.125	0.1465
345.3345	0.1463
345.544	0.154
345.7534	0.1453
345.9629	0.1516
346.1723	0.1518
346.3817	0.1465
346.5911	0.151
346.8005	0.1465
347.0099	0.1573
347.2193	0.1476
347.4286	0.157
347.638	0.1527
347.8473	0.1564
348.0566	0.1585
348.2659	0.156
348.4752	0.1572
348.6845	0.1618
348.8937	0.1614
349.103	0.1562
349.3122	0.164
349.5214	0.1607
349.7306	0.1576
349.9398	0.1619
350.149	0.1706
350.3582	0.1542
350.5674	0.1646
350.7765	0.167
350.9856	0.1638
351.1948	0.1646
351.4039	0.1647
351.613	0.172
351.822	0.1717
352.0311	0.1616
352.2402	0.1698
352.4492	0.1679
352.6582	0.1808
352.8672	0.177
353.0762	0.1679
353.2852	0.1702
353.4942	0.1711
353.7032	0.174
353.9121	0.1786
354.1211	0.1702
354.33	0.1826
354.5389	0.1804
354.7478	0.1738
354.9567	0.1804
355.1655	0.1861
355.3744	0.1817
355.5833	0.1807
355.7921	0.181
356.0009	0.1825
356.2097	0.1909
356.4185	0.1899
356.6273	0.1797
356.8361	0.1913
357.0448	0.182
357.2536	0.1933
357.4623	0.1886
357.671	0.1818
357.8797	0.2006
358.0884	0.186
358.2971	0.1973
358.5057	0.1891
358.7144	0.2007
358.923	0.1962
359.1316	0.1962
359.3402	0.2053
359.5488	0.2009
359.7574	0.1959
359.966	0.2031
360.1746	0.1992
360.3831	0.2011
360.5916	0.2078
360.8002	0.2152
361.0087	0.2062
361.2172	0.2024
361.4256	0.2024
361.6341	0.2179
361.8426	0.2032
362.051	0.2063
362.2594	0.2209
362.4678	0.2177
362.6762	0.2191
362.8846	0.2228
363.093	0.2188
363.3014	0.2242
363.5097	0.2208
363.718	0.2286
363.9264	0.2253
364.1347	0.2283
364.343	0.2294
364.5513	0.226
364.7595	0.229
364.9678	0.2317
365.176	0.2315
365.3842	0.2312
365.5925	0.2287
365.8007	0.2365
366.0089	0.2358
366.217	0.2445
366.4252	0.2359
366.6333	0.2407
366.8415	0.2385
367.0496	0.2375
367.2577	0.2484
367.4658	0.2458
367.6739	0.243
367.882	0.2457
368.09	0.2403
368.2981	0.2488
368.5061	0.2538
368.7141	0.2548
368.9221	0.2473
369.1301	0.253
369.3381	0.2569
369.5461	0.2532
369.754	0.2544
369.962	0.2512
370.1699	0.2578
370.3778	0.2562
370.5857	0.2593
370.7936	0.2647
371.0015	0.255
371.2093	0.2686
371.4172	0.2667
371.625	0.2651
371.8328	0.2664
372.0406	0.2608
372.2484	0.2544
372.4562	0.2614
372.664	0.2666
372.8717	0.2733
373.0795	0.2714
373.2872	0.2664
373.4949	0.2811
373.7026	0.2742
373.9103	0.2636
374.118	0.2728
374.3256	0.2843
374.5333	0.2718
374.7409	0.266
374.9485	0.2798
375.1561	0.2814
375.3637	0.2682
375.5713	0.278
375.7789	0.2702
375.9864	0.2783
376.194	0.2923
376.4015	0.2878
376.609	0.29
376.8165	0.2925
377.024	0.2839
377.2315	0.2863
377.4389	0.2747
377.6464	0.2826
377.8538	0.288
378.0612	0.2937
378.2686	0.2944
378.476	0.2875
378.6834	0.2807
378.8908	0.292
379.0981	0.2991
379.3055	0.301
379.5128	0.3036
379.7201	0.296
379.9274	0.2924
380.1347	0.3003
380.342	0.3073
380.5492	0.2929
380.7565	0.2978
380.9637	0.3005
381.1709	0.3002
381.3781	0.3081
381.5853	0.2996
381.7925	0.3102
381.9997	0.3167
382.2068	0.2933
382.4139	0.3151
382.6211	0.3141
382.8282	0.3138
383.0353	0.3081
383.2424	0.3191
383.4494	0.3184
383.6565	0.3076
383.8635	0.3296
384.0706	0.3019
384.2776	0.3182
384.4846	0.3108
384.6916	0.3065
384.8986	0.3182
385.1055	0.3144
385.3125	0.3059
385.5194	0.3042
385.7263	0.3023
385.9333	0.3091
386.1402	0.319
386.347	0.3283
386.5539	0.3145
386.7608	0.3151
386.9676	0.3123
387.1744	0.3142
387.3813	0.3124
387.5881	0.3219
387.7948	0.316
388.0016	0.3116
388.2084	0.3166
388.4151	0.3135
388.6219	0.3229
388.8286	0.3152
389.0353	0.2967
389.242	0.3066
389.4487	0.3198
389.6553	0.3063
389.862	0.3097
390.0686	0.3047
390.2753	0.2941
390.4819	0.3094
390.6885	0.3097
390.8951	0.3031
391.1016	0.3119
391.3082	0.2914
391.5147	0.3002
391.7213	0.3014
391.9278	0.2999
392.1343	0.3001
392.3408	0.2853
392.5473	0.2918
392.7537	0.2974
392.9602	0.286
393.1666	0.291
393.373	0.2987
393.5794	0.2902
393.7858	0.2936
393.9922	0.297
394.1986	0.2808
394.4049	0.2873
394.6113	0.2858
394.8176	0.2787
395.0239	0.2742
395.2302	0.2756
395.4365	0.2835
395.6428	0.2819
395.8491	0.2691
396.0553	0.2794
396.2615	0.2722
396.4678	0.2796
396.674	0.2676
396.8802	0.2746
397.0863	0.2638
397.2925	0.2722
397.4987	0.2683
397.7048	0.2724
397.9109	0.279
398.117	0.2709
398.3231	0.2798
398.5292	0.2651
398.7353	0.2586
398.9413	0.2727
399.1474	0.27
399.3534	0.2757
399.5594	0.2733
399.7654	0.2718
399.9714	0.2663
400.1774	0.2705
400.3833	0.2741
400.5893	0.2633
400.7952	0.2692
401.0011	0.267
401.207	0.2702
401.4129	0.2736
401.6188	0.2691
401.8247	0.267
402.0305	0.261
402.2364	0.2676
402.4422	0.2667
402.648	0.2646
402.8538	0.2744
403.0596	0.268
403.2654	0.27
403.4711	0.2717
403.6768	0.2789
403.8826	0.2687
404.0883	0.2551
404.294	0.2717
404.4997	0.2593
404.7054	0.2647
404.911	0.2671
405.1167	0.2838
405.3223	0.2765
405.5279	0.2664
405.7335	0.2609
405.9391	0.263
406.1447	0.2649
406.3502	0.2727
406.5558	0.2672
406.7613	0.2683
406.9668	0.275
407.1724	0.2719
407.3778	0.2609
407.5833	0.2662
407.7888	0.2713
407.9942	0.263
408.1997	0.258
408.4051	0.2685
408.6105	0.2682
408.8159	0.2595
409.0213	0.263
409.2267	0.2612
409.432	0.268
409.6374	0.2761
409.8427	0.2626
410.048	0.2692
410.2533	0.2645
410.4586	0.2706
410.6639	0.2668
410.8691	0.2773
411.0744	0.2653
411.2796	0.2757
411.4848	0.2566
411.69	0.2672
411.8952	0.2699
412.1004	0.2557
412.3056	0.2584
412.5107	0.2592
412.7158	0.2707
412.921	0.2649
413.1261	0.2759
413.3312	0.2664
413.5362	0.2649
413.7413	0.2638
413.9464	0.2688
414.1514	0.2642
414.3564	0.2561
414.5614	0.2576
414.7664	0.2661
414.9714	0.2589
415.1764	0.2632
415.3813	0.2601
415.5863	0.2542
415.7912	0.2701
415.9961	0.2585
416.201	0.2582
416.4059	0.2571
416.6108	0.2561
416.8156	0.2436
417.0205	0.277
417.2253	0.2615
417.4301	0.2654
417.6349	0.2548
417.8397	0.2581
418.0445	0.2594
418.2492	0.2609
418.454	0.2567
418.6587	0.268
418.8634	0.2538
419.0681	0.2584
419.2728	0.2405
419.4775	0.2511
419.6822	0.2399
419.8868	0.2623
420.0915	0.251
420.2961	0.2395
420.5007	0.2516
420.7053	0.2502
420.9099	0.2426
421.1144	0.2374
421.319	0.244
421.5235	0.2444
421.728	0.2444
421.9325	0.2425
422.137	0.2405
422.3415	0.231
422.546	0.2421
422.7504	0.2413
422.9549	0.2373
423.1593	0.2403
423.3637	0.2343
423.5681	0.2412
423.7725	0.2358
423.9769	0.2364
424.1812	0.2361
424.3856	0.237
424.5899	0.2361
424.7942	0.2194
424.9985	0.2348
425.2028	0.2315
425.4071	0.2158
425.6113	0.2227
425.8156	0.2118
426.0198	0.22
426.224	0.2378
426.4282	0.2268
426.6324	0.2164
426.8366	0.2173
