Data from D4ACN5uM480nmA_Absorbance_12-08-00-341.txt Node
Date: Fri Feb 21 12:08:00 GMT 2025
User: LASERRRRR
Spectrometer: FLMT03099
Trigger mode: 0
Integration Time (sec): 1.500000E-2
Scans to average: 1
Electric dark correction enabled: true
Nonlinearity correction enabled: false
Boxcar width: 0
XAxis mode: Wavelengths
Number of Pixels in Spectrum: 3648
>>>>>Begin Spectral Data<<<<<
179.3399	0.0606
179.5586	0.0606
179.7771	0.0606
179.9957	0.1584
180.2143	-0.4762
180.4329	0.0241
180.6514	-0
180.8699	-0
181.0885	-0
181.307	-0.057
181.5255	0.2097
181.744	-0
181.9625	0.0406
182.181	-0
182.3994	-0
182.6179	-0
182.8363	0.1078
183.0547	-0
183.2732	0.4632
183.4916	0.9244
183.71	0.0505
183.9284	0.1496
184.1467	0.4604
184.3651	0.1788
184.5835	0.1843
184.8018	0.1483
185.0201	0.5854
185.2385	0.1296
185.4568	0.1222
185.6751	0.1567
185.8934	0.1794
186.1117	0.0779
186.3299	0.1935
186.5482	-0.0439
186.7664	0.4422
186.9847	0.172
187.2029	0.5971
187.4211	0.1857
187.6393	0.2841
187.8575	0.4567
188.0757	0.395
188.2939	0.6993
188.512	0.1941
188.7302	0.3442
188.9483	0.1884
189.1665	0.3462
189.3846	-0.0171
189.6027	0.0124
189.8208	0.3568
190.0389	0.3679
190.257	0.2586
190.475	0.1471
190.6931	0.164
190.9111	0.2149
191.1292	0.1503
191.3472	0.1749
191.5652	0.2132
191.7832	0.4147
192.0012	0.3768
192.2192	0.3435
192.4371	0.1929
192.6551	0.2667
192.873	0.2909
193.091	0.5002
193.3089	0.2511
193.5268	0.2019
193.7447	0.373
193.9626	0.4451
194.1805	0.4071
194.3984	0.2823
194.6162	0.4683
194.8341	0.4732
195.0519	0.5493
195.2697	0.4756
195.4875	0.8325
195.7054	0.509
195.9231	0.4072
196.1409	0.5495
196.3587	0.6029
196.5765	0.4393
196.7942	0.5647
197.012	0.4274
197.2297	0.4653
197.4474	0.6068
197.6651	0.5388
197.8828	0.602
198.1005	0.6252
198.3182	0.5239
198.5358	0.4783
198.7535	0.5533
198.9711	0.6311
199.1888	0.7024
199.4064	0.5412
199.624	0.5733
199.8416	0.5275
200.0592	0.5292
200.2767	0.6087
200.4943	0.6242
200.7119	0.6007
200.9294	0.5269
201.1469	0.7837
201.3645	0.6226
201.582	0.5221
201.7995	0.5519
202.017	0.5106
202.2344	0.5568
202.4519	0.5717
202.6694	0.5601
202.8868	0.4892
203.1042	0.5165
203.3217	0.5797
203.5391	0.5281
203.7565	0.4921
203.9739	0.4823
204.1913	0.5221
204.4086	0.5635
204.626	0.4782
204.8433	0.4813
205.0607	0.4983
205.278	0.5026
205.4953	0.4678
205.7126	0.4612
205.9299	0.4776
206.1472	0.5086
206.3644	0.5327
206.5817	0.4479
206.7989	0.4878
207.0162	0.4439
207.2334	0.4506
207.4506	0.4365
207.6678	0.4509
207.885	0.4592
208.1022	0.4224
208.3194	0.3887
208.5365	0.4501
208.7537	0.4284
208.9708	0.4686
209.1879	0.3965
209.405	0.4235
209.6222	0.4196
209.8392	0.4549
210.0563	0.4137
210.2734	0.4104
210.4905	0.3847
210.7075	0.4306
210.9245	0.417
211.1416	0.3844
211.3586	0.4181
211.5756	0.4088
211.7926	0.4088
212.0096	0.3786
212.2265	0.4039
212.4435	0.4006
212.6604	0.3968
212.8774	0.407
213.0943	0.4218
213.3112	0.4059
213.5281	0.4144
213.745	0.3834
213.9619	0.3989
214.1788	0.4093
214.3956	0.4321
214.6125	0.4011
214.8293	0.4295
215.0461	0.3948
215.2629	0.4012
215.4798	0.376
215.6965	0.3637
215.9133	0.4022
216.1301	0.4091
216.3469	0.386
216.5636	0.3974
216.7803	0.4131
216.9971	0.4072
217.2138	0.4017
217.4305	0.4417
217.6472	0.4067
217.8639	0.4147
218.0805	0.4264
218.2972	0.3941
218.5138	0.4278
218.7305	0.417
218.9471	0.4184
219.1637	0.4263
219.3803	0.4096
219.5969	0.4403
219.8135	0.4198
220.0301	0.4082
220.2466	0.4224
220.4632	0.41
220.6797	0.4437
220.8962	0.4396
221.1127	0.4261
221.3292	0.4292
221.5457	0.4175
221.7622	0.4425
221.9787	0.447
222.1951	0.4241
222.4116	0.4484
222.628	0.4465
222.8444	0.4351
223.0608	0.454
223.2772	0.4457
223.4936	0.4183
223.71	0.4349
223.9264	0.4524
224.1427	0.4474
224.3591	0.4448
224.5754	0.4718
224.7917	0.469
225.008	0.4472
225.2243	0.4644
225.4406	0.4662
225.6569	0.4552
225.8732	0.4641
226.0894	0.4801
226.3057	0.4683
226.5219	0.454
226.7381	0.467
226.9543	0.4578
227.1705	0.4609
227.3867	0.4833
227.6029	0.4702
227.8191	0.4698
228.0352	0.4956
228.2513	0.4689
228.4675	0.4974
228.6836	0.5041
228.8997	0.5102
229.1158	0.4889
229.3319	0.4943
229.548	0.4915
229.764	0.4941
229.9801	0.509
230.1961	0.512
230.4121	0.499
230.6282	0.5019
230.8442	0.5214
231.0602	0.5103
231.2761	0.5235
231.4921	0.5229
231.7081	0.5245
231.924	0.4984
232.14	0.5309
232.3559	0.5381
232.5718	0.525
232.7877	0.5329
233.0036	0.513
233.2195	0.5397
233.4353	0.5363
233.6512	0.5294
233.867	0.5274
234.0829	0.5316
234.2987	0.5214
234.5145	0.5377
234.7303	0.534
234.9461	0.5316
235.1619	0.5316
235.3776	0.5314
235.5934	0.5391
235.8091	0.5199
236.0249	0.5386
236.2406	0.5556
236.4563	0.5488
236.672	0.5261
236.8877	0.5397
237.1034	0.5248
237.319	0.5339
237.5347	0.5234
237.7503	0.5375
237.966	0.5321
238.1816	0.5249
238.3972	0.5316
238.6128	0.5514
238.8284	0.5407
239.0439	0.5397
239.2595	0.5333
239.475	0.5212
239.6906	0.5327
239.9061	0.5317
240.1216	0.5313
240.3371	0.5185
240.5526	0.5067
240.7681	0.5223
240.9836	0.5139
241.199	0.5232
241.4145	0.507
241.6299	0.4907
241.8453	0.4881
242.0607	0.4887
242.2761	0.4788
242.4915	0.4681
242.7069	0.4586
242.9223	0.4644
243.1376	0.4423
243.353	0.4335
243.5683	0.4458
243.7836	0.4294
243.9989	0.4144
244.2142	0.4059
244.4295	0.408
244.6448	0.4059
244.86	0.389
245.0753	0.3801
245.2905	0.3799
245.5057	0.3746
245.721	0.3552
245.9362	0.3564
246.1514	0.335
246.3665	0.3383
246.5817	0.3333
246.7969	0.3241
247.012	0.3264
247.2271	0.314
247.4423	0.3051
247.6574	0.3061
247.8725	0.2996
248.0876	0.2885
248.3026	0.2838
248.5177	0.2776
248.7328	0.2854
248.9478	0.2695
249.1628	0.2676
249.3779	0.2654
249.5929	0.2624
249.8079	0.2528
250.0228	0.2526
250.2378	0.2554
250.4528	0.2517
250.6677	0.2473
250.8827	0.2377
251.0976	0.238
251.3125	0.2347
251.5274	0.2362
251.7423	0.2276
251.9572	0.2174
252.172	0.2167
252.3869	0.2187
252.6017	0.2135
252.8166	0.2195
253.0314	0.2158
253.2462	0.2129
253.461	0.219
253.6758	0.21
253.8906	0.2117
254.1053	0.2059
254.3201	0.2036
254.5348	0.2031
254.7496	0.2009
254.9643	0.2053
255.179	0.2023
255.3937	0.1943
255.6083	0.2064
255.823	0.1975
256.0377	0.1994
256.2523	0.2
256.467	0.196
256.6816	0.2016
256.8962	0.1962
257.1108	0.1964
257.3254	0.1897
257.54	0.1964
257.7545	0.1951
257.9691	0.1959
258.1836	0.1918
258.3981	0.187
258.6127	0.1823
258.8272	0.1872
259.0417	0.1841
259.2561	0.1881
259.4706	0.1905
259.6851	0.1852
259.8995	0.184
260.114	0.1818
260.3284	0.1817
260.5428	0.1815
260.7572	0.1888
260.9716	0.1869
261.186	0.1729
261.4003	0.1909
261.6147	0.1776
261.829	0.1843
262.0433	0.1819
262.2577	0.1833
262.472	0.185
262.6863	0.1844
262.9005	0.1886
263.1148	0.1827
263.3291	0.1873
263.5433	0.1836
263.7576	0.1785
263.9718	0.1861
264.186	0.185
264.4002	0.1913
264.6144	0.189
264.8286	0.1883
265.0427	0.193
265.2569	0.1823
265.471	0.1776
265.6851	0.1763
265.8993	0.1882
266.1134	0.1905
266.3275	0.1857
266.5415	0.1805
266.7556	0.1765
266.9697	0.1777
267.1837	0.1824
267.3978	0.1938
267.6118	0.1765
267.8258	0.1858
268.0398	0.1855
268.2538	0.1872
268.4677	0.1796
268.6817	0.1729
268.8957	0.1852
269.1096	0.1718
269.3235	0.1853
269.5374	0.1796
269.7514	0.177
269.9652	0.1828
270.1791	0.1818
270.393	0.1769
270.6068	0.1768
270.8207	0.1737
271.0345	0.1743
271.2483	0.1733
271.4622	0.1736
271.676	0.1706
271.8897	0.1736
272.1035	0.176
272.3173	0.1741
272.531	0.1765
272.7448	0.172
272.9585	0.1738
273.1722	0.1736
273.3859	0.1709
273.5996	0.1717
273.8133	0.1678
274.0269	0.1765
274.2406	0.1765
274.4542	0.1676
274.6679	0.1677
274.8815	0.1718
275.0951	0.1774
275.3087	0.1779
275.5223	0.1752
275.7358	0.1827
275.9494	0.1718
276.1629	0.1748
276.3765	0.1693
276.59	0.1762
276.8035	0.1829
277.017	0.1786
277.2305	0.1784
277.444	0.1805
277.6574	0.1756
277.8709	0.1763
278.0843	0.1728
278.2978	0.1809
278.5112	0.1846
278.7246	0.1779
278.938	0.1784
279.1513	0.1808
279.3647	0.177
279.5781	0.1804
279.7914	0.1772
280.0047	0.1772
280.2181	0.1821
280.4314	0.1834
280.6447	0.1907
280.8579	0.1843
281.0712	0.1795
281.2845	0.178
281.4977	0.1881
281.711	0.1784
281.9242	0.1811
282.1374	0.1838
282.3506	0.1863
282.5638	0.1826
282.7769	0.1862
282.9901	0.1873
283.2033	0.1884
283.4164	0.1787
283.6295	0.184
283.8426	0.1897
284.0557	0.1856
284.2688	0.192
284.4819	0.1923
284.695	0.1907
284.908	0.1899
285.1211	0.1948
285.3341	0.1957
285.5471	0.1983
285.7601	0.1918
285.9731	0.1899
286.1861	0.1883
286.3991	0.1887
286.612	0.198
286.825	0.1939
287.0379	0.1952
287.2508	0.1995
287.4637	0.1931
287.6766	0.1917
287.8895	0.1953
288.1024	0.1948
288.3152	0.1969
288.5281	0.1972
288.7409	0.1993
288.9538	0.1939
289.1666	0.1947
289.3794	0.2004
289.5922	0.1991
289.8049	0.2049
290.0177	0.1977
290.2304	0.1974
290.4432	0.2033
290.6559	0.1964
290.8686	0.204
291.0813	0.2025
291.294	0.2005
291.5067	0.1982
291.7194	0.1995
291.932	0.2039
292.1447	0.2007
292.3573	0.1951
292.5699	0.2075
292.7825	0.2018
292.9951	0.1975
293.2077	0.1988
293.4203	0.1991
293.6328	0.1936
293.8454	0.2008
294.0579	0.2012
294.2704	0.2018
294.4829	0.199
294.6954	0.1985
294.9079	0.2013
295.1204	0.2012
295.3328	0.2005
295.5453	0.2003
295.7577	0.1897
295.9701	0.2046
296.1825	0.1992
296.3949	0.2057
296.6073	0.2003
296.8197	0.2024
297.0321	0.2
297.2444	0.2005
297.4567	0.2005
297.6691	0.1953
297.8814	0.2002
298.0937	0.1967
298.306	0.2021
298.5182	0.2064
298.7305	0.1974
298.9428	0.1954
299.155	0.1985
299.3672	0.2016
299.5794	0.1993
299.7916	0.1972
300.0038	0.1909
300.216	0.1989
300.4282	0.196
300.6403	0.1973
300.8525	0.1983
301.0646	0.1966
301.2767	0.1996
301.4888	0.2001
301.7009	0.1964
301.913	0.201
302.125	0.2013
302.3371	0.1942
302.5491	0.1967
302.7612	0.1944
302.9732	0.193
303.1852	0.199
303.3972	0.1951
303.6092	0.1914
303.8211	0.1888
304.0331	0.1923
304.245	0.1916
304.457	0.1963
304.6689	0.1948
304.8808	0.1898
305.0927	0.19
305.3046	0.1908
305.5164	0.1877
305.7283	0.1887
305.9401	0.1816
306.152	0.1758
306.3638	0.1797
306.5756	0.1784
306.7874	0.1778
306.9992	0.1772
307.2109	0.1724
307.4227	0.1786
307.6344	0.1781
307.8462	0.1739
308.0579	0.1674
308.2696	0.1662
308.4813	0.1617
308.693	0.154
308.9046	0.1658
309.1163	0.1643
309.328	0.1551
309.5396	0.1558
309.7512	0.1575
309.9628	0.1525
310.1744	0.1558
310.386	0.1473
310.5976	0.1443
310.8091	0.1463
311.0207	0.154
311.2322	0.1498
311.4437	0.1427
311.6552	0.1454
311.8667	0.1347
312.0782	0.1421
312.2897	0.1432
312.5012	0.1374
312.7126	0.1303
312.924	0.1375
313.1355	0.1317
313.3469	0.1279
313.5583	0.1251
313.7696	0.1309
313.981	0.1271
314.1924	0.1294
314.4037	0.1299
314.6151	0.1266
314.8264	0.1248
315.0377	0.1296
315.249	0.1247
315.4603	0.1216
315.6716	0.1238
315.8828	0.1232
316.0941	0.1233
316.3053	0.1211
316.5165	0.1205
316.7277	0.1238
316.9389	0.1256
317.1501	0.1281
317.3613	0.1175
317.5724	0.1163
317.7836	0.117
317.9947	0.1114
318.2058	0.1183
318.417	0.1187
318.6281	0.1142
318.8391	0.1179
319.0502	0.1189
319.2613	0.1158
319.4723	0.1196
319.6834	0.1202
319.8944	0.1165
320.1054	0.119
320.3164	0.1139
320.5274	0.1146
320.7383	0.1135
320.9493	0.1155
321.1602	0.1134
321.3712	0.1224
321.5821	0.1221
321.793	0.1171
322.0039	0.1212
322.2148	0.1204
322.4257	0.1202
322.6365	0.1159
322.8474	0.1134
323.0582	0.1193
323.269	0.1113
323.4798	0.1156
323.6906	0.1205
323.9014	0.114
324.1122	0.1182
324.3229	0.1166
324.5337	0.1234
324.7444	0.1167
324.9551	0.1186
325.1658	0.1186
325.3765	0.1174
325.5872	0.1167
325.7979	0.1182
326.0085	0.1178
326.2192	0.118
326.4298	0.1217
326.6404	0.1173
326.851	0.118
327.0616	0.1203
327.2722	0.1257
327.4828	0.1253
327.6933	0.1187
327.9039	0.1233
328.1144	0.1192
328.3249	0.1287
328.5354	0.1166
328.7459	0.1268
328.9564	0.1221
329.1669	0.1219
329.3773	0.1234
329.5878	0.1253
329.7982	0.1244
330.0086	0.1253
330.219	0.1212
330.4294	0.1327
330.6398	0.1239
330.8502	0.1227
331.0605	0.1158
331.2708	0.1238
331.4812	0.1252
331.6915	0.121
331.9018	0.1193
332.1121	0.1251
332.3224	0.1288
332.5326	0.1271
332.7429	0.1236
332.9531	0.1311
333.1633	0.1253
333.3735	0.1234
333.5837	0.1286
333.7939	0.1236
334.0041	0.1262
334.2143	0.1278
334.4244	0.1251
334.6346	0.1173
334.8447	0.1287
335.0548	0.1239
335.2649	0.1339
335.475	0.1266
335.685	0.1259
335.8951	0.1317
336.1051	0.1297
336.3152	0.1321
336.5252	0.131
336.7352	0.121
336.9452	0.1287
337.1552	0.1337
337.3652	0.1278
337.5751	0.1267
337.7851	0.1251
337.995	0.1312
338.2049	0.138
338.4148	0.1236
338.6247	0.1346
338.8346	0.1303
339.0445	0.1347
339.2543	0.1356
339.4642	0.1345
339.674	0.1317
339.8838	0.1292
340.0936	0.1314
340.3034	0.1352
340.5132	0.1358
340.7229	0.1348
340.9327	0.1433
341.1424	0.1365
341.3522	0.1354
341.5619	0.1369
341.7716	0.1358
341.9813	0.1436
342.1909	0.1433
342.4006	0.1359
342.6102	0.1423
342.8199	0.1404
343.0295	0.1449
343.2391	0.1422
343.4487	0.1471
343.6583	0.1446
343.8679	0.1396
344.0774	0.1415
344.287	0.1466
344.4965	0.1468
344.706	0.1473
344.9155	0.1436
345.125	0.1463
345.3345	0.1415
345.544	0.1533
345.7534	0.1466
345.9629	0.1475
346.1723	0.1503
346.3817	0.1493
346.5911	0.1546
346.8005	0.1492
347.0099	0.1563
347.2193	0.143
347.4286	0.1527
347.638	0.1573
347.8473	0.1627
348.0566	0.1576
348.2659	0.1576
348.4752	0.1559
348.6845	0.1606
348.8937	0.1574
349.103	0.1522
349.3122	0.1624
349.5214	0.1568
349.7306	0.1578
349.9398	0.1609
350.149	0.1689
350.3582	0.151
350.5674	0.1684
350.7765	0.1695
350.9856	0.1626
351.1948	0.1625
351.4039	0.1661
351.613	0.17
351.822	0.1688
352.0311	0.1665
352.2402	0.1746
352.4492	0.168
352.6582	0.1725
352.8672	0.1721
353.0762	0.1763
353.2852	0.1757
353.4942	0.1695
353.7032	0.176
353.9121	0.1775
354.1211	0.1679
354.33	0.1807
354.5389	0.1856
354.7478	0.1778
354.9567	0.1836
355.1655	0.1786
355.3744	0.1787
355.5833	0.1822
355.7921	0.1801
356.0009	0.1801
356.2097	0.1905
356.4185	0.1855
356.6273	0.1818
356.8361	0.1955
357.0448	0.1932
357.2536	0.1877
357.4623	0.1884
357.671	0.1879
357.8797	0.1914
358.0884	0.1882
358.2971	0.1952
358.5057	0.1898
358.7144	0.1988
358.923	0.188
359.1316	0.1945
359.3402	0.2014
359.5488	0.1977
359.7574	0.1996
359.966	0.2071
360.1746	0.1992
360.3831	0.2121
360.5916	0.2029
360.8002	0.2114
361.0087	0.2067
361.2172	0.2147
361.4256	0.2024
361.6341	0.2107
361.8426	0.2065
362.051	0.2094
362.2594	0.2148
362.4678	0.219
362.6762	0.2212
362.8846	0.222
363.093	0.2215
363.3014	0.2242
363.5097	0.2143
363.718	0.2309
363.9264	0.2229
364.1347	0.224
364.343	0.2254
364.5513	0.2343
364.7595	0.2306
364.9678	0.2326
365.176	0.2232
365.3842	0.2333
365.5925	0.2363
365.8007	0.23
366.0089	0.2325
366.217	0.2398
366.4252	0.2327
366.6333	0.2318
366.8415	0.2443
367.0496	0.2357
367.2577	0.2501
367.4658	0.2442
367.6739	0.2379
367.882	0.2448
368.09	0.2485
368.2981	0.2408
368.5061	0.245
368.7141	0.2465
368.9221	0.2523
369.1301	0.2469
369.3381	0.2557
369.5461	0.2519
369.754	0.2569
369.962	0.2557
370.1699	0.2592
370.3778	0.2536
370.5857	0.2571
370.7936	0.2602
371.0015	0.2572
371.2093	0.261
371.4172	0.2578
371.625	0.2616
371.8328	0.2651
372.0406	0.2634
372.2484	0.2673
372.4562	0.2613
372.664	0.267
372.8717	0.2726
373.0795	0.2714
373.2872	0.2679
373.4949	0.2808
373.7026	0.2803
373.9103	0.2654
374.118	0.2716
374.3256	0.2723
374.5333	0.277
374.7409	0.2658
374.9485	0.273
375.1561	0.2831
375.3637	0.274
375.5713	0.2792
375.7789	0.2777
375.9864	0.2867
376.194	0.2845
376.4015	0.2827
376.609	0.2883
376.8165	0.2875
377.024	0.2861
377.2315	0.2922
377.4389	0.2753
377.6464	0.2802
377.8538	0.2933
378.0612	0.2846
378.2686	0.2867
378.476	0.2852
378.6834	0.2885
378.8908	0.2915
379.0981	0.2914
379.3055	0.3045
379.5128	0.2937
379.7201	0.2892
379.9274	0.2881
380.1347	0.2988
380.342	0.3007
380.5492	0.2947
380.7565	0.2989
380.9637	0.2981
381.1709	0.3041
381.3781	0.3093
381.5853	0.3001
381.7925	0.3012
381.9997	0.3093
382.2068	0.297
382.4139	0.3072
382.6211	0.3145
382.8282	0.3129
383.0353	0.3072
383.2424	0.3118
383.4494	0.3128
383.6565	0.3168
383.8635	0.3159
384.0706	0.3063
384.2776	0.3107
384.4846	0.3188
384.6916	0.3124
384.8986	0.3183
385.1055	0.3146
385.3125	0.3101
385.5194	0.3164
385.7263	0.3083
385.9333	0.3091
386.1402	0.3187
386.347	0.3134
386.5539	0.3197
386.7608	0.3123
386.9676	0.3161
387.1744	0.3122
387.3813	0.3093
387.5881	0.3118
387.7948	0.3101
388.0016	0.3147
388.2084	0.3111
388.4151	0.314
388.6219	0.3092
388.8286	0.3149
389.0353	0.3042
389.242	0.3042
389.4487	0.3122
389.6553	0.3095
389.862	0.3083
390.0686	0.3093
390.2753	0.2977
390.4819	0.3042
390.6885	0.2914
390.8951	0.3085
391.1016	0.3066
391.3082	0.3009
391.5147	0.3012
391.7213	0.306
391.9278	0.3029
392.1343	0.3005
392.3408	0.2942
392.5473	0.2899
392.7537	0.3013
392.9602	0.2878
393.1666	0.2856
393.373	0.2909
393.5794	0.2865
393.7858	0.2902
393.9922	0.2942
394.1986	0.2805
394.4049	0.2776
394.6113	0.2864
394.8176	0.2748
395.0239	0.284
395.2302	0.2721
395.4365	0.278
395.6428	0.2771
395.8491	0.2709
396.0553	0.2678
396.2615	0.273
396.4678	0.2738
396.674	0.2642
396.8802	0.2663
397.0863	0.2707
397.2925	0.2656
397.4987	0.2668
397.7048	0.2782
397.9109	0.2756
398.117	0.2686
398.3231	0.2737
398.5292	0.2693
398.7353	0.2683
398.9413	0.2743
399.1474	0.2639
399.3534	0.2741
399.5594	0.2695
399.7654	0.2637
399.9714	0.2653
400.1774	0.2627
400.3833	0.2782
400.5893	0.2683
400.7952	0.2742
401.0011	0.2603
401.207	0.2646
401.4129	0.27
401.6188	0.2705
401.8247	0.2717
402.0305	0.2564
402.2364	0.2691
402.4422	0.2636
402.648	0.273
402.8538	0.2787
403.0596	0.2651
403.2654	0.2584
403.4711	0.2658
403.6768	0.2623
403.8826	0.2651
404.0883	0.2665
404.294	0.2648
404.4997	0.2511
404.7054	0.2658
404.911	0.2625
405.1167	0.2691
405.3223	0.2785
405.5279	0.2611
405.7335	0.2642
405.9391	0.2636
406.1447	0.2673
406.3502	0.2621
406.5558	0.2742
406.7613	0.2689
406.9668	0.2713
407.1724	0.2818
407.3778	0.2637
407.5833	0.2755
407.7888	0.266
407.9942	0.2706
408.1997	0.2645
408.4051	0.2542
408.6105	0.2695
408.8159	0.2712
409.0213	0.2657
409.2267	0.274
409.432	0.2656
409.6374	0.2713
409.8427	0.2699
410.048	0.258
410.2533	0.2667
410.4586	0.2743
410.6639	0.2647
410.8691	0.2794
411.0744	0.2691
411.2796	0.2687
411.4848	0.2571
411.69	0.2734
411.8952	0.275
412.1004	0.2569
412.3056	0.2633
412.5107	0.2712
412.7158	0.2671
412.921	0.2663
413.1261	0.269
413.3312	0.2589
413.5362	0.2658
413.7413	0.2648
413.9464	0.2591
414.1514	0.2654
414.3564	0.2631
414.5614	0.2677
414.7664	0.2657
414.9714	0.2568
415.1764	0.2535
415.3813	0.2555
415.5863	0.262
415.7912	0.2635
415.9961	0.2597
416.201	0.2703
416.4059	0.2645
416.6108	0.2602
416.8156	0.2508
417.0205	0.2579
417.2253	0.2598
417.4301	0.2725
417.6349	0.2529
417.8397	0.2642
418.0445	0.2636
418.2492	0.2576
418.454	0.2546
418.6587	0.2579
418.8634	0.258
419.0681	0.2617
419.2728	0.2502
419.4775	0.257
419.6822	0.2522
419.8868	0.2573
420.0915	0.2572
420.2961	0.2417
420.5007	0.2482
420.7053	0.2569
420.9099	0.2414
421.1144	0.2402
421.319	0.246
421.5235	0.2437
421.728	0.2383
421.9325	0.2442
422.137	0.249
422.3415	0.2482
422.546	0.2427
422.7504	0.2419
422.9549	0.2344
423.1593	0.2314
423.3637	0.2293
423.5681	0.2401
423.7725	0.244
423.9769	0.2345
424.1812	0.2356
424.3856	0.2339
424.5899	0.2412
424.7942	0.2257
424.9985	0.2342
425.2028	0.2343
425.4071	0.2102
425.6113	0.2091
425.8156	0.2289
426.0198	0.2219
426.224	0.2324
426.4282	0.226
426.6324	0.2197
426.8366	0.2287
