Data from D4ACN5uM480nmA_Absorbance_12-08-00-850.txt Node
Date: Fri Feb 21 12:08:00 GMT 2025
User: LASERRRRR
Spectrometer: FLMT03099
Trigger mode: 0
Integration Time (sec): 1.500000E-2
Scans to average: 1
Electric dark correction enabled: true
Nonlinearity correction enabled: false
Boxcar width: 0
XAxis mode: Wavelengths
Number of Pixels in Spectrum: 3648
>>>>>Begin Spectral Data<<<<<
179.3399	1.0212
179.5586	1.0212
179.7771	1.0212
179.9957	0.3251
180.2143	0.3254
180.4329	-0
180.6514	-0
180.8699	-0.3821
181.0885	-0.2545
181.307	-0
181.5255	-0.0532
181.744	-0
181.9625	-0.0626
182.181	0.6198
182.3994	-0
182.6179	-0
182.8363	-0
183.0547	-0
183.2732	0.2311
183.4916	0.2829
183.71	0.1663
183.9284	0.2418
184.1467	0.1193
184.3651	0.1844
184.5835	0.0327
184.8018	0.1543
185.0201	0.4967
185.2385	0.1843
185.4568	0.3115
185.6751	0.2552
185.8934	0.2232
186.1117	0.5745
186.3299	0.2049
186.5482	0.2772
186.7664	0.3423
186.9847	0.3244
187.2029	0.2071
187.4211	0.1471
187.6393	0.0567
187.8575	0.0189
188.0757	0.2878
188.2939	-0.0009
188.512	0.1154
188.7302	0.5989
188.9483	-0.0108
189.1665	0.1855
189.3846	0.0395
189.6027	0.248
189.8208	0.3787
190.0389	0.3331
190.257	0.2551
190.475	0.209
190.6931	0.308
190.9111	0.4708
191.1292	0.366
191.3472	0.5086
191.5652	-0
191.7832	0.5948
192.0012	0.7831
192.2192	0.495
192.4371	0.2038
192.6551	0.4676
192.873	0.2433
193.091	0.3416
193.3089	0.2328
193.5268	0.3929
193.7447	0.4247
193.9626	0.4375
194.1805	0.5369
194.3984	0.7389
194.6162	0.4259
194.8341	0.6295
195.0519	0.6078
195.2697	0.5268
195.4875	0.5756
195.7054	0.4407
195.9231	0.4859
196.1409	0.6631
196.3587	0.5897
196.5765	0.4908
196.7942	0.6325
197.012	0.5816
197.2297	0.5524
197.4474	0.586
197.6651	0.596
197.8828	0.6995
198.1005	0.687
198.3182	0.6539
198.5358	0.6606
198.7535	0.5456
198.9711	0.6759
199.1888	0.668
199.4064	0.6119
199.624	0.6265
199.8416	0.6047
200.0592	0.6273
200.2767	0.5547
200.4943	0.6751
200.7119	0.6031
200.9294	0.5986
201.1469	0.6088
201.3645	0.6369
201.582	0.5941
201.7995	0.6282
202.017	0.6357
202.2344	0.5462
202.4519	0.5869
202.6694	0.5832
202.8868	0.6245
203.1042	0.566
203.3217	0.5352
203.5391	0.559
203.7565	0.4835
203.9739	0.5212
204.1913	0.5042
204.4086	0.517
204.626	0.5384
204.8433	0.4963
205.0607	0.5359
205.278	0.5184
205.4953	0.4922
205.7126	0.4459
205.9299	0.4747
206.1472	0.4758
206.3644	0.4742
206.5817	0.4771
206.7989	0.4761
207.0162	0.4676
207.2334	0.4404
207.4506	0.4543
207.6678	0.4524
207.885	0.4562
208.1022	0.4285
208.3194	0.4269
208.5365	0.4809
208.7537	0.4409
208.9708	0.4515
209.1879	0.4126
209.405	0.4167
209.6222	0.3947
209.8392	0.4136
210.0563	0.4154
210.2734	0.3897
210.4905	0.4001
210.7075	0.4434
210.9245	0.4167
211.1416	0.4194
211.3586	0.4196
211.5756	0.4289
211.7926	0.4025
212.0096	0.3868
212.2265	0.4175
212.4435	0.4156
212.6604	0.4
212.8774	0.4072
213.0943	0.3912
213.3112	0.4117
213.5281	0.4114
213.745	0.4289
213.9619	0.3848
214.1788	0.4129
214.3956	0.4101
214.6125	0.4075
214.8293	0.4078
215.0461	0.4044
215.2629	0.3785
215.4798	0.3917
215.6965	0.3944
215.9133	0.4241
216.1301	0.4155
216.3469	0.4085
216.5636	0.4008
216.7803	0.4166
216.9971	0.4331
217.2138	0.4011
217.4305	0.4357
217.6472	0.4151
217.8639	0.3908
218.0805	0.43
218.2972	0.4284
218.5138	0.4292
218.7305	0.4086
218.9471	0.4353
219.1637	0.4302
219.3803	0.4325
219.5969	0.4184
219.8135	0.4193
220.0301	0.4118
220.2466	0.4394
220.4632	0.4214
220.6797	0.4294
220.8962	0.4371
221.1127	0.4163
221.3292	0.4468
221.5457	0.4385
221.7622	0.4433
221.9787	0.4641
222.1951	0.4379
222.4116	0.448
222.628	0.4321
222.8444	0.4453
223.0608	0.4321
223.2772	0.4444
223.4936	0.4517
223.71	0.426
223.9264	0.4441
224.1427	0.4592
224.3591	0.4465
224.5754	0.4566
224.7917	0.4585
225.008	0.4359
225.2243	0.4647
225.4406	0.4574
225.6569	0.474
225.8732	0.4616
226.0894	0.4638
226.3057	0.4489
226.5219	0.4735
226.7381	0.469
226.9543	0.4741
227.1705	0.4702
227.3867	0.4925
227.6029	0.4671
227.8191	0.4712
228.0352	0.4935
228.2513	0.4751
228.4675	0.4962
228.6836	0.4969
228.8997	0.4807
229.1158	0.4961
229.3319	0.4881
229.548	0.4865
229.764	0.4909
229.9801	0.5094
230.1961	0.4909
230.4121	0.5162
230.6282	0.5147
230.8442	0.5256
231.0602	0.5049
231.2761	0.5256
231.4921	0.5171
231.7081	0.5045
231.924	0.5231
232.14	0.5049
232.3559	0.5357
232.5718	0.5418
232.7877	0.5203
233.0036	0.5256
233.2195	0.5253
233.4353	0.5313
233.6512	0.5298
233.867	0.5186
234.0829	0.5344
234.2987	0.5258
234.5145	0.5332
234.7303	0.548
234.9461	0.5364
235.1619	0.5323
235.3776	0.5306
235.5934	0.5378
235.8091	0.5345
236.0249	0.5315
236.2406	0.5435
236.4563	0.532
236.672	0.5277
236.8877	0.5384
237.1034	0.5328
237.319	0.5318
237.5347	0.5315
237.7503	0.5356
237.966	0.5494
238.1816	0.5345
238.3972	0.5401
238.6128	0.5521
238.8284	0.5357
239.0439	0.5365
239.2595	0.5194
239.475	0.5294
239.6906	0.5244
239.9061	0.5238
240.1216	0.5355
240.3371	0.5266
240.5526	0.5175
240.7681	0.5271
240.9836	0.5144
241.199	0.5068
241.4145	0.4868
241.6299	0.5038
241.8453	0.4809
242.0607	0.4908
242.2761	0.4685
242.4915	0.4846
242.7069	0.465
242.9223	0.4662
243.1376	0.4495
243.353	0.4446
243.5683	0.4351
243.7836	0.4205
243.9989	0.4229
244.2142	0.4177
244.4295	0.4118
244.6448	0.401
244.86	0.3873
245.0753	0.378
245.2905	0.3761
245.5057	0.3691
245.721	0.3612
245.9362	0.3487
246.1514	0.3401
246.3665	0.3444
246.5817	0.3323
246.7969	0.3303
247.012	0.3299
247.2271	0.3072
247.4423	0.31
247.6574	0.303
247.8725	0.306
248.0876	0.2949
248.3026	0.2886
248.5177	0.2859
248.7328	0.2736
248.9478	0.2728
249.1628	0.2562
249.3779	0.274
249.5929	0.2669
249.8079	0.258
250.0228	0.2513
250.2378	0.2509
250.4528	0.2459
250.6677	0.2429
250.8827	0.2375
251.0976	0.2453
251.3125	0.2323
251.5274	0.2326
251.7423	0.2295
251.9572	0.2247
252.172	0.2172
252.3869	0.2198
252.6017	0.2163
252.8166	0.2227
253.0314	0.2184
253.2462	0.213
253.461	0.2093
253.6758	0.2086
253.8906	0.2037
254.1053	0.2042
254.3201	0.2041
254.5348	0.1998
254.7496	0.2028
254.9643	0.2023
255.179	0.2055
255.3937	0.1939
255.6083	0.1955
255.823	0.1946
256.0377	0.1981
256.2523	0.1961
256.467	0.194
256.6816	0.1987
256.8962	0.1933
257.1108	0.1952
257.3254	0.1921
257.54	0.1893
257.7545	0.1856
257.9691	0.1915
258.1836	0.1959
258.3981	0.1898
258.6127	0.1855
258.8272	0.1834
259.0417	0.1776
259.2561	0.1845
259.4706	0.1915
259.6851	0.1879
259.8995	0.1824
260.114	0.185
260.3284	0.1851
260.5428	0.1772
260.7572	0.1886
260.9716	0.1855
261.186	0.1804
261.4003	0.1856
261.6147	0.1809
261.829	0.1846
262.0433	0.1839
262.2577	0.1891
262.472	0.1861
262.6863	0.1875
262.9005	0.185
263.1148	0.1767
263.3291	0.1921
263.5433	0.1856
263.7576	0.182
263.9718	0.1927
264.186	0.1839
264.4002	0.1838
264.6144	0.1898
264.8286	0.1844
265.0427	0.1927
265.2569	0.1928
265.471	0.188
265.6851	0.1873
265.8993	0.1895
266.1134	0.1866
266.3275	0.1887
266.5415	0.186
266.7556	0.1827
266.9697	0.1783
267.1837	0.1806
267.3978	0.1918
267.6118	0.1817
267.8258	0.1842
268.0398	0.1816
268.2538	0.1862
268.4677	0.1859
268.6817	0.1787
268.8957	0.1786
269.1096	0.1733
269.3235	0.1902
269.5374	0.1832
269.7514	0.1807
269.9652	0.1797
270.1791	0.1822
270.393	0.1841
270.6068	0.1739
270.8207	0.1749
271.0345	0.1723
271.2483	0.1795
271.4622	0.1764
271.676	0.1829
271.8897	0.17
272.1035	0.1741
272.3173	0.1694
272.531	0.1707
272.7448	0.1685
272.9585	0.1754
273.1722	0.1705
273.3859	0.1704
273.5996	0.1734
273.8133	0.1721
274.0269	0.174
274.2406	0.1698
274.4542	0.1654
274.6679	0.1653
274.8815	0.1709
275.0951	0.1738
275.3087	0.1774
275.5223	0.1693
275.7358	0.1737
275.9494	0.167
276.1629	0.1761
276.3765	0.173
276.59	0.1768
276.8035	0.1799
277.017	0.1755
277.2305	0.1789
277.444	0.1785
277.6574	0.1774
277.8709	0.1776
278.0843	0.1815
278.2978	0.1805
278.5112	0.1838
278.7246	0.176
278.938	0.1813
279.1513	0.1823
279.3647	0.1819
279.5781	0.1807
279.7914	0.1842
280.0047	0.1763
280.2181	0.1832
280.4314	0.1802
280.6447	0.1835
280.8579	0.1812
281.0712	0.1835
281.2845	0.1862
281.4977	0.1935
281.711	0.1838
281.9242	0.1818
282.1374	0.184
282.3506	0.1902
282.5638	0.181
282.7769	0.1816
282.9901	0.1775
283.2033	0.1848
283.4164	0.1858
283.6295	0.187
283.8426	0.1819
284.0557	0.1873
284.2688	0.1933
284.4819	0.1916
284.695	0.1888
284.908	0.1956
285.1211	0.1894
285.3341	0.1881
285.5471	0.202
285.7601	0.1927
285.9731	0.1915
286.1861	0.1932
286.3991	0.1944
286.612	0.1992
286.825	0.1911
287.0379	0.1998
287.2508	0.1987
287.4637	0.194
287.6766	0.1995
287.8895	0.1954
288.1024	0.1934
288.3152	0.1905
288.5281	0.2007
288.7409	0.1945
288.9538	0.1932
289.1666	0.1986
289.3794	0.1958
289.5922	0.1972
289.8049	0.2035
290.0177	0.2039
290.2304	0.2013
290.4432	0.1998
290.6559	0.1923
290.8686	0.2047
291.0813	0.2026
291.294	0.201
291.5067	0.2059
291.7194	0.1984
291.932	0.1985
292.1447	0.1995
292.3573	0.2006
292.5699	0.2007
292.7825	0.1984
292.9951	0.2068
293.2077	0.2002
293.4203	0.1996
293.6328	0.1965
293.8454	0.1983
294.0579	0.203
294.2704	0.2039
294.4829	0.2036
294.6954	0.1979
294.9079	0.2036
295.1204	0.2047
295.3328	0.2017
295.5453	0.1966
295.7577	0.1959
295.9701	0.2005
296.1825	0.1963
296.3949	0.2026
296.6073	0.1996
296.8197	0.2044
297.0321	0.203
297.2444	0.1986
297.4567	0.1991
297.6691	0.2029
297.8814	0.2015
298.0937	0.201
298.306	0.2018
298.5182	0.1981
298.7305	0.1915
298.9428	0.1996
299.155	0.1995
299.3672	0.1973
299.5794	0.1996
299.7916	0.1964
300.0038	0.2004
300.216	0.204
300.4282	0.1933
300.6403	0.1905
300.8525	0.1987
301.0646	0.1983
301.2767	0.1927
301.4888	0.2018
301.7009	0.1994
301.913	0.2
302.125	0.1988
302.3371	0.1956
302.5491	0.2017
302.7612	0.1961
302.9732	0.1918
303.1852	0.1942
303.3972	0.196
303.6092	0.1921
303.8211	0.193
304.0331	0.1886
304.245	0.1934
304.457	0.1997
304.6689	0.1951
304.8808	0.1949
305.0927	0.1884
305.3046	0.1856
305.5164	0.1876
305.7283	0.1886
305.9401	0.1815
306.152	0.18
306.3638	0.1754
306.5756	0.1827
306.7874	0.1813
306.9992	0.1796
307.2109	0.1741
307.4227	0.1723
307.6344	0.1755
307.8462	0.1683
308.0579	0.1724
308.2696	0.16
308.4813	0.1592
308.693	0.1653
308.9046	0.1611
309.1163	0.1626
309.328	0.1548
309.5396	0.1621
309.7512	0.1554
309.9628	0.1562
310.1744	0.1534
310.386	0.1439
310.5976	0.1478
310.8091	0.1471
311.0207	0.1417
311.2322	0.1494
311.4437	0.1459
311.6552	0.1474
311.8667	0.144
312.0782	0.1404
312.2897	0.14
312.5012	0.1369
312.7126	0.1282
312.924	0.1419
313.1355	0.1313
313.3469	0.1302
313.5583	0.1345
313.7696	0.1256
313.981	0.1294
314.1924	0.1248
314.4037	0.1196
314.6151	0.1305
314.8264	0.1261
315.0377	0.1287
315.249	0.1199
315.4603	0.1205
315.6716	0.1207
315.8828	0.1218
316.0941	0.1254
316.3053	0.1184
316.5165	0.1206
316.7277	0.1229
316.9389	0.1227
317.1501	0.1149
317.3613	0.1128
317.5724	0.1196
317.7836	0.1175
317.9947	0.1135
318.2058	0.114
318.417	0.1153
318.6281	0.119
318.8391	0.1146
319.0502	0.1117
319.2613	0.1185
319.4723	0.1131
319.6834	0.1177
319.8944	0.1189
320.1054	0.1167
320.3164	0.1129
320.5274	0.1132
320.7383	0.1166
320.9493	0.1133
321.1602	0.1133
321.3712	0.1177
321.5821	0.1184
321.793	0.118
322.0039	0.1213
322.2148	0.12
322.4257	0.1166
322.6365	0.1185
322.8474	0.1132
323.0582	0.1176
323.269	0.1124
323.4798	0.1147
323.6906	0.117
323.9014	0.1122
324.1122	0.115
324.3229	0.1217
324.5337	0.1196
324.7444	0.1197
324.9551	0.1154
325.1658	0.1162
325.3765	0.1171
325.5872	0.1122
325.7979	0.1179
326.0085	0.115
326.2192	0.1151
326.4298	0.1261
326.6404	0.12
326.851	0.1142
327.0616	0.1256
327.2722	0.1255
327.4828	0.1207
327.6933	0.1231
327.9039	0.1176
328.1144	0.118
328.3249	0.1246
328.5354	0.1191
328.7459	0.1235
328.9564	0.1298
329.1669	0.1193
329.3773	0.1209
329.5878	0.126
329.7982	0.1251
330.0086	0.1237
330.219	0.1199
330.4294	0.1298
330.6398	0.1252
330.8502	0.1248
331.0605	0.127
331.2708	0.119
331.4812	0.1242
331.6915	0.1224
331.9018	0.1208
332.1121	0.1283
332.3224	0.1294
332.5326	0.1282
332.7429	0.1201
332.9531	0.1272
333.1633	0.1241
333.3735	0.1196
333.5837	0.1306
333.7939	0.1259
334.0041	0.1269
334.2143	0.1229
334.4244	0.1206
334.6346	0.1247
334.8447	0.1262
335.0548	0.1256
335.2649	0.1296
335.475	0.125
335.685	0.1248
335.8951	0.1262
336.1051	0.1275
336.3152	0.126
336.5252	0.1337
336.7352	0.1209
336.9452	0.1296
337.1552	0.1336
337.3652	0.1306
337.5751	0.1286
337.7851	0.1204
337.995	0.1296
338.2049	0.1324
338.4148	0.1309
338.6247	0.13
338.8346	0.1243
339.0445	0.1348
339.2543	0.1303
339.4642	0.1338
339.674	0.1342
339.8838	0.1322
340.0936	0.1295
340.3034	0.1373
340.5132	0.1363
340.7229	0.1314
340.9327	0.1409
341.1424	0.1339
341.3522	0.1438
341.5619	0.141
341.7716	0.1411
341.9813	0.146
342.1909	0.1476
342.4006	0.1427
342.6102	0.1391
342.8199	0.139
343.0295	0.1442
343.2391	0.1431
343.4487	0.1425
343.6583	0.1431
343.8679	0.1405
344.0774	0.1427
344.287	0.1445
344.4965	0.1445
344.706	0.1474
344.9155	0.1443
345.125	0.1433
345.3345	0.1395
345.544	0.1538
345.7534	0.1525
345.9629	0.1523
346.1723	0.1512
346.3817	0.1498
346.5911	0.1487
346.8005	0.156
347.0099	0.1572
347.2193	0.1508
347.4286	0.1586
347.638	0.1542
347.8473	0.1624
348.0566	0.1546
348.2659	0.1521
348.4752	0.1581
348.6845	0.1609
348.8937	0.1629
349.103	0.1506
349.3122	0.1678
349.5214	0.155
349.7306	0.1557
349.9398	0.1613
350.149	0.1764
350.3582	0.1585
350.5674	0.1641
350.7765	0.1641
350.9856	0.166
351.1948	0.1652
351.4039	0.1633
351.613	0.1728
351.822	0.1643
352.0311	0.1678
352.2402	0.1726
352.4492	0.169
352.6582	0.1692
352.8672	0.17
353.0762	0.1724
353.2852	0.173
353.4942	0.1751
353.7032	0.1707
353.9121	0.1729
354.1211	0.1747
354.33	0.1795
354.5389	0.1769
354.7478	0.1774
354.9567	0.1752
355.1655	0.1807
355.3744	0.1801
355.5833	0.1778
355.7921	0.184
356.0009	0.1861
356.2097	0.1887
356.4185	0.187
356.6273	0.1882
356.8361	0.1974
357.0448	0.1883
357.2536	0.1891
357.4623	0.1882
357.671	0.1871
357.8797	0.1944
358.0884	0.1858
358.2971	0.192
358.5057	0.1879
358.7144	0.1947
358.923	0.1962
359.1316	0.1985
359.3402	0.2026
359.5488	0.198
359.7574	0.1982
359.966	0.2007
360.1746	0.1949
360.3831	0.1963
360.5916	0.195
360.8002	0.21
361.0087	0.2107
361.2172	0.2116
361.4256	0.2007
361.6341	0.2131
361.8426	0.2049
362.051	0.2073
362.2594	0.2196
362.4678	0.2192
362.6762	0.224
362.8846	0.2247
363.093	0.2093
363.3014	0.2247
363.5097	0.2201
363.718	0.2302
363.9264	0.2192
364.1347	0.2288
364.343	0.2244
364.5513	0.2256
364.7595	0.2337
364.9678	0.235
365.176	0.2293
365.3842	0.2327
365.5925	0.2351
365.8007	0.2355
366.0089	0.238
366.217	0.2347
366.4252	0.2367
366.6333	0.2357
366.8415	0.2352
367.0496	0.2438
367.2577	0.2438
367.4658	0.2489
367.6739	0.241
367.882	0.2549
368.09	0.2451
368.2981	0.241
368.5061	0.2507
368.7141	0.2516
368.9221	0.2448
369.1301	0.2552
369.3381	0.2576
369.5461	0.2583
369.754	0.2492
369.962	0.259
370.1699	0.2668
370.3778	0.2589
370.5857	0.2583
370.7936	0.2591
371.0015	0.2608
371.2093	0.2657
371.4172	0.2625
371.625	0.2598
371.8328	0.2765
372.0406	0.2574
372.2484	0.2564
372.4562	0.2629
372.664	0.266
372.8717	0.2722
373.0795	0.2666
373.2872	0.2685
373.4949	0.2794
373.7026	0.2745
373.9103	0.2648
374.118	0.2735
374.3256	0.2811
374.5333	0.2767
374.7409	0.2697
374.9485	0.2732
375.1561	0.2791
375.3637	0.2626
375.5713	0.2754
375.7789	0.2704
375.9864	0.2812
376.194	0.2866
376.4015	0.2842
376.609	0.2881
376.8165	0.279
377.024	0.288
377.2315	0.296
377.4389	0.2773
377.6464	0.2842
377.8538	0.2913
378.0612	0.29
378.2686	0.287
378.476	0.2886
378.6834	0.2902
378.8908	0.288
379.0981	0.2987
379.3055	0.2985
379.5128	0.2969
379.7201	0.2974
379.9274	0.2915
380.1347	0.2975
380.342	0.2998
380.5492	0.2929
380.7565	0.302
380.9637	0.2994
381.1709	0.3016
381.3781	0.3023
381.5853	0.301
381.7925	0.3038
381.9997	0.3072
382.2068	0.303
382.4139	0.3044
382.6211	0.3182
382.8282	0.3074
383.0353	0.3156
383.2424	0.3068
383.4494	0.3145
383.6565	0.3111
383.8635	0.32
384.0706	0.3117
384.2776	0.3227
384.4846	0.3144
384.6916	0.314
384.8986	0.3185
385.1055	0.3151
385.3125	0.318
385.5194	0.3156
385.7263	0.3045
385.9333	0.3137
386.1402	0.3248
386.347	0.3097
386.5539	0.3171
386.7608	0.3071
386.9676	0.3102
387.1744	0.3139
387.3813	0.318
387.5881	0.3065
387.7948	0.319
388.0016	0.3079
388.2084	0.3151
388.4151	0.3075
388.6219	0.3075
388.8286	0.3105
389.0353	0.3145
389.242	0.3133
389.4487	0.308
389.6553	0.3073
389.862	0.2991
390.0686	0.3167
390.2753	0.3087
390.4819	0.3068
390.6885	0.3059
390.8951	0.3136
391.1016	0.3087
391.3082	0.2909
391.5147	0.3037
391.7213	0.2971
391.9278	0.3052
392.1343	0.2983
392.3408	0.2858
392.5473	0.2903
392.7537	0.3021
392.9602	0.2921
393.1666	0.2875
393.373	0.285
393.5794	0.2865
393.7858	0.2892
393.9922	0.2799
394.1986	0.2795
394.4049	0.277
394.6113	0.2888
394.8176	0.2736
395.0239	0.2789
395.2302	0.2752
395.4365	0.2794
395.6428	0.2913
395.8491	0.2768
396.0553	0.2791
396.2615	0.2716
396.4678	0.2699
396.674	0.2651
396.8802	0.2708
397.0863	0.28
397.2925	0.2663
397.4987	0.2662
397.7048	0.2791
397.9109	0.2769
398.117	0.2673
398.3231	0.2738
398.5292	0.271
398.7353	0.2604
398.9413	0.2725
399.1474	0.2769
399.3534	0.2755
399.5594	0.2728
399.7654	0.2726
399.9714	0.2631
400.1774	0.2731
400.3833	0.2711
400.5893	0.2592
400.7952	0.2654
401.0011	0.2609
401.207	0.266
401.4129	0.2702
401.6188	0.2732
401.8247	0.2721
402.0305	0.2534
402.2364	0.2602
402.4422	0.2708
402.648	0.2702
402.8538	0.2741
403.0596	0.2586
403.2654	0.2689
403.4711	0.2673
403.6768	0.2658
403.8826	0.2692
404.0883	0.2512
404.294	0.2732
404.4997	0.2559
404.7054	0.2636
404.911	0.2632
405.1167	0.2719
405.3223	0.2699
405.5279	0.2685
405.7335	0.2569
405.9391	0.259
406.1447	0.2657
406.3502	0.2722
406.5558	0.2713
406.7613	0.2706
406.9668	0.2661
407.1724	0.2805
407.3778	0.2626
407.5833	0.2554
407.7888	0.2701
407.9942	0.2711
408.1997	0.2672
408.4051	0.2772
408.6105	0.2722
408.8159	0.2669
409.0213	0.2675
409.2267	0.2636
409.432	0.2638
409.6374	0.2691
409.8427	0.2632
410.048	0.2547
410.2533	0.2645
410.4586	0.2556
410.6639	0.269
410.8691	0.2721
411.0744	0.2661
411.2796	0.2708
411.4848	0.2703
411.69	0.2612
411.8952	0.262
412.1004	0.266
412.3056	0.261
412.5107	0.2714
412.7158	0.2749
412.921	0.2584
413.1261	0.2579
413.3312	0.2611
413.5362	0.2598
413.7413	0.2674
413.9464	0.2587
414.1514	0.2537
414.3564	0.2667
414.5614	0.2608
414.7664	0.2587
414.9714	0.2602
415.1764	0.2587
415.3813	0.2453
415.5863	0.2534
415.7912	0.2664
415.9961	0.2597
416.201	0.273
416.4059	0.2612
416.6108	0.2583
416.8156	0.2559
417.0205	0.2642
417.2253	0.2686
417.4301	0.2737
417.6349	0.2525
417.8397	0.2652
418.0445	0.2582
418.2492	0.2579
418.454	0.2568
418.6587	0.2614
418.8634	0.2516
419.0681	0.2392
419.2728	0.2414
419.4775	0.2546
419.6822	0.2405
419.8868	0.2632
420.0915	0.254
420.2961	0.2464
420.5007	0.2569
420.7053	0.2483
420.9099	0.244
421.1144	0.2392
421.319	0.2369
421.5235	0.2423
421.728	0.2468
421.9325	0.2549
422.137	0.2427
422.3415	0.2384
422.546	0.2403
422.7504	0.2356
422.9549	0.2463
423.1593	0.2429
423.3637	0.2451
423.5681	0.2401
423.7725	0.2416
423.9769	0.245
424.1812	0.2353
424.3856	0.2334
424.5899	0.2403
424.7942	0.2164
424.9985	0.2216
425.2028	0.2254
425.4071	0.2151
425.6113	0.2232
425.8156	0.2281
426.0198	0.2152
426.224	0.2341
426.4282	0.2172
426.6324	0.2258
426.8366	0.2251
427.0407	0.2171
427.2449	0.2196
