Data from D4ACN5uM480nmA_Absorbance_12-08-00-070.txt Node
Date: Fri Feb 21 12:08:00 GMT 2025
User: LASERRRRR
Spectrometer: FLMT03099
Trigger mode: 0
Integration Time (sec): 1.500000E-2
Scans to average: 1
Electric dark correction enabled: true
Nonlinearity correction enabled: false
Boxcar width: 0
XAxis mode: Wavelengths
Number of Pixels in Spectrum: 3648
>>>>>Begin Spectral Data<<<<<
179.3399	-0.0041
179.5586	-0.0041
179.7771	-0.0041
179.9957	0.683
180.2143	-0
180.4329	-0.0041
180.6514	0.0555
180.8699	-0.3227
181.0885	-0
181.307	-0.0839
181.5255	0.0929
181.744	-0.6469
181.9625	0.596
182.181	0.5171
182.3994	0.0669
182.6179	-0.8403
182.8363	0.1406
183.0547	-0
183.2732	0.3052
183.4916	0.2882
183.71	0.2761
183.9284	0.3423
184.1467	-0.065
184.3651	0.3831
184.5835	0.0327
184.8018	0.1589
185.0201	0.1041
185.2385	0.0373
185.4568	0.1152
185.6751	0.2993
185.8934	0.2344
186.1117	0.0883
186.3299	0.2
186.5482	0.153
186.7664	0.1629
186.9847	0.1775
187.2029	0.3777
187.4211	0.2086
187.6393	0.2963
187.8575	-0.0816
188.0757	1.023
188.2939	0.1235
188.512	0.379
188.7302	0.0785
188.9483	0.8537
189.1665	0.5189
189.3846	0.2304
189.6027	-0.0792
189.8208	0.2512
190.0389	0.3898
190.257	0.1619
190.475	0.2199
190.6931	0.0837
190.9111	0.4542
191.1292	0.387
191.3472	0.2899
191.5652	0.5622
191.7832	0.1579
192.0012	0.3682
192.2192	0.1111
192.4371	0.3758
192.6551	0.3146
192.873	0.4153
193.091	0.251
193.3089	0.2632
193.5268	0.3076
193.7447	0.3549
193.9626	0.3747
194.1805	0.3692
194.3984	0.3481
194.6162	0.5682
194.8341	0.6221
195.0519	0.4673
195.2697	0.5928
195.4875	0.5553
195.7054	0.6997
195.9231	0.3486
196.1409	0.4641
196.3587	0.509
196.5765	0.5418
196.7942	0.625
197.012	0.5415
197.2297	0.5252
197.4474	0.6848
197.6651	0.5746
197.8828	0.871
198.1005	0.6322
198.3182	0.5365
198.5358	0.6089
198.7535	0.5806
198.9711	0.627
199.1888	0.5983
199.4064	0.5171
199.624	0.5638
199.8416	0.5474
200.0592	0.5669
200.2767	0.5832
200.4943	0.5798
200.7119	0.6543
200.9294	0.6076
201.1469	0.6681
201.3645	0.6008
201.582	0.4902
201.7995	0.5927
202.017	0.54
202.2344	0.5573
202.4519	0.5682
202.6694	0.5518
202.8868	0.5505
203.1042	0.5286
203.3217	0.5073
203.5391	0.5188
203.7565	0.515
203.9739	0.5041
204.1913	0.5147
204.4086	0.522
204.626	0.5074
204.8433	0.4698
205.0607	0.4995
205.278	0.4975
205.4953	0.4672
205.7126	0.4959
205.9299	0.4638
206.1472	0.4796
206.3644	0.5001
206.5817	0.4424
206.7989	0.5003
207.0162	0.4397
207.2334	0.4404
207.4506	0.4209
207.6678	0.4231
207.885	0.4321
208.1022	0.4208
208.3194	0.4692
208.5365	0.4386
208.7537	0.4719
208.9708	0.4855
209.1879	0.411
209.405	0.4379
209.6222	0.4118
209.8392	0.4335
210.0563	0.4487
210.2734	0.3916
210.4905	0.4319
210.7075	0.4313
210.9245	0.4006
211.1416	0.4082
211.3586	0.4078
211.5756	0.4197
211.7926	0.405
212.0096	0.4043
212.2265	0.4291
212.4435	0.4278
212.6604	0.4287
212.8774	0.42
213.0943	0.4402
213.3112	0.4142
213.5281	0.4242
213.745	0.4066
213.9619	0.394
214.1788	0.4176
214.3956	0.4064
214.6125	0.3982
214.8293	0.422
215.0461	0.4195
215.2629	0.4083
215.4798	0.3942
215.6965	0.3817
215.9133	0.4321
216.1301	0.4054
216.3469	0.3804
216.5636	0.4158
216.7803	0.3792
216.9971	0.4067
217.2138	0.4072
217.4305	0.4093
217.6472	0.4163
217.8639	0.3967
218.0805	0.4116
218.2972	0.4168
218.5138	0.4239
218.7305	0.4072
218.9471	0.4061
219.1637	0.4109
219.3803	0.4273
219.5969	0.4315
219.8135	0.4234
220.0301	0.4337
220.2466	0.4284
220.4632	0.435
220.6797	0.4204
220.8962	0.441
221.1127	0.4068
221.3292	0.4556
221.5457	0.4204
221.7622	0.4423
221.9787	0.4388
222.1951	0.4314
222.4116	0.4497
222.628	0.4461
222.8444	0.4399
223.0608	0.4289
223.2772	0.4613
223.4936	0.4436
223.71	0.4495
223.9264	0.4445
224.1427	0.4628
224.3591	0.4721
224.5754	0.4549
224.7917	0.4606
225.008	0.4666
225.2243	0.4622
225.4406	0.4673
225.6569	0.4723
225.8732	0.4644
226.0894	0.482
226.3057	0.4514
226.5219	0.4628
226.7381	0.4651
226.9543	0.4747
227.1705	0.4728
227.3867	0.5078
227.6029	0.4828
227.8191	0.4893
228.0352	0.4955
228.2513	0.5024
228.4675	0.4933
228.6836	0.4978
228.8997	0.4855
229.1158	0.4822
229.3319	0.4984
229.548	0.5019
229.764	0.5039
229.9801	0.5034
230.1961	0.5075
230.4121	0.5047
230.6282	0.5055
230.8442	0.5098
231.0602	0.5306
231.2761	0.5141
231.4921	0.5242
231.7081	0.5173
231.924	0.5177
232.14	0.5157
232.3559	0.5304
232.5718	0.533
232.7877	0.5351
233.0036	0.5123
233.2195	0.5213
233.4353	0.5426
233.6512	0.5437
233.867	0.5283
234.0829	0.5322
234.2987	0.5306
234.5145	0.5384
234.7303	0.5331
234.9461	0.5312
235.1619	0.5308
235.3776	0.5347
235.5934	0.5313
235.8091	0.5209
236.0249	0.5352
236.2406	0.5239
236.4563	0.5429
236.672	0.5359
236.8877	0.5419
237.1034	0.5303
237.319	0.5391
237.5347	0.5262
237.7503	0.538
237.966	0.54
238.1816	0.539
238.3972	0.5381
238.6128	0.5475
238.8284	0.5419
239.0439	0.5295
239.2595	0.5279
239.475	0.5245
239.6906	0.5292
239.9061	0.5225
240.1216	0.5373
240.3371	0.5254
240.5526	0.5136
240.7681	0.5233
240.9836	0.5185
241.199	0.5119
241.4145	0.4952
241.6299	0.5092
241.8453	0.5027
242.0607	0.4829
242.2761	0.4838
242.4915	0.4701
242.7069	0.4662
242.9223	0.4539
243.1376	0.4429
243.353	0.4507
243.5683	0.4344
243.7836	0.4198
243.9989	0.4216
244.2142	0.4116
244.4295	0.4077
244.6448	0.4025
244.86	0.391
245.0753	0.376
245.2905	0.3746
245.5057	0.3684
245.721	0.3525
245.9362	0.3499
246.1514	0.3429
246.3665	0.3379
246.5817	0.3346
246.7969	0.3143
247.012	0.3323
247.2271	0.3073
247.4423	0.3063
247.6574	0.3101
247.8725	0.3066
248.0876	0.2941
248.3026	0.2916
248.5177	0.2726
248.7328	0.2841
248.9478	0.2696
249.1628	0.2613
249.3779	0.2656
249.5929	0.2654
249.8079	0.2579
250.0228	0.2488
250.2378	0.2481
250.4528	0.2495
250.6677	0.2429
250.8827	0.2417
251.0976	0.2415
251.3125	0.2396
251.5274	0.2315
251.7423	0.2266
251.9572	0.2242
252.172	0.2169
252.3869	0.2195
252.6017	0.2216
252.8166	0.2164
253.0314	0.2211
253.2462	0.2183
253.461	0.2108
253.6758	0.213
253.8906	0.2021
254.1053	0.2066
254.3201	0.2017
254.5348	0.2077
254.7496	0.2033
254.9643	0.2071
255.179	0.2055
255.3937	0.2006
255.6083	0.2007
255.823	0.2028
256.0377	0.2007
256.2523	0.1984
256.467	0.1958
256.6816	0.2051
256.8962	0.198
257.1108	0.1947
257.3254	0.1934
257.54	0.1893
257.7545	0.1931
257.9691	0.1934
258.1836	0.195
258.3981	0.1908
258.6127	0.1856
258.8272	0.1897
259.0417	0.1833
259.2561	0.187
259.4706	0.1897
259.6851	0.1865
259.8995	0.1794
260.114	0.1857
260.3284	0.1812
260.5428	0.18
260.7572	0.1869
260.9716	0.1814
261.186	0.1826
261.4003	0.182
261.6147	0.1835
261.829	0.1795
262.0433	0.1839
262.2577	0.1859
262.472	0.184
262.6863	0.187
262.9005	0.1891
263.1148	0.1783
263.3291	0.179
263.5433	0.1891
263.7576	0.1753
263.9718	0.1884
264.186	0.1901
264.4002	0.1821
264.6144	0.1885
264.8286	0.197
265.0427	0.1863
265.2569	0.1893
265.471	0.185
265.6851	0.1851
265.8993	0.183
266.1134	0.1867
266.3275	0.1833
266.5415	0.1845
266.7556	0.1801
266.9697	0.1806
267.1837	0.1845
267.3978	0.1899
267.6118	0.1929
267.8258	0.1868
268.0398	0.1798
268.2538	0.1854
268.4677	0.1837
268.6817	0.1768
268.8957	0.1782
269.1096	0.1762
269.3235	0.1865
269.5374	0.1831
269.7514	0.1828
269.9652	0.1846
270.1791	0.1762
270.393	0.1823
270.6068	0.1711
270.8207	0.1795
271.0345	0.1702
271.2483	0.1837
271.4622	0.1768
271.676	0.1732
271.8897	0.1712
272.1035	0.1756
272.3173	0.1708
272.531	0.1723
272.7448	0.1642
272.9585	0.1751
273.1722	0.1725
273.3859	0.1688
273.5996	0.1699
273.8133	0.1736
274.0269	0.1787
274.2406	0.1701
274.4542	0.1706
274.6679	0.1711
274.8815	0.1658
275.0951	0.1748
275.3087	0.1781
275.5223	0.1726
275.7358	0.1798
275.9494	0.1686
276.1629	0.1665
276.3765	0.1721
276.59	0.1803
276.8035	0.1786
277.017	0.1754
277.2305	0.1693
277.444	0.1747
277.6574	0.1781
277.8709	0.1767
278.0843	0.1782
278.2978	0.1805
278.5112	0.1778
278.7246	0.1736
278.938	0.1776
279.1513	0.1798
279.3647	0.1767
279.5781	0.1777
279.7914	0.1823
280.0047	0.1755
280.2181	0.1835
280.4314	0.1852
280.6447	0.1817
280.8579	0.1862
281.0712	0.184
281.2845	0.1831
281.4977	0.1844
281.711	0.1803
281.9242	0.188
282.1374	0.1802
282.3506	0.1846
282.5638	0.1836
282.7769	0.182
282.9901	0.1825
283.2033	0.1919
283.4164	0.185
283.6295	0.1835
283.8426	0.1839
284.0557	0.1814
284.2688	0.1892
284.4819	0.1928
284.695	0.1909
284.908	0.1925
285.1211	0.1871
285.3341	0.2001
285.5471	0.1961
285.7601	0.1929
285.9731	0.1922
286.1861	0.1888
286.3991	0.1985
286.612	0.1954
286.825	0.1897
287.0379	0.1991
287.2508	0.1955
287.4637	0.1944
287.6766	0.1927
287.8895	0.1962
288.1024	0.1971
288.3152	0.2014
288.5281	0.1998
288.7409	0.1994
288.9538	0.1959
289.1666	0.1991
289.3794	0.2006
289.5922	0.1952
289.8049	0.2046
290.0177	0.1999
290.2304	0.2045
290.4432	0.2018
290.6559	0.1947
290.8686	0.2008
291.0813	0.2004
291.294	0.2002
291.5067	0.2011
291.7194	0.2031
291.932	0.2026
292.1447	0.2019
292.3573	0.2055
292.5699	0.2
292.7825	0.199
292.9951	0.2012
293.2077	0.2013
293.4203	0.2029
293.6328	0.1998
293.8454	0.204
294.0579	0.2071
294.2704	0.1993
294.4829	0.1974
294.6954	0.1993
294.9079	0.1992
295.1204	0.195
295.3328	0.2004
295.5453	0.1992
295.7577	0.1985
295.9701	0.1984
296.1825	0.1981
296.3949	0.2083
296.6073	0.1996
296.8197	0.2057
297.0321	0.2
297.2444	0.2015
297.4567	0.1985
297.6691	0.1993
297.8814	0.1975
298.0937	0.2011
298.306	0.1973
298.5182	0.1975
298.7305	0.2009
298.9428	0.1998
299.155	0.1968
299.3672	0.2051
299.5794	0.1973
299.7916	0.1998
300.0038	0.1979
300.216	0.1993
300.4282	0.1946
300.6403	0.1966
300.8525	0.2047
301.0646	0.196
301.2767	0.1945
301.4888	0.196
301.7009	0.1977
301.913	0.2009
302.125	0.1943
302.3371	0.1982
302.5491	0.1983
302.7612	0.1994
302.9732	0.1971
303.1852	0.2011
303.3972	0.1948
303.6092	0.1948
303.8211	0.1913
304.0331	0.1933
304.245	0.1964
304.457	0.1963
304.6689	0.1955
304.8808	0.1905
305.0927	0.1954
305.3046	0.1836
305.5164	0.1864
305.7283	0.1889
305.9401	0.1848
306.152	0.1783
306.3638	0.1799
306.5756	0.1855
306.7874	0.1782
306.9992	0.1811
307.2109	0.1749
307.4227	0.1763
307.6344	0.1756
307.8462	0.1728
308.0579	0.1688
308.2696	0.1647
308.4813	0.1655
308.693	0.1639
308.9046	0.1624
309.1163	0.1603
309.328	0.1523
309.5396	0.1572
309.7512	0.1545
309.9628	0.1514
310.1744	0.1522
310.386	0.1459
310.5976	0.1439
310.8091	0.1521
311.0207	0.1482
311.2322	0.1523
311.4437	0.1404
311.6552	0.1427
311.8667	0.1361
312.0782	0.1428
312.2897	0.1382
312.5012	0.1369
312.7126	0.1327
312.924	0.1376
313.1355	0.1265
313.3469	0.1259
313.5583	0.127
313.7696	0.1245
313.981	0.1257
314.1924	0.1281
314.4037	0.1267
314.6151	0.1306
314.8264	0.1284
315.0377	0.1269
315.249	0.1224
315.4603	0.1235
315.6716	0.1203
315.8828	0.1225
316.0941	0.1202
316.3053	0.1188
316.5165	0.1193
316.7277	0.1249
316.9389	0.12
317.1501	0.119
317.3613	0.1158
317.5724	0.1208
317.7836	0.1206
317.9947	0.1154
318.2058	0.1193
318.417	0.1187
318.6281	0.113
318.8391	0.1195
319.0502	0.1188
319.2613	0.1144
319.4723	0.1177
319.6834	0.1191
319.8944	0.1248
320.1054	0.1184
320.3164	0.1172
320.5274	0.114
320.7383	0.1122
320.9493	0.1186
321.1602	0.1173
321.3712	0.1187
321.5821	0.1207
321.793	0.1141
322.0039	0.1175
322.2148	0.1162
322.4257	0.1192
322.6365	0.1139
322.8474	0.1136
323.0582	0.1185
323.269	0.114
323.4798	0.1204
323.6906	0.1174
323.9014	0.1159
324.1122	0.1132
324.3229	0.1239
324.5337	0.1198
324.7444	0.1115
324.9551	0.1158
325.1658	0.1166
325.3765	0.1203
325.5872	0.1196
325.7979	0.1179
326.0085	0.1199
326.2192	0.1182
326.4298	0.1163
326.6404	0.1162
326.851	0.1202
327.0616	0.119
327.2722	0.1273
327.4828	0.1181
327.6933	0.1202
327.9039	0.1226
328.1144	0.1186
328.3249	0.1256
328.5354	0.1221
328.7459	0.124
328.9564	0.1263
329.1669	0.1206
329.3773	0.1193
329.5878	0.1211
329.7982	0.1248
330.0086	0.1205
330.219	0.122
330.4294	0.1267
330.6398	0.1237
330.8502	0.1203
331.0605	0.1267
331.2708	0.1241
331.4812	0.1241
331.6915	0.1157
331.9018	0.1222
332.1121	0.1304
332.3224	0.1287
332.5326	0.1258
332.7429	0.1189
332.9531	0.1278
333.1633	0.1288
333.3735	0.1232
333.5837	0.1274
333.7939	0.1246
334.0041	0.1254
334.2143	0.1231
334.4244	0.1267
334.6346	0.121
334.8447	0.1249
335.0548	0.1276
335.2649	0.1267
335.475	0.1265
335.685	0.1226
335.8951	0.1325
336.1051	0.1322
336.3152	0.1271
336.5252	0.1265
336.7352	0.1247
336.9452	0.1281
337.1552	0.1286
337.3652	0.1262
337.5751	0.1217
337.7851	0.1256
337.995	0.13
338.2049	0.1361
338.4148	0.1294
338.6247	0.1237
338.8346	0.1314
339.0445	0.1304
339.2543	0.1353
339.4642	0.1363
339.674	0.1332
339.8838	0.1355
340.0936	0.1326
340.3034	0.1378
340.5132	0.1335
340.7229	0.1383
340.9327	0.1378
341.1424	0.1337
341.3522	0.1413
341.5619	0.1356
341.7716	0.1333
341.9813	0.138
342.1909	0.1466
342.4006	0.1429
342.6102	0.1434
342.8199	0.1341
343.0295	0.1382
343.2391	0.1359
343.4487	0.1436
343.6583	0.1455
343.8679	0.1417
344.0774	0.1438
344.287	0.1425
344.4965	0.1477
344.706	0.1453
344.9155	0.1449
345.125	0.1453
345.3345	0.145
345.544	0.1497
345.7534	0.1532
345.9629	0.1483
346.1723	0.1487
346.3817	0.1504
346.5911	0.1515
346.8005	0.1535
347.0099	0.1518
347.2193	0.1507
347.4286	0.1577
347.638	0.1524
347.8473	0.1503
348.0566	0.1586
348.2659	0.1481
348.4752	0.1589
348.6845	0.164
348.8937	0.156
349.103	0.153
349.3122	0.1642
349.5214	0.1635
349.7306	0.1611
349.9398	0.1646
350.149	0.1685
350.3582	0.1585
350.5674	0.1657
350.7765	0.1649
350.9856	0.1659
351.1948	0.1637
351.4039	0.1675
351.613	0.1712
351.822	0.1662
352.0311	0.1594
352.2402	0.1735
352.4492	0.1713
352.6582	0.1669
352.8672	0.1734
353.0762	0.1679
353.2852	0.1732
353.4942	0.1816
353.7032	0.1695
353.9121	0.1734
354.1211	0.1724
354.33	0.1882
354.5389	0.1781
354.7478	0.1761
354.9567	0.1814
355.1655	0.1713
355.3744	0.1823
355.5833	0.1825
355.7921	0.1828
356.0009	0.1844
356.2097	0.1845
356.4185	0.1906
356.6273	0.1808
356.8361	0.1917
357.0448	0.1889
357.2536	0.185
357.4623	0.1824
357.671	0.188
357.8797	0.1943
358.0884	0.1882
358.2971	0.1956
358.5057	0.1946
358.7144	0.193
358.923	0.2007
359.1316	0.1863
359.3402	0.2026
359.5488	0.1961
359.7574	0.1943
359.966	0.2025
360.1746	0.1975
360.3831	0.2079
360.5916	0.203
360.8002	0.2077
361.0087	0.2107
361.2172	0.2115
361.4256	0.1994
361.6341	0.2116
361.8426	0.2127
362.051	0.2156
362.2594	0.2213
362.4678	0.2147
362.6762	0.214
362.8846	0.2208
363.093	0.2228
363.3014	0.2222
363.5097	0.2151
363.718	0.2277
363.9264	0.2203
364.1347	0.2268
364.343	0.2336
364.5513	0.2304
364.7595	0.2384
364.9678	0.2268
365.176	0.2279
365.3842	0.224
365.5925	0.2296
365.8007	0.2375
366.0089	0.2343
366.217	0.2405
366.4252	0.2397
366.6333	0.2377
366.8415	0.2405
367.0496	0.2439
367.2577	0.242
367.4658	0.2517
367.6739	0.2333
367.882	0.2481
368.09	0.2502
368.2981	0.2359
368.5061	0.2501
368.7141	0.251
368.9221	0.2468
369.1301	0.2565
369.3381	0.2666
369.5461	0.2537
369.754	0.2508
369.962	0.258
370.1699	0.2628
370.3778	0.2589
370.5857	0.2621
370.7936	0.2577
371.0015	0.2548
371.2093	0.2592
371.4172	0.2609
371.625	0.2618
371.8328	0.2693
372.0406	0.2514
372.2484	0.2561
372.4562	0.2609
372.664	0.2679
372.8717	0.2651
373.0795	0.2644
373.2872	0.2701
373.4949	0.2781
373.7026	0.2815
373.9103	0.2682
374.118	0.2733
374.3256	0.2774
374.5333	0.2675
374.7409	0.2667
374.9485	0.2731
375.1561	0.2829
375.3637	0.2619
375.5713	0.2746
375.7789	0.2761
375.9864	0.2852
376.194	0.2819
376.4015	0.2824
376.609	0.2866
376.8165	0.2895
377.024	0.2882
377.2315	0.2929
377.4389	0.2735
377.6464	0.2856
377.8538	0.2836
378.0612	0.2828
378.2686	0.2937
378.476	0.2889
378.6834	0.2875
378.8908	0.2898
379.0981	0.3038
379.3055	0.301
379.5128	0.2948
379.7201	0.2955
379.9274	0.2936
380.1347	0.2911
380.342	0.3026
380.5492	0.2937
380.7565	0.303
380.9637	0.301
381.1709	0.2963
381.3781	0.3017
381.5853	0.3028
381.7925	0.3098
381.9997	0.3052
382.2068	0.3026
382.4139	0.3048
382.6211	0.3125
382.8282	0.3007
383.0353	0.3077
383.2424	0.3045
383.4494	0.3207
383.6565	0.3002
383.8635	0.3178
384.0706	0.3091
384.2776	0.3225
384.4846	0.3178
384.6916	0.3112
384.8986	0.3144
385.1055	0.321
385.3125	0.3169
385.5194	0.312
385.7263	0.3074
385.9333	0.3239
386.1402	0.3167
386.347	0.3079
386.5539	0.3146
386.7608	0.3192
386.9676	0.3098
387.1744	0.3149
387.3813	0.3158
387.5881	0.3175
387.7948	0.3147
388.0016	0.3236
388.2084	0.318
388.4151	0.312
388.6219	0.3072
388.8286	0.3146
389.0353	0.3104
389.242	0.3181
389.4487	0.3066
389.6553	0.3085
389.862	0.3127
390.0686	0.3063
390.2753	0.2976
390.4819	0.3144
390.6885	0.2966
390.8951	0.3131
391.1016	0.3069
391.3082	0.3009
391.5147	0.2985
391.7213	0.3067
391.9278	0.3021
392.1343	0.2996
392.3408	0.2876
392.5473	0.2926
392.7537	0.3022
392.9602	0.2903
393.1666	0.2972
393.373	0.3005
393.5794	0.2824
393.7858	0.2886
393.9922	0.285
394.1986	0.2793
394.4049	0.2841
394.6113	0.2865
394.8176	0.2736
395.0239	0.2872
395.2302	0.2666
395.4365	0.2832
395.6428	0.2769
395.8491	0.2731
396.0553	0.2768
396.2615	0.2724
396.4678	0.2707
396.674	0.2778
396.8802	0.2684
397.0863	0.266
397.2925	0.2742
397.4987	0.2729
397.7048	0.2753
397.9109	0.2786
398.117	0.2724
398.3231	0.2734
398.5292	0.2802
398.7353	0.2591
398.9413	0.2637
399.1474	0.2718
399.3534	0.2749
399.5594	0.2738
399.7654	0.2668
399.9714	0.2684
400.1774	0.2569
400.3833	0.2735
400.5893	0.2597
400.7952	0.2776
401.0011	0.267
401.207	0.2706
401.4129	0.2662
401.6188	0.27
401.8247	0.2695
402.0305	0.2607
402.2364	0.2747
402.4422	0.2685
402.648	0.2613
402.8538	0.2732
403.0596	0.2642
403.2654	0.2675
403.4711	0.2672
403.6768	0.2692
403.8826	0.2672
404.0883	0.2586
404.294	0.2762
404.4997	0.2657
404.7054	0.2634
404.911	0.2607
405.1167	0.2752
405.3223	0.278
405.5279	0.2693
405.7335	0.2577
405.9391	0.2686
406.1447	0.2663
406.3502	0.2652
406.5558	0.2729
406.7613	0.2592
406.9668	0.2642
407.1724	0.2645
407.3778	0.2647
407.5833	0.268
407.7888	0.2726
407.9942	0.261
408.1997	0.2753
408.4051	0.2793
408.6105	0.2692
408.8159	0.2704
409.0213	0.2742
409.2267	0.2656
409.432	0.2708
409.6374	0.2738
409.8427	0.267
410.048	0.2617
410.2533	0.2584
410.4586	0.2721
410.6639	0.259
410.8691	0.2758
411.0744	0.2628
411.2796	0.2736
411.4848	0.268
411.69	0.2647
411.8952	0.2657
412.1004	0.2755
412.3056	0.2679
412.5107	0.2685
412.7158	0.2657
412.921	0.2696
413.1261	0.2771
413.3312	0.2572
413.5362	0.2668
413.7413	0.2595
413.9464	0.2665
414.1514	0.2672
414.3564	0.2625
414.5614	0.2566
414.7664	0.266
414.9714	0.2652
415.1764	0.2618
415.3813	0.2501
415.5863	0.2577
415.7912	0.2596
415.9961	0.2579
416.201	0.2684
416.4059	0.2583
416.6108	0.2508
416.8156	0.246
417.0205	0.2634
417.2253	0.2575
417.4301	0.2674
417.6349	0.2626
417.8397	0.2714
418.0445	0.259
418.2492	0.2703
418.454	0.2582
418.6587	0.2575
418.8634	0.2527
419.0681	0.2582
419.2728	0.2458
419.4775	0.2534
419.6822	0.246
419.8868	0.2525
420.0915	0.2635
420.2961	0.2518
420.5007	0.255
420.7053	0.2598
420.9099	0.241
421.1144	0.2441
421.319	0.2412
421.5235	0.2483
421.728	0.2424
421.9325	0.2465
422.137	0.2405
422.3415	0.2277
422.546	0.2378
422.7504	0.2473
422.9549	0.2337
423.1593	0.2429
423.3637	0.2412
423.5681	0.2351
423.7725	0.2348
423.9769	0.2382
424.1812	0.233
424.3856	0.2366
424.5899	0.2357
424.7942	0.2227
424.9985	0.2269
425.2028	0.2224
425.4071	0.2198
425.6113	0.2309
425.8156	0.2245
426.0198	0.2301
426.224	0.2323
426.4282	0.232
426.6324	0.2169
