Data from D4ACN5uM480nmA_Absorbance_12-08-00-565.txt Node
Date: Fri Feb 21 12:08:00 GMT 2025
User: LASERRRRR
Spectrometer: FLMT03099
Trigger mode: 0
Integration Time (sec): 1.500000E-2
Scans to average: 1
Electric dark correction enabled: true
Nonlinearity correction enabled: false
Boxcar width: 0
XAxis mode: Wavelengths
Number of Pixels in Spectrum: 3648
>>>>>Begin Spectral Data<<<<<
179.3399	0.0256
179.5586	0.0256
179.7771	0.0256
179.9957	0.7485
180.2143	-0
180.4329	-0
180.6514	-0
180.8699	-0
181.0885	0.8166
181.307	-0.0659
181.5255	0.3808
181.744	-0
181.9625	0.7373
182.181	-0
182.3994	-0
182.6179	-0
182.8363	-0
183.0547	-0
183.2732	0.1072
183.4916	0.2415
183.71	0.2274
183.9284	0.2753
184.1467	-0.0329
184.3651	0.2182
184.5835	-0.0445
184.8018	0.1532
185.0201	0.0475
185.2385	0.1705
185.4568	0.09
185.6751	0.1955
185.8934	0.1603
186.1117	0.2752
186.3299	0.1524
186.5482	0.1519
186.7664	0.4189
186.9847	0.1682
187.2029	-0.0817
187.4211	0.1819
187.6393	0.2692
187.8575	0.0839
188.0757	0.1712
188.2939	0.1713
188.512	0.0833
188.7302	0.4521
188.9483	0.2122
189.1665	0.6934
189.3846	-0.1454
189.6027	0.0848
189.8208	0.3031
190.0389	0.2712
190.257	0.1484
190.475	0.259
190.6931	0.2537
190.9111	0.2393
191.1292	0.1475
191.3472	0.1344
191.5652	0.572
191.7832	0.3111
192.0012	0.2586
192.2192	0.3271
192.4371	0.1474
192.6551	0.1461
192.873	0.2876
193.091	0.3709
193.3089	0.1595
193.5268	0.319
193.7447	0.2907
193.9626	0.3157
194.1805	0.42
194.3984	0.3167
194.6162	0.3301
194.8341	0.4841
195.0519	0.4891
195.2697	0.5424
195.4875	0.6614
195.7054	0.5093
195.9231	0.4203
196.1409	0.5211
196.3587	0.4208
196.5765	0.4575
196.7942	0.5618
197.012	0.4805
197.2297	0.4323
197.4474	0.6007
197.6651	0.5318
197.8828	0.6561
198.1005	0.6895
198.3182	0.5241
198.5358	0.5502
198.7535	0.4973
198.9711	0.5717
199.1888	0.6205
199.4064	0.5129
199.624	0.5903
199.8416	0.5044
200.0592	0.5826
200.2767	0.6237
200.4943	0.7164
200.7119	0.5649
200.9294	0.5489
201.1469	0.5623
201.3645	0.5409
201.582	0.5318
201.7995	0.6349
202.017	0.5637
202.2344	0.5093
202.4519	0.4926
202.6694	0.6149
202.8868	0.5293
203.1042	0.5404
203.3217	0.5685
203.5391	0.5143
203.7565	0.5074
203.9739	0.4591
204.1913	0.5144
204.4086	0.4682
204.626	0.5119
204.8433	0.529
205.0607	0.4736
205.278	0.5449
205.4953	0.4638
205.7126	0.4673
205.9299	0.4212
206.1472	0.4629
206.3644	0.4999
206.5817	0.4603
206.7989	0.4495
207.0162	0.4237
207.2334	0.4238
207.4506	0.4039
207.6678	0.4342
207.885	0.4254
208.1022	0.4559
208.3194	0.4065
208.5365	0.4694
208.7537	0.4521
208.9708	0.4277
209.1879	0.424
209.405	0.3933
209.6222	0.4111
209.8392	0.4087
210.0563	0.4071
210.2734	0.3791
210.4905	0.4124
210.7075	0.4287
210.9245	0.3895
211.1416	0.3892
211.3586	0.4172
211.5756	0.411
211.7926	0.4049
212.0096	0.3854
212.2265	0.3938
212.4435	0.4112
212.6604	0.385
212.8774	0.3942
213.0943	0.3798
213.3112	0.4125
213.5281	0.4105
213.745	0.3948
213.9619	0.4029
214.1788	0.3825
214.3956	0.4141
214.6125	0.3967
214.8293	0.3857
215.0461	0.411
215.2629	0.3904
215.4798	0.37
215.6965	0.3943
215.9133	0.3991
216.1301	0.373
216.3469	0.4003
216.5636	0.4253
216.7803	0.3963
216.9971	0.4158
217.2138	0.4033
217.4305	0.395
217.6472	0.41
217.8639	0.4032
218.0805	0.4131
218.2972	0.4194
218.5138	0.4184
218.7305	0.4057
218.9471	0.4119
219.1637	0.4106
219.3803	0.4001
219.5969	0.4215
219.8135	0.4154
220.0301	0.4134
220.2466	0.4341
220.4632	0.4335
220.6797	0.4218
220.8962	0.4162
221.1127	0.4227
221.3292	0.4289
221.5457	0.4289
221.7622	0.4285
221.9787	0.4218
222.1951	0.4385
222.4116	0.4202
222.628	0.4363
222.8444	0.441
223.0608	0.4396
223.2772	0.4312
223.4936	0.4376
223.71	0.4455
223.9264	0.4534
224.1427	0.4352
224.3591	0.4622
224.5754	0.4622
224.7917	0.4471
225.008	0.4509
225.2243	0.454
225.4406	0.4604
225.6569	0.4639
225.8732	0.4577
226.0894	0.4523
226.3057	0.4571
226.5219	0.465
226.7381	0.4687
226.9543	0.4796
227.1705	0.4585
227.3867	0.489
227.6029	0.4701
227.8191	0.494
228.0352	0.4947
228.2513	0.4925
228.4675	0.485
228.6836	0.4903
228.8997	0.4921
229.1158	0.485
229.3319	0.4891
229.548	0.4804
229.764	0.5016
229.9801	0.5144
230.1961	0.4952
230.4121	0.5106
230.6282	0.4965
230.8442	0.5205
231.0602	0.5072
231.2761	0.5093
231.4921	0.5091
231.7081	0.5177
231.924	0.509
232.14	0.5186
232.3559	0.5277
232.5718	0.5278
232.7877	0.531
233.0036	0.5209
233.2195	0.5238
233.4353	0.5154
233.6512	0.5357
233.867	0.5294
234.0829	0.5307
234.2987	0.5199
234.5145	0.5355
234.7303	0.525
234.9461	0.5316
235.1619	0.5266
235.3776	0.5339
235.5934	0.5241
235.8091	0.5236
236.0249	0.5327
236.2406	0.5293
236.4563	0.5327
236.672	0.5272
236.8877	0.5367
237.1034	0.5292
237.319	0.5459
237.5347	0.522
237.7503	0.533
237.966	0.5249
238.1816	0.5331
238.3972	0.5409
238.6128	0.5377
238.8284	0.5477
239.0439	0.5289
239.2595	0.5295
239.475	0.5356
239.6906	0.5265
239.9061	0.5243
240.1216	0.5301
240.3371	0.5259
240.5526	0.5131
240.7681	0.5266
240.9836	0.5204
241.199	0.519
241.4145	0.4973
241.6299	0.4899
241.8453	0.4902
242.0607	0.4878
242.2761	0.4706
242.4915	0.469
242.7069	0.4734
242.9223	0.4637
243.1376	0.4448
243.353	0.4442
243.5683	0.4423
243.7836	0.4286
243.9989	0.4211
244.2142	0.4089
244.4295	0.4056
244.6448	0.3882
244.86	0.3942
245.0753	0.3836
245.2905	0.3764
245.5057	0.3696
245.721	0.3532
245.9362	0.3512
246.1514	0.3286
246.3665	0.339
246.5817	0.3357
246.7969	0.3235
247.012	0.3191
247.2271	0.3064
247.4423	0.3084
247.6574	0.3036
247.8725	0.3026
248.0876	0.2883
248.3026	0.2835
248.5177	0.2774
248.7328	0.2718
248.9478	0.2718
249.1628	0.2645
249.3779	0.2663
249.5929	0.2645
249.8079	0.2548
250.0228	0.2532
250.2378	0.2549
250.4528	0.253
250.6677	0.235
250.8827	0.2344
251.0976	0.2393
251.3125	0.2383
251.5274	0.223
251.7423	0.2281
251.9572	0.2173
252.172	0.2157
252.3869	0.2229
252.6017	0.2189
252.8166	0.2162
253.0314	0.2255
253.2462	0.212
253.461	0.2137
253.6758	0.2081
253.8906	0.2038
254.1053	0.2069
254.3201	0.1995
254.5348	0.2014
254.7496	0.2034
254.9643	0.2059
255.179	0.2009
255.3937	0.1913
255.6083	0.1951
255.823	0.1953
256.0377	0.1984
256.2523	0.1981
256.467	0.193
256.6816	0.2029
256.8962	0.1951
257.1108	0.1972
257.3254	0.1949
257.54	0.1925
257.7545	0.1955
257.9691	0.1852
258.1836	0.1935
258.3981	0.1801
258.6127	0.1835
258.8272	0.1871
259.0417	0.1883
259.2561	0.1859
259.4706	0.1889
259.6851	0.1828
259.8995	0.1807
260.114	0.1806
260.3284	0.1788
260.5428	0.183
260.7572	0.1904
260.9716	0.1845
261.186	0.1806
261.4003	0.1815
261.6147	0.1798
261.829	0.1802
262.0433	0.1836
262.2577	0.1872
262.472	0.1929
262.6863	0.1847
262.9005	0.1896
263.1148	0.1772
263.3291	0.1867
263.5433	0.1802
263.7576	0.1834
263.9718	0.1854
264.186	0.1884
264.4002	0.1806
264.6144	0.1861
264.8286	0.181
265.0427	0.1884
265.2569	0.1873
265.471	0.1851
265.6851	0.1843
265.8993	0.1807
266.1134	0.1839
266.3275	0.1846
266.5415	0.18
266.7556	0.1803
266.9697	0.1796
267.1837	0.182
267.3978	0.1941
267.6118	0.1848
267.8258	0.1813
268.0398	0.1816
268.2538	0.1814
268.4677	0.1784
268.6817	0.1735
268.8957	0.1785
269.1096	0.1748
269.3235	0.1872
269.5374	0.1863
269.7514	0.1874
269.9652	0.1784
270.1791	0.1823
270.393	0.178
270.6068	0.175
270.8207	0.1724
271.0345	0.1743
271.2483	0.1831
271.4622	0.179
271.676	0.1747
271.8897	0.1689
272.1035	0.1746
272.3173	0.1691
272.531	0.1733
272.7448	0.1703
272.9585	0.1744
273.1722	0.173
273.3859	0.1703
273.5996	0.1679
273.8133	0.1668
274.0269	0.176
274.2406	0.1741
274.4542	0.1671
274.6679	0.1678
274.8815	0.1687
275.0951	0.1751
275.3087	0.1752
275.5223	0.1686
275.7358	0.1753
275.9494	0.169
276.1629	0.1784
276.3765	0.1701
276.59	0.1716
276.8035	0.1781
277.017	0.1814
277.2305	0.1744
277.444	0.1735
277.6574	0.1763
277.8709	0.1774
278.0843	0.1763
278.2978	0.1813
278.5112	0.1772
278.7246	0.1797
278.938	0.1771
279.1513	0.178
279.3647	0.1806
279.5781	0.179
279.7914	0.1798
280.0047	0.1772
280.2181	0.1821
280.4314	0.1759
280.6447	0.1862
280.8579	0.1761
281.0712	0.1811
281.2845	0.1806
281.4977	0.1845
281.711	0.1746
281.9242	0.1886
282.1374	0.1833
282.3506	0.1848
282.5638	0.18
282.7769	0.1821
282.9901	0.1804
283.2033	0.1846
283.4164	0.1797
283.6295	0.1835
283.8426	0.1857
284.0557	0.1828
284.2688	0.1908
284.4819	0.1896
284.695	0.1909
284.908	0.192
285.1211	0.1896
285.3341	0.1922
285.5471	0.197
285.7601	0.1891
285.9731	0.1891
286.1861	0.1941
286.3991	0.1918
286.612	0.194
286.825	0.1894
287.0379	0.1943
287.2508	0.1912
287.4637	0.1966
287.6766	0.1957
287.8895	0.1865
288.1024	0.1928
288.3152	0.1965
288.5281	0.1965
288.7409	0.1975
288.9538	0.1923
289.1666	0.1995
289.3794	0.1992
289.5922	0.1975
289.8049	0.2015
290.0177	0.1981
290.2304	0.1948
290.4432	0.2014
290.6559	0.1911
290.8686	0.1993
291.0813	0.2039
291.294	0.2005
291.5067	0.1939
291.7194	0.1961
291.932	0.2052
292.1447	0.1965
292.3573	0.1987
292.5699	0.2018
292.7825	0.201
292.9951	0.2035
293.2077	0.204
293.4203	0.1974
293.6328	0.1969
293.8454	0.1968
294.0579	0.1982
294.2704	0.2049
294.4829	0.1986
294.6954	0.2031
294.9079	0.2032
295.1204	0.1989
295.3328	0.2003
295.5453	0.1997
295.7577	0.1979
295.9701	0.201
296.1825	0.1969
296.3949	0.2025
296.6073	0.196
296.8197	0.1976
297.0321	0.1962
297.2444	0.197
297.4567	0.1986
297.6691	0.1993
297.8814	0.2016
298.0937	0.1967
298.306	0.1972
298.5182	0.201
298.7305	0.1936
298.9428	0.1921
299.155	0.1994
299.3672	0.1962
299.5794	0.1897
299.7916	0.1972
300.0038	0.1948
300.216	0.1989
300.4282	0.1934
300.6403	0.196
300.8525	0.1979
301.0646	0.1956
301.2767	0.1924
301.4888	0.1912
301.7009	0.1964
301.913	0.1999
302.125	0.1992
302.3371	0.1967
302.5491	0.199
302.7612	0.1904
302.9732	0.1949
303.1852	0.1908
303.3972	0.1944
303.6092	0.1939
303.8211	0.182
304.0331	0.195
304.245	0.1955
304.457	0.1948
304.6689	0.1954
304.8808	0.1897
305.0927	0.1897
305.3046	0.1885
305.5164	0.1889
305.7283	0.1904
305.9401	0.1837
306.152	0.1804
306.3638	0.1826
306.5756	0.1832
306.7874	0.1838
306.9992	0.1781
307.2109	0.1717
307.4227	0.1698
307.6344	0.1756
307.8462	0.1723
308.0579	0.1653
308.2696	0.1647
308.4813	0.1662
308.693	0.1613
308.9046	0.1608
309.1163	0.1536
309.328	0.1599
309.5396	0.1571
309.7512	0.154
309.9628	0.1574
310.1744	0.1493
310.386	0.1486
310.5976	0.1434
310.8091	0.1451
311.0207	0.1457
311.2322	0.1439
311.4437	0.1455
311.6552	0.1438
311.8667	0.1411
312.0782	0.1426
312.2897	0.1361
312.5012	0.1392
312.7126	0.134
312.924	0.1358
313.1355	0.1287
313.3469	0.1262
313.5583	0.1291
313.7696	0.1269
313.981	0.1283
314.1924	0.1301
314.4037	0.1212
314.6151	0.1276
314.8264	0.1283
315.0377	0.1291
315.249	0.1223
315.4603	0.1219
315.6716	0.1272
315.8828	0.1238
316.0941	0.1231
316.3053	0.1184
316.5165	0.1174
316.7277	0.1219
316.9389	0.1186
317.1501	0.1205
317.3613	0.1177
317.5724	0.1212
317.7836	0.1196
317.9947	0.111
318.2058	0.1186
318.417	0.11
318.6281	0.1186
318.8391	0.1217
319.0502	0.1166
319.2613	0.1147
319.4723	0.1153
319.6834	0.1153
319.8944	0.1194
320.1054	0.1169
320.3164	0.1207
320.5274	0.1112
320.7383	0.114
320.9493	0.1148
321.1602	0.1088
321.3712	0.1202
321.5821	0.1176
321.793	0.113
322.0039	0.1144
322.2148	0.1193
322.4257	0.117
322.6365	0.1141
322.8474	0.1133
323.0582	0.1194
323.269	0.1149
323.4798	0.119
323.6906	0.1202
323.9014	0.1125
324.1122	0.1174
324.3229	0.1241
324.5337	0.1285
324.7444	0.1192
324.9551	0.1187
325.1658	0.1185
325.3765	0.1232
325.5872	0.1195
325.7979	0.1157
326.0085	0.1189
326.2192	0.1191
326.4298	0.121
326.6404	0.1162
326.851	0.115
327.0616	0.1181
327.2722	0.1255
327.4828	0.1137
327.6933	0.1206
327.9039	0.1179
328.1144	0.1197
328.3249	0.1249
328.5354	0.1163
328.7459	0.1197
328.9564	0.1233
329.1669	0.1186
329.3773	0.1208
329.5878	0.1218
329.7982	0.1187
330.0086	0.1161
330.219	0.1226
330.4294	0.1267
330.6398	0.1278
330.8502	0.1233
331.0605	0.1193
331.2708	0.123
331.4812	0.1217
331.6915	0.1194
331.9018	0.121
332.1121	0.1271
332.3224	0.1317
332.5326	0.1234
332.7429	0.1228
332.9531	0.1214
333.1633	0.1199
333.3735	0.1276
333.5837	0.128
333.7939	0.1294
334.0041	0.1297
334.2143	0.1207
334.4244	0.1199
334.6346	0.1177
334.8447	0.1248
335.0548	0.1307
335.2649	0.1282
335.475	0.1256
335.685	0.1254
335.8951	0.1283
336.1051	0.1279
336.3152	0.1289
336.5252	0.1284
336.7352	0.1239
336.9452	0.1307
337.1552	0.1245
337.3652	0.1326
337.5751	0.126
337.7851	0.1228
337.995	0.1286
338.2049	0.1252
338.4148	0.1273
338.6247	0.1255
338.8346	0.1279
339.0445	0.1332
339.2543	0.1373
339.4642	0.1311
339.674	0.1319
339.8838	0.1299
340.0936	0.1361
340.3034	0.1301
340.5132	0.1311
340.7229	0.1346
340.9327	0.1315
341.1424	0.1364
341.3522	0.1333
341.5619	0.1352
341.7716	0.1336
341.9813	0.1437
342.1909	0.1415
342.4006	0.1409
342.6102	0.1398
342.8199	0.1344
343.0295	0.1394
343.2391	0.1381
343.4487	0.1463
343.6583	0.1437
343.8679	0.1419
344.0774	0.1392
344.287	0.1461
344.4965	0.1491
344.706	0.1455
344.9155	0.1397
345.125	0.1496
345.3345	0.1482
345.544	0.1477
345.7534	0.1422
345.9629	0.1491
346.1723	0.1505
346.3817	0.1506
346.5911	0.1512
346.8005	0.1443
347.0099	0.1516
347.2193	0.1527
347.4286	0.1522
347.638	0.1569
347.8473	0.1552
348.0566	0.1611
348.2659	0.1537
348.4752	0.1536
348.6845	0.1621
348.8937	0.16
349.103	0.1535
349.3122	0.1619
349.5214	0.1632
349.7306	0.1581
349.9398	0.1592
350.149	0.165
350.3582	0.1545
350.5674	0.1655
350.7765	0.1646
350.9856	0.1591
351.1948	0.1588
351.4039	0.1667
351.613	0.1687
351.822	0.1655
352.0311	0.165
352.2402	0.1722
352.4492	0.1759
352.6582	0.172
352.8672	0.1757
353.0762	0.1715
353.2852	0.1668
353.4942	0.1745
353.7032	0.168
353.9121	0.1727
354.1211	0.1632
354.33	0.1781
354.5389	0.1803
354.7478	0.1757
354.9567	0.1765
355.1655	0.1773
355.3744	0.1789
355.5833	0.1811
355.7921	0.1771
356.0009	0.1815
356.2097	0.1899
356.4185	0.1956
356.6273	0.1812
356.8361	0.189
357.0448	0.1888
357.2536	0.1873
357.4623	0.1864
357.671	0.1845
357.8797	0.1926
358.0884	0.1857
358.2971	0.1921
358.5057	0.1929
358.7144	0.1975
358.923	0.191
359.1316	0.1934
359.3402	0.1965
359.5488	0.1977
359.7574	0.1906
359.966	0.2
360.1746	0.1982
360.3831	0.2061
360.5916	0.2065
360.8002	0.21
361.0087	0.2139
361.2172	0.2115
361.4256	0.1987
361.6341	0.2152
361.8426	0.2095
362.051	0.2114
362.2594	0.2099
362.4678	0.2161
362.6762	0.2135
362.8846	0.2147
363.093	0.2142
363.3014	0.2184
363.5097	0.2201
363.718	0.2223
363.9264	0.2218
364.1347	0.2242
364.343	0.23
364.5513	0.2287
364.7595	0.2273
364.9678	0.2332
365.176	0.23
365.3842	0.2311
365.5925	0.2288
365.8007	0.2337
366.0089	0.2278
366.217	0.2309
366.4252	0.2337
366.6333	0.2349
366.8415	0.2417
367.0496	0.2336
367.2577	0.242
367.4658	0.2463
367.6739	0.2494
367.882	0.2436
368.09	0.2364
368.2981	0.2407
368.5061	0.2481
368.7141	0.2521
368.9221	0.2436
369.1301	0.2516
369.3381	0.2501
369.5461	0.2515
369.754	0.2441
369.962	0.2542
370.1699	0.2627
370.3778	0.2551
370.5857	0.2603
370.7936	0.2592
371.0015	0.2534
371.2093	0.2595
371.4172	0.2638
371.625	0.2676
371.8328	0.2687
372.0406	0.2585
372.2484	0.2608
372.4562	0.2647
372.664	0.2699
372.8717	0.2567
373.0795	0.2626
373.2872	0.2688
373.4949	0.2705
373.7026	0.2819
373.9103	0.2645
374.118	0.2728
374.3256	0.2799
374.5333	0.2686
374.7409	0.2727
374.9485	0.2759
375.1561	0.2774
375.3637	0.2676
375.5713	0.2733
375.7789	0.275
375.9864	0.2789
376.194	0.2718
376.4015	0.2771
376.609	0.2834
376.8165	0.2929
377.024	0.288
377.2315	0.2874
377.4389	0.2742
377.6464	0.2878
377.8538	0.2882
378.0612	0.2849
378.2686	0.296
378.476	0.2904
378.6834	0.2932
378.8908	0.2861
379.0981	0.2964
379.3055	0.3075
379.5128	0.2988
379.7201	0.2972
379.9274	0.2894
380.1347	0.2956
380.342	0.2947
380.5492	0.2975
380.7565	0.2956
380.9637	0.2945
381.1709	0.2963
381.3781	0.2963
381.5853	0.3108
381.7925	0.3127
381.9997	0.3053
382.2068	0.2922
382.4139	0.3084
382.6211	0.3105
382.8282	0.3081
383.0353	0.3
383.2424	0.303
383.4494	0.3041
383.6565	0.3089
383.8635	0.3163
384.0706	0.3157
384.2776	0.3158
384.4846	0.3171
384.6916	0.3075
384.8986	0.319
385.1055	0.3128
385.3125	0.3127
385.5194	0.3016
385.7263	0.3087
385.9333	0.3108
386.1402	0.3184
386.347	0.3118
386.5539	0.319
386.7608	0.3121
386.9676	0.3084
387.1744	0.3151
387.3813	0.3022
387.5881	0.3129
387.7948	0.3096
388.0016	0.3016
388.2084	0.3103
388.4151	0.3108
388.6219	0.2965
388.8286	0.3075
389.0353	0.3089
389.242	0.303
389.4487	0.3034
389.6553	0.2976
389.862	0.3031
390.0686	0.3056
390.2753	0.2969
390.4819	0.3043
390.6885	0.3027
390.8951	0.3078
391.1016	0.3098
391.3082	0.301
391.5147	0.2988
391.7213	0.3021
391.9278	0.29
392.1343	0.293
392.3408	0.292
392.5473	0.2872
392.7537	0.2982
392.9602	0.2873
393.1666	0.2915
393.373	0.2887
393.5794	0.2807
393.7858	0.2927
393.9922	0.2896
394.1986	0.2856
394.4049	0.2853
394.6113	0.288
394.8176	0.2776
395.0239	0.2794
395.2302	0.2696
395.4365	0.2774
395.6428	0.2755
395.8491	0.2731
396.0553	0.2619
396.2615	0.2742
396.4678	0.2724
396.674	0.2735
396.8802	0.2656
397.0863	0.2736
397.2925	0.2648
397.4987	0.2682
397.7048	0.2705
397.9109	0.279
398.117	0.2712
398.3231	0.2709
398.5292	0.2695
398.7353	0.2603
398.9413	0.2672
399.1474	0.274
399.3534	0.2691
399.5594	0.272
399.7654	0.2708
399.9714	0.2647
400.1774	0.2676
400.3833	0.2785
400.5893	0.2638
400.7952	0.2626
401.0011	0.258
401.207	0.2547
401.4129	0.2683
401.6188	0.2666
401.8247	0.2683
402.0305	0.2662
402.2364	0.2697
402.4422	0.2677
402.648	0.2696
402.8538	0.27
403.0596	0.258
403.2654	0.2545
403.4711	0.2623
403.6768	0.2753
403.8826	0.2783
404.0883	0.2631
404.294	0.2599
404.4997	0.2548
404.7054	0.2664
404.911	0.2663
405.1167	0.2764
405.3223	0.2743
405.5279	0.2618
405.7335	0.2617
405.9391	0.2568
406.1447	0.2767
406.3502	0.2715
406.5558	0.2697
406.7613	0.2599
406.9668	0.2757
407.1724	0.2633
407.3778	0.2633
407.5833	0.2644
407.7888	0.272
407.9942	0.2645
408.1997	0.2584
408.4051	0.258
408.6105	0.2718
408.8159	0.2677
409.0213	0.2675
409.2267	0.2601
409.432	0.2692
409.6374	0.2661
409.8427	0.2707
410.048	0.2653
410.2533	0.2619
410.4586	0.2568
410.6639	0.2658
410.8691	0.2741
411.0744	0.2596
411.2796	0.271
411.4848	0.2605
411.69	0.2645
411.8952	0.2631
412.1004	0.2636
412.3056	0.258
412.5107	0.2677
412.7158	0.2715
412.921	0.2616
413.1261	0.2754
413.3312	0.2529
413.5362	0.2634
413.7413	0.2639
413.9464	0.2555
414.1514	0.2628
414.3564	0.2545
414.5614	0.2543
414.7664	0.2612
414.9714	0.2635
415.1764	0.2544
415.3813	0.2426
415.5863	0.2595
415.7912	0.2557
415.9961	0.2566
416.201	0.2598
416.4059	0.2514
416.6108	0.2577
416.8156	0.2489
417.0205	0.2629
417.2253	0.2631
417.4301	0.2563
417.6349	0.2464
417.8397	0.2481
418.0445	0.2618
418.2492	0.2596
418.454	0.2501
418.6587	0.2577
418.8634	0.2471
419.0681	0.2445
419.2728	0.252
419.4775	0.2613
419.6822	0.2507
419.8868	0.2694
420.0915	0.2545
420.2961	0.2565
420.5007	0.247
420.7053	0.252
420.9099	0.2343
421.1144	0.2461
421.319	0.2387
421.5235	0.2425
421.728	0.2385
421.9325	0.2393
422.137	0.2373
422.3415	0.2396
422.546	0.2409
422.7504	0.241
422.9549	0.2406
423.1593	0.2361
423.3637	0.2317
423.5681	0.2403
423.7725	0.2359
423.9769	0.2349
424.1812	0.2402
424.3856	0.2408
424.5899	0.2397
424.7942	0.2216
424.9985	0.2327
425.2028	0.2288
425.4071	0.2201
425.6113	0.2208
425.8156	0.2222
426.0198	0.2174
426.224	0.2262
426.4282	0.2299
426.6324	0.2175
426.8366	0.228
427.0407	0.2177
