Data from D4ACN5uM480nmA_Absorbance_12-07-59-937.txt Node
Date: Fri Feb 21 12:07:59 GMT 2025
User: LASERRRRR
Spectrometer: FLMT03099
Trigger mode: 0
Integration Time (sec): 1.500000E-2
Scans to average: 1
Electric dark correction enabled: true
Nonlinearity correction enabled: false
Boxcar width: 0
XAxis mode: Wavelengths
Number of Pixels in Spectrum: 3648
>>>>>Begin Spectral Data<<<<<
179.3399	-0.1901
179.5586	-0.1901
179.7771	-0.1901
179.9957	-0.0873
180.2143	-0.2297
180.4329	-0
180.6514	-0.2321
180.8699	-0
181.0885	-0.2349
181.307	0.0883
181.5255	0.1474
181.744	1.2368
181.9625	0.3839
182.181	-0
182.3994	-0
182.6179	0.0859
182.8363	-0
183.0547	-0
183.2732	0.4101
183.4916	0.344
183.71	0.3142
183.9284	0.1596
184.1467	0.1704
184.3651	0.2186
184.5835	0.0918
184.8018	0.2554
185.0201	0.167
185.2385	0.2966
185.4568	0.317
185.6751	0.1219
185.8934	0.3572
186.1117	0.1059
186.3299	0.364
186.5482	-0.0076
186.7664	0.2478
186.9847	0.1727
187.2029	0.1251
187.4211	0.2642
187.6393	0.1596
187.8575	-0.035
188.0757	0.2223
188.2939	0.2513
188.512	0.158
188.7302	0.0528
188.9483	0.0833
189.1665	0.4191
189.3846	0.205
189.6027	0.1121
189.8208	0.2356
190.0389	0.2186
190.257	0.125
190.475	0.2302
190.6931	0.0613
190.9111	0.3522
191.1292	0.2567
191.3472	0.2578
191.5652	0.3495
191.7832	0.3698
192.0012	0.4048
192.2192	0.2205
192.4371	0.4269
192.6551	0.3027
192.873	0.2329
193.091	0.5736
193.3089	0.1944
193.5268	0.4561
193.7447	0.3619
193.9626	0.3228
194.1805	0.2313
194.3984	0.4552
194.6162	0.3213
194.8341	0.3297
195.0519	0.4605
195.2697	0.5141
195.4875	0.6934
195.7054	0.4882
195.9231	0.4025
196.1409	0.5808
196.3587	0.6793
196.5765	0.4737
196.7942	0.6592
197.012	0.499
197.2297	0.4588
197.4474	0.6041
197.6651	0.5538
197.8828	0.5654
198.1005	0.5969
198.3182	0.5921
198.5358	0.4477
198.7535	0.5602
198.9711	0.5489
199.1888	0.6374
199.4064	0.5131
199.624	0.6452
199.8416	0.5382
200.0592	0.5426
200.2767	0.5141
200.4943	0.5885
200.7119	0.5537
200.9294	0.5637
201.1469	0.6222
201.3645	0.6486
201.582	0.4875
201.7995	0.6404
202.017	0.5879
202.2344	0.5286
202.4519	0.5187
202.6694	0.5545
202.8868	0.5584
203.1042	0.5442
203.3217	0.485
203.5391	0.5018
203.7565	0.5024
203.9739	0.5298
204.1913	0.5701
204.4086	0.5208
204.626	0.4792
204.8433	0.4722
205.0607	0.4926
205.278	0.5018
205.4953	0.4981
205.7126	0.4877
205.9299	0.4262
206.1472	0.5161
206.3644	0.4852
206.5817	0.4902
206.7989	0.4651
207.0162	0.473
207.2334	0.432
207.4506	0.4045
207.6678	0.451
207.885	0.479
208.1022	0.429
208.3194	0.4126
208.5365	0.4597
208.7537	0.4213
208.9708	0.4307
209.1879	0.4003
209.405	0.4118
209.6222	0.4064
209.8392	0.4204
210.0563	0.437
210.2734	0.3901
210.4905	0.4242
210.7075	0.4387
210.9245	0.4413
211.1416	0.4141
211.3586	0.4177
211.5756	0.4335
211.7926	0.4097
212.0096	0.4151
212.2265	0.3965
212.4435	0.438
212.6604	0.4149
212.8774	0.4042
213.0943	0.4085
213.3112	0.3936
213.5281	0.4109
213.745	0.4022
213.9619	0.3943
214.1788	0.4117
214.3956	0.4034
214.6125	0.4104
214.8293	0.4093
215.0461	0.4319
215.2629	0.4031
215.4798	0.3855
215.6965	0.385
215.9133	0.4088
216.1301	0.406
216.3469	0.3983
216.5636	0.412
216.7803	0.4065
216.9971	0.4288
217.2138	0.4069
217.4305	0.4021
217.6472	0.4455
217.8639	0.4056
218.0805	0.4196
218.2972	0.3981
218.5138	0.4395
218.7305	0.4268
218.9471	0.423
219.1637	0.432
219.3803	0.4012
219.5969	0.4192
219.8135	0.4193
220.0301	0.4142
220.2466	0.4449
220.4632	0.4158
220.6797	0.4253
220.8962	0.4316
221.1127	0.4349
221.3292	0.4331
221.5457	0.4134
221.7622	0.4465
221.9787	0.4521
222.1951	0.4534
222.4116	0.4335
222.628	0.4373
222.8444	0.4427
223.0608	0.4238
223.2772	0.4521
223.4936	0.4426
223.71	0.4478
223.9264	0.4406
224.1427	0.4501
224.3591	0.4693
224.5754	0.4479
224.7917	0.4521
225.008	0.4584
225.2243	0.462
225.4406	0.46
225.6569	0.4546
225.8732	0.4591
226.0894	0.4656
226.3057	0.4438
226.5219	0.4673
226.7381	0.4742
226.9543	0.4716
227.1705	0.4645
227.3867	0.4799
227.6029	0.4632
227.8191	0.4756
228.0352	0.4883
228.2513	0.4922
228.4675	0.4862
228.6836	0.491
228.8997	0.5003
229.1158	0.4798
229.3319	0.498
229.548	0.4804
229.764	0.5021
229.9801	0.5071
230.1961	0.5064
230.4121	0.5082
230.6282	0.5069
230.8442	0.5127
231.0602	0.5246
231.2761	0.5232
231.4921	0.5177
231.7081	0.5186
231.924	0.5204
232.14	0.5263
232.3559	0.528
232.5718	0.525
232.7877	0.5457
233.0036	0.507
233.2195	0.5385
233.4353	0.5391
233.6512	0.5222
233.867	0.5276
234.0829	0.5333
234.2987	0.5293
234.5145	0.537
234.7303	0.525
234.9461	0.5285
235.1619	0.532
235.3776	0.5387
235.5934	0.5272
235.8091	0.5257
236.0249	0.5483
236.2406	0.5403
236.4563	0.5434
236.672	0.5324
236.8877	0.5434
237.1034	0.5303
237.319	0.5342
237.5347	0.5313
237.7503	0.5401
237.966	0.5276
238.1816	0.5292
238.3972	0.5377
238.6128	0.5415
238.8284	0.5352
239.0439	0.5406
239.2595	0.5357
239.475	0.5321
239.6906	0.5279
239.9061	0.5391
240.1216	0.5397
240.3371	0.517
240.5526	0.5265
240.7681	0.5228
240.9836	0.5151
241.199	0.5121
241.4145	0.5013
241.6299	0.494
241.8453	0.495
242.0607	0.4881
242.2761	0.4796
242.4915	0.4672
242.7069	0.4642
242.9223	0.4583
243.1376	0.4534
243.353	0.443
243.5683	0.4438
243.7836	0.4205
243.9989	0.4253
244.2142	0.4233
244.4295	0.3998
244.6448	0.4008
244.86	0.3931
245.0753	0.3796
245.2905	0.3759
245.5057	0.3712
245.721	0.3579
245.9362	0.3561
246.1514	0.3426
246.3665	0.343
246.5817	0.3405
246.7969	0.3169
247.012	0.3197
247.2271	0.3147
247.4423	0.3024
247.6574	0.309
247.8725	0.3018
248.0876	0.294
248.3026	0.2848
248.5177	0.2792
248.7328	0.2806
248.9478	0.2729
249.1628	0.268
249.3779	0.2675
249.5929	0.2678
249.8079	0.2586
250.0228	0.2524
250.2378	0.2566
250.4528	0.2461
250.6677	0.2437
250.8827	0.2379
251.0976	0.2418
251.3125	0.2348
251.5274	0.2349
251.7423	0.2279
251.9572	0.2266
252.172	0.2204
252.3869	0.2191
252.6017	0.2178
252.8166	0.2159
253.0314	0.2171
253.2462	0.2185
253.461	0.2117
253.6758	0.2085
253.8906	0.2067
254.1053	0.2015
254.3201	0.2034
254.5348	0.2014
254.7496	0.2046
254.9643	0.2055
255.179	0.199
255.3937	0.2004
255.6083	0.2042
255.823	0.1931
256.0377	0.2032
256.2523	0.1969
256.467	0.194
256.6816	0.2008
256.8962	0.1887
257.1108	0.1951
257.3254	0.193
257.54	0.1928
257.7545	0.1953
257.9691	0.1922
258.1836	0.1905
258.3981	0.1869
258.6127	0.1858
258.8272	0.1824
259.0417	0.1835
259.2561	0.1873
259.4706	0.1846
259.6851	0.1824
259.8995	0.1798
260.114	0.1853
260.3284	0.1879
260.5428	0.1805
260.7572	0.1919
260.9716	0.1819
261.186	0.179
261.4003	0.1895
261.6147	0.1836
261.829	0.1828
262.0433	0.182
262.2577	0.1896
262.472	0.1845
262.6863	0.1883
262.9005	0.1881
263.1148	0.184
263.3291	0.1892
263.5433	0.1875
263.7576	0.1869
263.9718	0.1884
264.186	0.1916
264.4002	0.1786
264.6144	0.1864
264.8286	0.1853
265.0427	0.188
265.2569	0.182
265.471	0.1872
265.6851	0.1838
265.8993	0.1791
266.1134	0.1859
266.3275	0.1898
266.5415	0.1858
266.7556	0.1787
266.9697	0.1823
267.1837	0.1851
267.3978	0.1891
267.6118	0.181
267.8258	0.1803
268.0398	0.1847
268.2538	0.1902
268.4677	0.1793
268.6817	0.1794
268.8957	0.184
269.1096	0.1777
269.3235	0.1908
269.5374	0.1753
269.7514	0.1799
269.9652	0.1822
270.1791	0.1807
270.393	0.1763
270.6068	0.176
270.8207	0.1785
271.0345	0.1758
271.2483	0.1766
271.4622	0.1796
271.676	0.1728
271.8897	0.1733
272.1035	0.1692
272.3173	0.1702
272.531	0.1726
272.7448	0.1703
272.9585	0.1708
273.1722	0.1705
273.3859	0.1706
273.5996	0.169
273.8133	0.1642
274.0269	0.1745
274.2406	0.1689
274.4542	0.1631
274.6679	0.1695
274.8815	0.1738
275.0951	0.1824
275.3087	0.175
275.5223	0.1733
275.7358	0.1794
275.9494	0.176
276.1629	0.1758
276.3765	0.1716
276.59	0.1752
276.8035	0.1809
277.017	0.1763
277.2305	0.1733
277.444	0.1734
277.6574	0.1761
277.8709	0.1757
278.0843	0.1721
278.2978	0.1872
278.5112	0.1767
278.7246	0.1789
278.938	0.1787
279.1513	0.1818
279.3647	0.1841
279.5781	0.1792
279.7914	0.1814
280.0047	0.1777
280.2181	0.1839
280.4314	0.1753
280.6447	0.1815
280.8579	0.1788
281.0712	0.1823
281.2845	0.1883
281.4977	0.1884
281.711	0.1779
281.9242	0.1865
282.1374	0.1822
282.3506	0.1851
282.5638	0.1833
282.7769	0.1845
282.9901	0.18
283.2033	0.1889
283.4164	0.1853
283.6295	0.1835
283.8426	0.185
284.0557	0.1857
284.2688	0.1913
284.4819	0.1902
284.695	0.1896
284.908	0.1905
285.1211	0.1893
285.3341	0.1925
285.5471	0.1889
285.7601	0.1919
285.9731	0.1857
286.1861	0.1937
286.3991	0.1915
286.612	0.1962
286.825	0.1915
287.0379	0.2007
287.2508	0.1937
287.4637	0.1921
287.6766	0.1952
287.8895	0.1886
288.1024	0.1944
288.3152	0.1961
288.5281	0.1997
288.7409	0.1981
288.9538	0.1951
289.1666	0.2016
289.3794	0.2006
289.5922	0.1967
289.8049	0.208
290.0177	0.2017
290.2304	0.2056
290.4432	0.1975
290.6559	0.1884
290.8686	0.2003
291.0813	0.1977
291.294	0.2009
291.5067	0.2039
291.7194	0.1956
291.932	0.2034
292.1447	0.2019
292.3573	0.2068
292.5699	0.2053
292.7825	0.1996
292.9951	0.2043
293.2077	0.1943
293.4203	0.2007
293.6328	0.1976
293.8454	0.2005
294.0579	0.2
294.2704	0.2008
294.4829	0.1993
294.6954	0.201
294.9079	0.2061
295.1204	0.2001
295.3328	0.201
295.5453	0.1988
295.7577	0.1923
295.9701	0.1997
296.1825	0.2014
296.3949	0.2074
296.6073	0.2013
296.8197	0.205
297.0321	0.1946
297.2444	0.1987
297.4567	0.1987
297.6691	0.2035
297.8814	0.1981
298.0937	0.2014
298.306	0.1914
298.5182	0.2043
298.7305	0.1997
298.9428	0.1971
299.155	0.1976
299.3672	0.2038
299.5794	0.1911
299.7916	0.1971
300.0038	0.1969
300.216	0.2029
300.4282	0.1934
300.6403	0.2002
300.8525	0.2014
301.0646	0.1962
301.2767	0.1955
301.4888	0.1947
301.7009	0.2002
301.913	0.1973
302.125	0.2008
302.3371	0.1974
302.5491	0.1978
302.7612	0.2022
302.9732	0.1868
303.1852	0.1932
303.3972	0.1942
303.6092	0.194
303.8211	0.1861
304.0331	0.1885
304.245	0.1877
304.457	0.1929
304.6689	0.1939
304.8808	0.1909
305.0927	0.1945
305.3046	0.1934
305.5164	0.182
305.7283	0.1899
305.9401	0.1831
306.152	0.1853
306.3638	0.1791
306.5756	0.1857
306.7874	0.1825
306.9992	0.1792
307.2109	0.1746
307.4227	0.1757
307.6344	0.175
307.8462	0.1671
308.0579	0.1663
308.2696	0.1612
308.4813	0.163
308.693	0.1672
308.9046	0.1633
309.1163	0.1638
309.328	0.1552
309.5396	0.1574
309.7512	0.157
309.9628	0.1557
310.1744	0.1602
310.386	0.147
310.5976	0.1531
310.8091	0.1455
311.0207	0.1459
311.2322	0.1448
311.4437	0.149
311.6552	0.1377
311.8667	0.1348
312.0782	0.1476
312.2897	0.1386
312.5012	0.1414
312.7126	0.1362
312.924	0.1371
313.1355	0.1364
313.3469	0.1296
313.5583	0.1304
313.7696	0.1261
313.981	0.1259
314.1924	0.1277
314.4037	0.121
314.6151	0.125
314.8264	0.1279
315.0377	0.1307
315.249	0.1207
315.4603	0.1161
315.6716	0.1256
315.8828	0.1223
316.0941	0.1178
316.3053	0.1233
316.5165	0.1174
316.7277	0.1269
316.9389	0.1211
317.1501	0.1178
317.3613	0.1164
317.5724	0.12
317.7836	0.1205
317.9947	0.1145
318.2058	0.1181
318.417	0.1196
318.6281	0.118
318.8391	0.1199
319.0502	0.1162
319.2613	0.115
319.4723	0.1189
319.6834	0.1108
319.8944	0.1217
320.1054	0.1156
320.3164	0.1247
320.5274	0.1123
320.7383	0.1148
320.9493	0.118
321.1602	0.1123
321.3712	0.1212
321.5821	0.1164
321.793	0.1152
322.0039	0.1211
322.2148	0.1205
322.4257	0.1107
322.6365	0.1124
322.8474	0.1136
323.0582	0.1134
323.269	0.1153
323.4798	0.1198
323.6906	0.1136
323.9014	0.1152
324.1122	0.1162
324.3229	0.1204
324.5337	0.1224
324.7444	0.1128
324.9551	0.1171
325.1658	0.1157
325.3765	0.1197
325.5872	0.1199
325.7979	0.1171
326.0085	0.1168
326.2192	0.1178
326.4298	0.1218
326.6404	0.1238
326.851	0.119
327.0616	0.1223
327.2722	0.1291
327.4828	0.1199
327.6933	0.1196
327.9039	0.1204
328.1144	0.1192
328.3249	0.1213
328.5354	0.1221
328.7459	0.1176
328.9564	0.1264
329.1669	0.1207
329.3773	0.1231
329.5878	0.1294
329.7982	0.1215
330.0086	0.1241
330.219	0.1224
330.4294	0.1215
330.6398	0.1281
330.8502	0.1251
331.0605	0.1196
331.2708	0.1197
331.4812	0.1266
331.6915	0.1194
331.9018	0.1168
332.1121	0.128
332.3224	0.1281
332.5326	0.1212
332.7429	0.1218
332.9531	0.1242
333.1633	0.1239
333.3735	0.1216
333.5837	0.1319
333.7939	0.1261
334.0041	0.1267
334.2143	0.1291
334.4244	0.1214
334.6346	0.1221
334.8447	0.1272
335.0548	0.1235
335.2649	0.1275
335.475	0.1223
335.685	0.1296
335.8951	0.1265
336.1051	0.1286
336.3152	0.1258
336.5252	0.1288
336.7352	0.1202
336.9452	0.1264
337.1552	0.1262
337.3652	0.1271
337.5751	0.1211
337.7851	0.1234
337.995	0.1284
338.2049	0.1351
338.4148	0.1293
338.6247	0.1325
338.8346	0.1271
339.0445	0.1354
339.2543	0.1311
339.4642	0.1393
339.674	0.132
339.8838	0.1337
340.0936	0.1335
340.3034	0.1348
340.5132	0.1302
340.7229	0.1363
340.9327	0.1378
341.1424	0.141
341.3522	0.1376
341.5619	0.1411
341.7716	0.1323
341.9813	0.1381
342.1909	0.1402
342.4006	0.1416
342.6102	0.1373
342.8199	0.1443
343.0295	0.1413
343.2391	0.1417
343.4487	0.1411
343.6583	0.1494
343.8679	0.1397
344.0774	0.1428
344.287	0.143
344.4965	0.1342
344.706	0.1474
344.9155	0.1453
345.125	0.1475
345.3345	0.1443
345.544	0.1496
345.7534	0.15
345.9629	0.1465
346.1723	0.1422
346.3817	0.1431
346.5911	0.1547
346.8005	0.1512
347.0099	0.1552
347.2193	0.1441
347.4286	0.152
347.638	0.1485
347.8473	0.15
348.0566	0.1618
348.2659	0.163
348.4752	0.1561
348.6845	0.1676
348.8937	0.1564
349.103	0.1522
349.3122	0.1576
349.5214	0.1581
349.7306	0.1501
349.9398	0.1584
350.149	0.1661
350.3582	0.1598
350.5674	0.1634
350.7765	0.1663
350.9856	0.1613
351.1948	0.1691
351.4039	0.1681
351.613	0.1709
351.822	0.1613
352.0311	0.1652
352.2402	0.1684
352.4492	0.1652
352.6582	0.1695
352.8672	0.1742
353.0762	0.1764
353.2852	0.1777
353.4942	0.1716
353.7032	0.1722
353.9121	0.1728
354.1211	0.1707
354.33	0.1768
354.5389	0.1939
354.7478	0.1751
354.9567	0.1753
355.1655	0.1745
355.3744	0.1745
355.5833	0.1804
355.7921	0.182
356.0009	0.1773
356.2097	0.1914
356.4185	0.1917
356.6273	0.1795
356.8361	0.1966
357.0448	0.191
357.2536	0.1912
357.4623	0.1838
357.671	0.1867
357.8797	0.1878
358.0884	0.1873
358.2971	0.1862
358.5057	0.1906
358.7144	0.1909
358.923	0.1882
359.1316	0.1919
359.3402	0.1957
359.5488	0.1949
359.7574	0.2002
359.966	0.2078
360.1746	0.2057
360.3831	0.2009
360.5916	0.1977
360.8002	0.2136
361.0087	0.2079
361.2172	0.2176
361.4256	0.2017
361.6341	0.215
361.8426	0.215
362.051	0.2006
362.2594	0.218
362.4678	0.2136
362.6762	0.2248
362.8846	0.2269
363.093	0.2164
363.3014	0.2262
363.5097	0.2193
363.718	0.2321
363.9264	0.2243
364.1347	0.2245
364.343	0.2301
364.5513	0.2279
364.7595	0.2239
364.9678	0.2253
365.176	0.2319
365.3842	0.2314
365.5925	0.2322
365.8007	0.2394
366.0089	0.229
366.217	0.2447
366.4252	0.2363
366.6333	0.2385
366.8415	0.2395
367.0496	0.2404
367.2577	0.2461
367.4658	0.2418
367.6739	0.2423
367.882	0.2446
368.09	0.2438
368.2981	0.2417
368.5061	0.2527
368.7141	0.2552
368.9221	0.2512
369.1301	0.2459
369.3381	0.2514
369.5461	0.2521
369.754	0.2477
369.962	0.2539
370.1699	0.2657
370.3778	0.2591
370.5857	0.2584
370.7936	0.2617
371.0015	0.256
371.2093	0.2548
371.4172	0.2628
371.625	0.2722
371.8328	0.2733
372.0406	0.2739
372.2484	0.2566
372.4562	0.2565
372.664	0.2756
372.8717	0.2681
373.0795	0.2699
373.2872	0.2711
373.4949	0.2845
373.7026	0.2795
373.9103	0.2635
374.118	0.2638
374.3256	0.2851
374.5333	0.2784
374.7409	0.2654
374.9485	0.2786
375.1561	0.2768
375.3637	0.277
375.5713	0.2717
375.7789	0.2714
375.9864	0.2814
376.194	0.2855
376.4015	0.2856
376.609	0.2908
376.8165	0.2954
377.024	0.2788
377.2315	0.2925
377.4389	0.2799
377.6464	0.2803
377.8538	0.2879
378.0612	0.2856
378.2686	0.2927
378.476	0.2903
378.6834	0.2851
378.8908	0.2955
379.0981	0.2995
379.3055	0.2987
379.5128	0.2937
379.7201	0.2984
379.9274	0.2863
380.1347	0.2941
380.342	0.3081
380.5492	0.2937
380.7565	0.2944
380.9637	0.2912
381.1709	0.3055
381.3781	0.3051
381.5853	0.3077
381.7925	0.3038
381.9997	0.3024
382.2068	0.2903
382.4139	0.3037
382.6211	0.306
382.8282	0.3056
383.0353	0.3206
383.2424	0.3117
383.4494	0.3139
383.6565	0.3139
383.8635	0.321
384.0706	0.309
384.2776	0.3257
384.4846	0.315
384.6916	0.307
384.8986	0.3159
385.1055	0.3109
385.3125	0.3181
385.5194	0.3087
385.7263	0.3025
385.9333	0.309
386.1402	0.3224
386.347	0.3181
386.5539	0.3152
386.7608	0.3135
386.9676	0.3143
387.1744	0.3132
387.3813	0.3111
387.5881	0.3186
387.7948	0.3176
388.0016	0.3191
388.2084	0.3087
388.4151	0.3123
388.6219	0.3186
388.8286	0.3092
389.0353	0.3033
389.242	0.3078
389.4487	0.3041
389.6553	0.2988
389.862	0.3127
390.0686	0.3123
390.2753	0.2982
390.4819	0.3144
390.6885	0.3033
390.8951	0.3152
391.1016	0.3082
391.3082	0.2947
391.5147	0.3033
391.7213	0.3073
391.9278	0.298
392.1343	0.2986
392.3408	0.2849
392.5473	0.2914
392.7537	0.296
392.9602	0.2832
393.1666	0.2933
393.373	0.2963
393.5794	0.2855
393.7858	0.3036
393.9922	0.2889
394.1986	0.2832
394.4049	0.2909
394.6113	0.289
394.8176	0.2742
395.0239	0.2772
395.2302	0.2699
395.4365	0.2761
395.6428	0.2814
395.8491	0.2831
396.0553	0.2733
396.2615	0.2737
396.4678	0.2813
396.674	0.2712
396.8802	0.2657
397.0863	0.2692
397.2925	0.2675
397.4987	0.2708
397.7048	0.2802
397.9109	0.2759
398.117	0.268
398.3231	0.2724
398.5292	0.2708
398.7353	0.2693
398.9413	0.2687
399.1474	0.2844
399.3534	0.2667
399.5594	0.2681
399.7654	0.2747
399.9714	0.2585
400.1774	0.2604
400.3833	0.2634
400.5893	0.264
400.7952	0.2681
401.0011	0.2513
401.207	0.2741
401.4129	0.2628
401.6188	0.2697
401.8247	0.2721
402.0305	0.2639
402.2364	0.2724
402.4422	0.275
402.648	0.2837
402.8538	0.2717
403.0596	0.2544
403.2654	0.2658
403.4711	0.2708
403.6768	0.267
403.8826	0.2624
404.0883	0.2658
404.294	0.269
404.4997	0.2687
404.7054	0.2676
404.911	0.2615
405.1167	0.2716
405.3223	0.2771
405.5279	0.2683
405.7335	0.2637
405.9391	0.2657
406.1447	0.2679
406.3502	0.277
406.5558	0.2805
406.7613	0.2681
406.9668	0.2704
407.1724	0.2726
407.3778	0.2725
407.5833	0.255
407.7888	0.2725
407.9942	0.2671
408.1997	0.2604
408.4051	0.2624
408.6105	0.2638
408.8159	0.267
409.0213	0.2811
409.2267	0.2653
409.432	0.2679
409.6374	0.2705
409.8427	0.2629
410.048	0.2569
410.2533	0.2623
410.4586	0.274
410.6639	0.2596
410.8691	0.2713
411.0744	0.2644
411.2796	0.2714
411.4848	0.2623
411.69	0.2692
411.8952	0.2644
412.1004	0.2615
412.3056	0.2697
412.5107	0.2696
412.7158	0.268
412.921	0.2583
413.1261	0.2659
413.3312	0.2614
413.5362	0.271
413.7413	0.2687
413.9464	0.2602
414.1514	0.252
414.3564	0.252
414.5614	0.2601
414.7664	0.2725
414.9714	0.2676
415.1764	0.2552
415.3813	0.2603
415.5863	0.2681
415.7912	0.2666
415.9961	0.2553
416.201	0.2667
416.4059	0.2696
416.6108	0.2599
416.8156	0.2534
417.0205	0.2578
417.2253	0.2629
417.4301	0.2743
417.6349	0.2504
417.8397	0.2638
418.0445	0.2678
418.2492	0.2666
418.454	0.2522
418.6587	0.2617
418.8634	0.2562
419.0681	0.2528
419.2728	0.2484
419.4775	0.2556
419.6822	0.2395
419.8868	0.2498
420.0915	0.2521
420.2961	0.2477
420.5007	0.2522
420.7053	0.2489
420.9099	0.2346
421.1144	0.2431
421.319	0.2456
421.5235	0.2383
421.728	0.2386
421.9325	0.246
422.137	0.2422
422.3415	0.2398
422.546	0.2486
422.7504	0.2377
422.9549	0.2357
423.1593	0.2304
423.3637	0.2245
423.5681	0.2437
423.7725	0.2273
423.9769	0.2447
424.1812	0.2411
424.3856	0.2361
424.5899	0.2262
424.7942	0.2363
424.9985	0.2318
425.2028	0.2397
425.4071	0.2225
425.6113	0.2372
425.8156	0.2267
426.0198	0.219
426.224	0.2256
426.4282	0.2297
426.6324	0.2218
426.8366	0.2318
