Data from D4ACN5uM480nmA_Absorbance_12-08-02-050.txt Node
Date: Fri Feb 21 12:08:02 GMT 2025
User: LASERRRRR
Spectrometer: FLMT03099
Trigger mode: 0
Integration Time (sec): 1.500000E-2
Scans to average: 1
Electric dark correction enabled: true
Nonlinearity correction enabled: false
Boxcar width: 0
XAxis mode: Wavelengths
Number of Pixels in Spectrum: 3648
>>>>>Begin Spectral Data<<<<<
179.3399	0.8451
179.5586	0.8451
179.7771	0.8451
179.9957	-0.0313
180.2143	-0.5452
180.4329	-0
180.6514	-0
180.8699	-0
181.0885	-0.4672
181.307	0.7439
181.5255	0.2112
181.744	-0
181.9625	-0.298
182.181	0.8182
182.3994	-0
182.6179	-0
182.8363	-0
183.0547	-0
183.2732	0.3608
183.4916	0.3031
183.71	0.1192
183.9284	0.2939
184.1467	-0.1652
184.3651	0.2415
184.5835	0.1119
184.8018	-0.0352
185.0201	0.1866
185.2385	0.1891
185.4568	0.4204
185.6751	0.1776
185.8934	0.1021
186.1117	0.3848
186.3299	0.1437
186.5482	0.0854
186.7664	0.3093
186.9847	0.2685
187.2029	0.3642
187.4211	0.0856
187.6393	0.2593
187.8575	0.2073
188.0757	0.5958
188.2939	0.0825
188.512	0.3144
188.7302	0.0381
188.9483	0.1327
189.1665	0.5674
189.3846	-0.0214
189.6027	0.0719
189.8208	0.1937
190.0389	0.1751
190.257	0.259
190.475	0.1428
190.6931	0.1096
190.9111	0.4858
191.1292	0.2768
191.3472	0.1752
191.5652	0.559
191.7832	0.351
192.0012	0.2278
192.2192	0.4055
192.4371	0.2863
192.6551	0.2844
192.873	0.2138
193.091	0.3122
193.3089	0.4034
193.5268	0.5105
193.7447	0.4705
193.9626	0.5369
194.1805	0.3055
194.3984	0.55
194.6162	0.4443
194.8341	0.4685
195.0519	0.5095
195.2697	0.5553
195.4875	0.7211
195.7054	0.5384
195.9231	0.4913
196.1409	0.4971
196.3587	0.6106
196.5765	0.4901
196.7942	0.5849
197.012	0.5438
197.2297	0.5352
197.4474	0.5177
197.6651	0.4463
197.8828	0.6113
198.1005	0.5966
198.3182	0.5733
198.5358	0.5898
198.7535	0.6058
198.9711	0.5914
199.1888	0.741
199.4064	0.5492
199.624	0.5138
199.8416	0.5487
200.0592	0.5807
200.2767	0.6216
200.4943	0.5829
200.7119	0.619
200.9294	0.6337
201.1469	0.5968
201.3645	0.5843
201.582	0.5263
201.7995	0.6421
202.017	0.5475
202.2344	0.4957
202.4519	0.5745
202.6694	0.5064
202.8868	0.5502
203.1042	0.5178
203.3217	0.5455
203.5391	0.5228
203.7565	0.5509
203.9739	0.5444
204.1913	0.5352
204.4086	0.5138
204.626	0.497
204.8433	0.53
205.0607	0.5311
205.278	0.5228
205.4953	0.4457
205.7126	0.4378
205.9299	0.4769
206.1472	0.516
206.3644	0.4444
206.5817	0.4625
206.7989	0.4686
207.0162	0.4337
207.2334	0.4396
207.4506	0.4149
207.6678	0.4725
207.885	0.4497
208.1022	0.4385
208.3194	0.4227
208.5365	0.427
208.7537	0.4495
208.9708	0.4501
209.1879	0.4055
209.405	0.4009
209.6222	0.393
209.8392	0.4252
210.0563	0.4226
210.2734	0.398
210.4905	0.4212
210.7075	0.4321
210.9245	0.4272
211.1416	0.4317
211.3586	0.414
211.5756	0.4454
211.7926	0.411
212.0096	0.4133
212.2265	0.4066
212.4435	0.4508
212.6604	0.3969
212.8774	0.4203
213.0943	0.406
213.3112	0.4305
213.5281	0.4117
213.745	0.4097
213.9619	0.4017
214.1788	0.3877
214.3956	0.4209
214.6125	0.393
214.8293	0.4114
215.0461	0.4069
215.2629	0.4252
215.4798	0.38
215.6965	0.4006
215.9133	0.4168
216.1301	0.4154
216.3469	0.4135
216.5636	0.406
216.7803	0.4012
216.9971	0.4307
217.2138	0.4318
217.4305	0.4131
217.6472	0.4388
217.8639	0.4074
218.0805	0.4094
218.2972	0.4176
218.5138	0.4223
218.7305	0.417
218.9471	0.4245
219.1637	0.4248
219.3803	0.4122
219.5969	0.4247
219.8135	0.4231
220.0301	0.4297
220.2466	0.4534
220.4632	0.4346
220.6797	0.4298
220.8962	0.4217
221.1127	0.4248
221.3292	0.443
221.5457	0.4151
221.7622	0.4503
221.9787	0.4443
222.1951	0.4492
222.4116	0.4489
222.628	0.4482
222.8444	0.445
223.0608	0.4281
223.2772	0.4509
223.4936	0.4528
223.71	0.4275
223.9264	0.4417
224.1427	0.4538
224.3591	0.4475
224.5754	0.4518
224.7917	0.4512
225.008	0.4483
225.2243	0.4506
225.4406	0.4645
225.6569	0.442
225.8732	0.468
226.0894	0.4642
226.3057	0.4555
226.5219	0.4648
226.7381	0.4672
226.9543	0.4769
227.1705	0.4697
227.3867	0.4921
227.6029	0.4757
227.8191	0.4774
228.0352	0.4995
228.2513	0.4889
228.4675	0.4887
228.6836	0.4824
228.8997	0.494
229.1158	0.4782
229.3319	0.4954
229.548	0.5055
229.764	0.4968
229.9801	0.5165
230.1961	0.515
230.4121	0.5005
230.6282	0.5048
230.8442	0.5151
231.0602	0.5185
231.2761	0.5241
231.4921	0.525
231.7081	0.5166
231.924	0.5265
232.14	0.527
232.3559	0.5228
232.5718	0.526
232.7877	0.5296
233.0036	0.5253
233.2195	0.5348
233.4353	0.5336
233.6512	0.5345
233.867	0.5489
234.0829	0.5285
234.2987	0.5282
234.5145	0.5271
234.7303	0.5397
234.9461	0.5312
235.1619	0.5404
235.3776	0.5273
235.5934	0.5346
235.8091	0.5258
236.0249	0.5417
236.2406	0.5384
236.4563	0.5419
236.672	0.5355
236.8877	0.5414
237.1034	0.5383
237.319	0.5463
237.5347	0.5398
237.7503	0.5352
237.966	0.5343
238.1816	0.53
238.3972	0.5407
238.6128	0.5446
238.8284	0.5345
239.0439	0.5431
239.2595	0.5239
239.475	0.5409
239.6906	0.5324
239.9061	0.5397
240.1216	0.5242
240.3371	0.5181
240.5526	0.5203
240.7681	0.5141
240.9836	0.5225
241.199	0.5105
241.4145	0.5081
241.6299	0.4943
241.8453	0.4923
242.0607	0.4834
242.2761	0.4818
242.4915	0.4714
242.7069	0.4683
242.9223	0.4757
243.1376	0.4444
243.353	0.4494
243.5683	0.4405
243.7836	0.4282
243.9989	0.4157
244.2142	0.4171
244.4295	0.4121
244.6448	0.4052
244.86	0.3935
245.0753	0.3799
245.2905	0.3756
245.5057	0.3696
245.721	0.3533
245.9362	0.3433
246.1514	0.3306
246.3665	0.3405
246.5817	0.329
246.7969	0.3201
247.012	0.3279
247.2271	0.3157
247.4423	0.3077
247.6574	0.3169
247.8725	0.3046
248.0876	0.2907
248.3026	0.2839
248.5177	0.2756
248.7328	0.2832
248.9478	0.2743
249.1628	0.2656
249.3779	0.2675
249.5929	0.26
249.8079	0.2548
250.0228	0.2521
250.2378	0.2563
250.4528	0.2545
250.6677	0.244
250.8827	0.2353
251.0976	0.2478
251.3125	0.2347
251.5274	0.2256
251.7423	0.2249
251.9572	0.2268
252.172	0.2188
252.3869	0.226
252.6017	0.2138
252.8166	0.227
253.0314	0.2206
253.2462	0.2146
253.461	0.2127
253.6758	0.2129
253.8906	0.2064
254.1053	0.2035
254.3201	0.2009
254.5348	0.2022
254.7496	0.2054
254.9643	0.2034
255.179	0.1988
255.3937	0.1976
255.6083	0.1982
255.823	0.1978
256.0377	0.1949
256.2523	0.1961
256.467	0.19
256.6816	0.2015
256.8962	0.1943
257.1108	0.1949
257.3254	0.1866
257.54	0.1885
257.7545	0.1899
257.9691	0.1926
258.1836	0.188
258.3981	0.1847
258.6127	0.1829
258.8272	0.1881
259.0417	0.1794
259.2561	0.1883
259.4706	0.1859
259.6851	0.1881
259.8995	0.1807
260.114	0.1852
260.3284	0.1827
260.5428	0.1815
260.7572	0.1914
260.9716	0.1819
261.186	0.1843
261.4003	0.1874
261.6147	0.1816
261.829	0.1822
262.0433	0.1832
262.2577	0.1861
262.472	0.1872
262.6863	0.1833
262.9005	0.1856
263.1148	0.1825
263.3291	0.1883
263.5433	0.1844
263.7576	0.1819
263.9718	0.188
264.186	0.1871
264.4002	0.1809
264.6144	0.186
264.8286	0.1884
265.0427	0.1861
265.2569	0.1889
265.471	0.1841
265.6851	0.1842
265.8993	0.185
266.1134	0.1868
266.3275	0.1883
266.5415	0.1814
266.7556	0.1776
266.9697	0.1845
267.1837	0.1886
267.3978	0.1889
267.6118	0.1817
267.8258	0.1893
268.0398	0.1822
268.2538	0.1849
268.4677	0.1862
268.6817	0.1799
268.8957	0.1845
269.1096	0.176
269.3235	0.1839
269.5374	0.182
269.7514	0.1827
269.9652	0.1833
270.1791	0.1838
270.393	0.1849
270.6068	0.1767
270.8207	0.176
271.0345	0.175
271.2483	0.1771
271.4622	0.1761
271.676	0.1751
271.8897	0.1723
272.1035	0.1771
272.3173	0.1712
272.531	0.1752
272.7448	0.1676
272.9585	0.1719
273.1722	0.1801
273.3859	0.1697
273.5996	0.1748
273.8133	0.1736
274.0269	0.1761
274.2406	0.1701
274.4542	0.1658
274.6679	0.1662
274.8815	0.1698
275.0951	0.1762
275.3087	0.1762
275.5223	0.1659
275.7358	0.1775
275.9494	0.1697
276.1629	0.1717
276.3765	0.1695
276.59	0.1754
276.8035	0.1814
277.017	0.1777
277.2305	0.1809
277.444	0.1751
277.6574	0.1773
277.8709	0.1809
278.0843	0.1772
278.2978	0.1819
278.5112	0.1844
278.7246	0.1755
278.938	0.178
279.1513	0.1812
279.3647	0.1782
279.5781	0.1785
279.7914	0.1821
280.0047	0.1765
280.2181	0.1843
280.4314	0.1785
280.6447	0.1874
280.8579	0.1761
281.0712	0.1796
281.2845	0.1881
281.4977	0.1834
281.711	0.1796
281.9242	0.185
282.1374	0.1844
282.3506	0.1859
282.5638	0.1852
282.7769	0.184
282.9901	0.1844
283.2033	0.1865
283.4164	0.186
283.6295	0.1879
283.8426	0.1901
284.0557	0.1869
284.2688	0.1909
284.4819	0.1942
284.695	0.1859
284.908	0.1957
285.1211	0.1833
285.3341	0.1928
285.5471	0.1943
285.7601	0.1952
285.9731	0.1889
286.1861	0.1921
286.3991	0.1943
286.612	0.1951
286.825	0.197
287.0379	0.1929
287.2508	0.1914
287.4637	0.1939
287.6766	0.1892
287.8895	0.1949
288.1024	0.193
288.3152	0.1943
288.5281	0.2017
288.7409	0.1976
288.9538	0.1888
289.1666	0.1974
289.3794	0.203
289.5922	0.1994
289.8049	0.2042
290.0177	0.1985
290.2304	0.203
290.4432	0.2009
290.6559	0.1932
290.8686	0.1996
291.0813	0.2006
291.294	0.2011
291.5067	0.1983
291.7194	0.2016
291.932	0.1989
292.1447	0.2036
292.3573	0.1983
292.5699	0.1996
292.7825	0.2031
292.9951	0.2026
293.2077	0.2016
293.4203	0.1994
293.6328	0.1925
293.8454	0.1962
294.0579	0.2043
294.2704	0.1998
294.4829	0.2024
294.6954	0.1961
294.9079	0.1999
295.1204	0.1934
295.3328	0.1955
295.5453	0.1996
295.7577	0.1988
295.9701	0.2028
296.1825	0.1998
296.3949	0.2038
296.6073	0.2018
296.8197	0.2008
297.0321	0.1961
297.2444	0.1988
297.4567	0.1954
297.6691	0.2002
297.8814	0.2057
298.0937	0.1939
298.306	0.201
298.5182	0.2058
298.7305	0.1947
298.9428	0.1982
299.155	0.2
299.3672	0.1972
299.5794	0.1975
299.7916	0.198
300.0038	0.1971
300.216	0.1984
300.4282	0.1962
300.6403	0.1937
300.8525	0.2062
301.0646	0.1985
301.2767	0.1955
301.4888	0.199
301.7009	0.1982
301.913	0.1975
302.125	0.1938
302.3371	0.1996
302.5491	0.2002
302.7612	0.2033
302.9732	0.1934
303.1852	0.1958
303.3972	0.1982
303.6092	0.193
303.8211	0.1851
304.0331	0.1924
304.245	0.1908
304.457	0.1938
304.6689	0.1909
304.8808	0.1903
305.0927	0.1935
305.3046	0.1869
305.5164	0.1847
305.7283	0.1889
305.9401	0.1875
306.152	0.1839
306.3638	0.1849
306.5756	0.1787
306.7874	0.1754
306.9992	0.178
307.2109	0.1735
307.4227	0.1713
307.6344	0.1724
307.8462	0.1725
308.0579	0.1677
308.2696	0.1615
308.4813	0.1582
308.693	0.164
308.9046	0.1574
309.1163	0.1586
309.328	0.1527
309.5396	0.1579
309.7512	0.1508
309.9628	0.1528
310.1744	0.1527
310.386	0.1467
310.5976	0.15
310.8091	0.144
311.0207	0.1507
311.2322	0.1526
311.4437	0.1453
311.6552	0.15
311.8667	0.1381
312.0782	0.1406
312.2897	0.1377
312.5012	0.1389
312.7126	0.1308
312.924	0.1352
313.1355	0.1324
313.3469	0.1288
313.5583	0.1263
313.7696	0.1285
313.981	0.1301
314.1924	0.1292
314.4037	0.1256
314.6151	0.1288
314.8264	0.1327
315.0377	0.1322
315.249	0.125
315.4603	0.1206
315.6716	0.1258
315.8828	0.1234
316.0941	0.1221
316.3053	0.1205
316.5165	0.1219
316.7277	0.1236
316.9389	0.1197
317.1501	0.1226
317.3613	0.1202
317.5724	0.1195
317.7836	0.1213
317.9947	0.1166
318.2058	0.1158
318.417	0.1152
318.6281	0.1185
318.8391	0.1166
319.0502	0.1139
319.2613	0.12
319.4723	0.1151
319.6834	0.1209
319.8944	0.1247
320.1054	0.118
320.3164	0.122
320.5274	0.1108
320.7383	0.1145
320.9493	0.1193
321.1602	0.12
321.3712	0.1215
321.5821	0.1174
321.793	0.1176
322.0039	0.1142
322.2148	0.122
322.4257	0.1168
322.6365	0.1136
322.8474	0.1116
323.0582	0.1192
323.269	0.1133
323.4798	0.1159
323.6906	0.1186
323.9014	0.1134
324.1122	0.1131
324.3229	0.1218
324.5337	0.1199
324.7444	0.1205
324.9551	0.122
325.1658	0.1171
325.3765	0.1191
325.5872	0.1173
325.7979	0.118
326.0085	0.1205
326.2192	0.1114
326.4298	0.121
326.6404	0.1188
326.851	0.1167
327.0616	0.128
327.2722	0.1252
327.4828	0.116
327.6933	0.1195
327.9039	0.1201
328.1144	0.1197
328.3249	0.1278
328.5354	0.1163
328.7459	0.1241
328.9564	0.1226
329.1669	0.1268
329.3773	0.1235
329.5878	0.125
329.7982	0.118
330.0086	0.1196
330.219	0.1309
330.4294	0.1252
330.6398	0.1251
330.8502	0.1235
331.0605	0.1209
331.2708	0.1227
331.4812	0.1232
331.6915	0.1248
331.9018	0.1156
332.1121	0.1302
332.3224	0.1267
332.5326	0.1235
332.7429	0.1173
332.9531	0.1269
333.1633	0.1244
333.3735	0.1318
333.5837	0.1287
333.7939	0.1208
334.0041	0.1243
334.2143	0.1254
334.4244	0.1213
334.6346	0.1209
334.8447	0.1264
335.0548	0.1302
335.2649	0.1298
335.475	0.1271
335.685	0.1243
335.8951	0.1333
336.1051	0.1252
336.3152	0.1333
336.5252	0.1267
336.7352	0.1283
336.9452	0.1298
337.1552	0.1281
337.3652	0.1244
337.5751	0.1262
337.7851	0.1286
337.995	0.1276
338.2049	0.1283
338.4148	0.1299
338.6247	0.1244
338.8346	0.1308
339.0445	0.1339
339.2543	0.134
339.4642	0.1303
339.674	0.1346
339.8838	0.136
340.0936	0.1296
340.3034	0.1329
340.5132	0.1344
340.7229	0.133
340.9327	0.1322
341.1424	0.1338
341.3522	0.1461
341.5619	0.1456
341.7716	0.1392
341.9813	0.1387
342.1909	0.1425
342.4006	0.1462
342.6102	0.1378
342.8199	0.1377
343.0295	0.1415
343.2391	0.1405
343.4487	0.1483
343.6583	0.144
343.8679	0.145
344.0774	0.149
344.287	0.1391
344.4965	0.1477
344.706	0.1547
344.9155	0.1449
345.125	0.1499
345.3345	0.1476
345.544	0.1517
345.7534	0.1459
345.9629	0.1516
346.1723	0.1464
346.3817	0.1562
346.5911	0.1537
346.8005	0.1471
347.0099	0.1612
347.2193	0.1508
347.4286	0.1546
347.638	0.1518
347.8473	0.1538
348.0566	0.1555
348.2659	0.1604
348.4752	0.1595
348.6845	0.1581
348.8937	0.1654
349.103	0.1584
349.3122	0.1636
349.5214	0.1575
349.7306	0.1623
349.9398	0.1615
350.149	0.1637
350.3582	0.1539
350.5674	0.1696
350.7765	0.1656
350.9856	0.1637
351.1948	0.1598
351.4039	0.1619
351.613	0.1753
351.822	0.1691
352.0311	0.1661
352.2402	0.1711
352.4492	0.168
352.6582	0.1709
352.8672	0.1645
353.0762	0.1678
353.2852	0.1762
353.4942	0.1689
353.7032	0.1713
353.9121	0.1786
354.1211	0.1672
354.33	0.1832
354.5389	0.1804
354.7478	0.1831
354.9567	0.1811
355.1655	0.1827
355.3744	0.1729
355.5833	0.1826
355.7921	0.1773
356.0009	0.1754
356.2097	0.1861
356.4185	0.1884
356.6273	0.1791
356.8361	0.1951
357.0448	0.1914
357.2536	0.1826
357.4623	0.1894
357.671	0.1884
357.8797	0.1983
358.0884	0.1957
358.2971	0.1879
358.5057	0.2021
358.7144	0.2022
358.923	0.1948
359.1316	0.1919
359.3402	0.1986
359.5488	0.1993
359.7574	0.2006
359.966	0.2003
360.1746	0.1947
360.3831	0.2099
360.5916	0.1999
360.8002	0.2108
361.0087	0.2182
361.2172	0.216
361.4256	0.2047
361.6341	0.207
361.8426	0.2041
362.051	0.2151
362.2594	0.216
362.4678	0.2144
362.6762	0.2206
362.8846	0.2206
363.093	0.2163
363.3014	0.2269
363.5097	0.221
363.718	0.2302
363.9264	0.2225
364.1347	0.2272
364.343	0.2323
364.5513	0.2241
364.7595	0.2323
364.9678	0.2286
365.176	0.2306
365.3842	0.2281
365.5925	0.2238
365.8007	0.2349
366.0089	0.2258
366.217	0.2294
366.4252	0.2392
366.6333	0.2332
366.8415	0.2339
367.0496	0.2312
367.2577	0.2416
367.4658	0.2459
367.6739	0.2432
367.882	0.2461
368.09	0.2397
368.2981	0.2432
368.5061	0.251
368.7141	0.2428
368.9221	0.2514
369.1301	0.2441
369.3381	0.262
369.5461	0.2605
369.754	0.2496
369.962	0.2558
370.1699	0.2654
370.3778	0.2593
370.5857	0.2611
370.7936	0.2571
371.0015	0.2572
371.2093	0.2624
371.4172	0.2678
371.625	0.2683
371.8328	0.2635
372.0406	0.2573
372.2484	0.2541
372.4562	0.2632
372.664	0.2771
372.8717	0.2748
373.0795	0.2693
373.2872	0.2692
373.4949	0.2769
373.7026	0.2706
373.9103	0.27
374.118	0.2701
374.3256	0.2829
374.5333	0.2786
374.7409	0.2704
374.9485	0.2802
375.1561	0.2784
375.3637	0.2781
375.5713	0.2665
375.7789	0.2737
375.9864	0.2768
376.194	0.2817
376.4015	0.2793
376.609	0.2901
376.8165	0.2884
377.024	0.2799
377.2315	0.2885
377.4389	0.2789
377.6464	0.2811
377.8538	0.2943
378.0612	0.2898
378.2686	0.297
378.476	0.2862
378.6834	0.2847
378.8908	0.2955
379.0981	0.3014
379.3055	0.2991
379.5128	0.3011
379.7201	0.2866
379.9274	0.2843
380.1347	0.3038
380.342	0.3026
380.5492	0.3026
380.7565	0.2926
380.9637	0.3005
381.1709	0.2968
381.3781	0.3017
381.5853	0.3016
381.7925	0.3002
381.9997	0.304
382.2068	0.2878
382.4139	0.3102
382.6211	0.3153
382.8282	0.3066
383.0353	0.3116
383.2424	0.31
383.4494	0.3132
383.6565	0.3099
383.8635	0.3243
384.0706	0.3076
384.2776	0.3252
384.4846	0.3073
384.6916	0.3106
384.8986	0.313
385.1055	0.3186
385.3125	0.3044
385.5194	0.3097
385.7263	0.2941
385.9333	0.3157
386.1402	0.3222
386.347	0.3049
386.5539	0.3175
386.7608	0.3141
386.9676	0.3197
387.1744	0.3163
387.3813	0.3137
387.5881	0.3079
387.7948	0.3097
388.0016	0.31
388.2084	0.3111
388.4151	0.3165
388.6219	0.3009
388.8286	0.3095
389.0353	0.2986
389.242	0.314
389.4487	0.3105
389.6553	0.3078
389.862	0.3007
390.0686	0.3171
390.2753	0.3129
390.4819	0.3105
390.6885	0.2946
390.8951	0.3079
391.1016	0.2988
391.3082	0.3004
391.5147	0.2959
391.7213	0.2949
391.9278	0.3041
392.1343	0.3045
392.3408	0.2917
392.5473	0.2946
392.7537	0.2911
392.9602	0.293
393.1666	0.2844
393.373	0.2906
393.5794	0.2911
393.7858	0.297
393.9922	0.2848
394.1986	0.2863
394.4049	0.2913
394.6113	0.2825
394.8176	0.2729
395.0239	0.2832
395.2302	0.2782
395.4365	0.291
395.6428	0.2871
395.8491	0.2804
396.0553	0.2679
396.2615	0.2681
396.4678	0.2727
396.674	0.2658
396.8802	0.2701
397.0863	0.269
397.2925	0.2748
397.4987	0.2671
397.7048	0.2797
397.9109	0.2728
398.117	0.267
398.3231	0.2757
398.5292	0.2776
398.7353	0.2663
398.9413	0.2744
399.1474	0.2749
399.3534	0.2724
399.5594	0.2686
399.7654	0.2626
399.9714	0.2646
400.1774	0.2645
400.3833	0.2662
400.5893	0.2619
400.7952	0.2613
401.0011	0.2587
401.207	0.2685
401.4129	0.2653
401.6188	0.2657
401.8247	0.2701
402.0305	0.259
402.2364	0.2664
402.4422	0.2732
402.648	0.2733
402.8538	0.2774
403.0596	0.2507
403.2654	0.2607
403.4711	0.2733
403.6768	0.2688
403.8826	0.2668
404.0883	0.2652
404.294	0.2785
404.4997	0.2674
404.7054	0.2755
404.911	0.2613
405.1167	0.271
405.3223	0.2734
405.5279	0.2743
405.7335	0.2603
405.9391	0.2666
406.1447	0.2707
406.3502	0.2771
406.5558	0.2781
406.7613	0.2708
406.9668	0.2701
407.1724	0.2769
407.3778	0.2599
407.5833	0.2734
407.7888	0.2731
407.9942	0.268
408.1997	0.2734
408.4051	0.2623
408.6105	0.2765
408.8159	0.2642
409.0213	0.2677
409.2267	0.2684
409.432	0.2713
409.6374	0.2685
409.8427	0.2696
410.048	0.2697
410.2533	0.2612
410.4586	0.2723
410.6639	0.261
410.8691	0.2742
411.0744	0.2577
411.2796	0.2701
411.4848	0.2635
411.69	0.2583
411.8952	0.2671
412.1004	0.2586
412.3056	0.2611
412.5107	0.2698
412.7158	0.273
412.921	0.2653
413.1261	0.2703
413.3312	0.2614
413.5362	0.2641
413.7413	0.2571
413.9464	0.2621
414.1514	0.2659
414.3564	0.2575
414.5614	0.266
414.7664	0.2558
414.9714	0.2645
415.1764	0.2685
415.3813	0.2533
415.5863	0.2632
415.7912	0.2559
415.9961	0.2546
416.201	0.2613
416.4059	0.2611
416.6108	0.2652
416.8156	0.2587
417.0205	0.2611
417.2253	0.2641
417.4301	0.2655
417.6349	0.2557
417.8397	0.2674
418.0445	0.2572
418.2492	0.2618
418.454	0.252
418.6587	0.2601
418.8634	0.2532
419.0681	0.2566
419.2728	0.2551
419.4775	0.2562
419.6822	0.253
419.8868	0.2473
420.0915	0.264
420.2961	0.2489
420.5007	0.247
420.7053	0.2546
420.9099	0.2389
421.1144	0.2437
421.319	0.2362
421.5235	0.232
421.728	0.2414
421.9325	0.2468
422.137	0.2442
422.3415	0.2346
422.546	0.2392
422.7504	0.2435
422.9549	0.2355
423.1593	0.2422
423.3637	0.2414
423.5681	0.241
423.7725	0.2351
423.9769	0.234
424.1812	0.2313
424.3856	0.2434
424.5899	0.2357
424.7942	0.2234
424.9985	0.2274
425.2028	0.2379
425.4071	0.2222
425.6113	0.2378
425.8156	0.2299
426.0198	0.2198
426.224	0.2293
426.4282	0.2234
426.6324	0.2216
426.8366	0.2214
427.0407	0.2196
