Data from D4ACN5uM480nmA_Absorbance_12-08-01-975.txt Node
Date: Fri Feb 21 12:08:01 GMT 2025
User: LASERRRRR
Spectrometer: FLMT03099
Trigger mode: 0
Integration Time (sec): 1.500000E-2
Scans to average: 1
Electric dark correction enabled: true
Nonlinearity correction enabled: false
Boxcar width: 0
XAxis mode: Wavelengths
Number of Pixels in Spectrum: 3648
>>>>>Begin Spectral Data<<<<<
179.3399	0.2679
179.5586	0.2679
179.7771	0.2679
179.9957	0.0795
180.2143	-0
180.4329	-0
180.6514	-0.1162
180.8699	-0.5139
181.0885	-0.2262
181.307	1.3971
181.5255	0.0974
181.744	-0
181.9625	1.3284
182.181	1.1591
182.3994	-0
182.6179	-0
182.8363	0.4865
183.0547	-0
183.2732	0.2749
183.4916	0.3853
183.71	0.1174
183.9284	0.2668
184.1467	-0.0884
184.3651	0.1456
184.5835	0.0235
184.8018	0.199
185.0201	0.2273
185.2385	0.2926
185.4568	0.2821
185.6751	0.1761
185.8934	0.2087
186.1117	0.1425
186.3299	0.3329
186.5482	0.1115
186.7664	0.24
186.9847	0.2091
187.2029	0.3006
187.4211	0.1484
187.6393	0.1694
187.8575	-0.0141
188.0757	0.6496
188.2939	0.149
188.512	0.3336
188.7302	0.0361
188.9483	0.2863
189.1665	0.4048
189.3846	0.1785
189.6027	-0.0841
189.8208	0.1194
190.0389	0.2074
190.257	0.2315
190.475	0.0003
190.6931	0.3564
190.9111	0.284
191.1292	0.2921
191.3472	0.133
191.5652	0.217
191.7832	0.5212
192.0012	0.4877
192.2192	0.3898
192.4371	0.3925
192.6551	0.29
192.873	0.2313
193.091	0.3826
193.3089	0.2812
193.5268	0.7888
193.7447	0.4734
193.9626	0.3495
194.1805	0.3139
194.3984	0.3687
194.6162	0.6144
194.8341	0.5149
195.0519	0.5116
195.2697	0.4817
195.4875	0.8226
195.7054	0.5049
195.9231	0.4661
196.1409	0.5323
196.3587	0.6053
196.5765	0.4778
196.7942	0.6008
197.012	0.7411
197.2297	0.5029
197.4474	0.8251
197.6651	0.6749
197.8828	0.6789
198.1005	0.7277
198.3182	0.5881
198.5358	0.5785
198.7535	0.7077
198.9711	0.705
199.1888	0.6058
199.4064	0.6104
199.624	0.6002
199.8416	0.5796
200.0592	0.5836
200.2767	0.5408
200.4943	0.6061
200.7119	0.6001
200.9294	0.5885
201.1469	0.7134
201.3645	0.6277
201.582	0.5217
201.7995	0.6853
202.017	0.5743
202.2344	0.6209
202.4519	0.5507
202.6694	0.5537
202.8868	0.6034
203.1042	0.5387
203.3217	0.5322
203.5391	0.5213
203.7565	0.4858
203.9739	0.5497
204.1913	0.4915
204.4086	0.5577
204.626	0.5657
204.8433	0.51
205.0607	0.5136
205.278	0.5357
205.4953	0.4643
205.7126	0.4709
205.9299	0.4445
206.1472	0.4915
206.3644	0.4674
206.5817	0.4929
206.7989	0.4683
207.0162	0.4458
207.2334	0.449
207.4506	0.4532
207.6678	0.4533
207.885	0.4861
208.1022	0.4383
208.3194	0.4311
208.5365	0.4443
208.7537	0.4392
208.9708	0.438
209.1879	0.4238
209.405	0.4095
209.6222	0.4331
209.8392	0.4207
210.0563	0.4266
210.2734	0.388
210.4905	0.419
210.7075	0.4339
210.9245	0.4221
211.1416	0.4305
211.3586	0.4075
211.5756	0.4217
211.7926	0.4117
212.0096	0.3878
212.2265	0.4059
212.4435	0.4118
212.6604	0.3971
212.8774	0.4137
213.0943	0.4137
213.3112	0.3845
213.5281	0.4461
213.745	0.3981
213.9619	0.3849
214.1788	0.3776
214.3956	0.4177
214.6125	0.398
214.8293	0.4029
215.0461	0.4124
215.2629	0.4084
215.4798	0.395
215.6965	0.3883
215.9133	0.4034
216.1301	0.4048
216.3469	0.4134
216.5636	0.4032
216.7803	0.4014
216.9971	0.4128
217.2138	0.3946
217.4305	0.4338
217.6472	0.4274
217.8639	0.4152
218.0805	0.416
218.2972	0.4079
218.5138	0.4161
218.7305	0.4128
218.9471	0.4039
219.1637	0.4185
219.3803	0.4174
219.5969	0.4165
219.8135	0.4293
220.0301	0.4039
220.2466	0.4242
220.4632	0.4084
220.6797	0.4353
220.8962	0.4395
221.1127	0.4324
221.3292	0.4317
221.5457	0.4354
221.7622	0.4355
221.9787	0.451
222.1951	0.4528
222.4116	0.4583
222.628	0.4425
222.8444	0.4416
223.0608	0.4443
223.2772	0.4311
223.4936	0.4471
223.71	0.4439
223.9264	0.4441
224.1427	0.4478
224.3591	0.4672
224.5754	0.4688
224.7917	0.4611
225.008	0.4637
225.2243	0.478
225.4406	0.4661
225.6569	0.4445
225.8732	0.4636
226.0894	0.4738
226.3057	0.4443
226.5219	0.4909
226.7381	0.465
226.9543	0.4734
227.1705	0.4712
227.3867	0.4978
227.6029	0.4732
227.8191	0.4813
228.0352	0.5088
228.2513	0.5009
228.4675	0.4916
228.6836	0.4928
228.8997	0.4934
229.1158	0.4889
229.3319	0.5138
229.548	0.4965
229.764	0.5099
229.9801	0.4987
230.1961	0.5079
230.4121	0.5171
230.6282	0.5099
230.8442	0.519
231.0602	0.5207
231.2761	0.5252
231.4921	0.5138
231.7081	0.5047
231.924	0.5169
232.14	0.5124
232.3559	0.5356
232.5718	0.5319
232.7877	0.5309
233.0036	0.525
233.2195	0.5273
233.4353	0.5406
233.6512	0.5377
233.867	0.5314
234.0829	0.5256
234.2987	0.5174
234.5145	0.5394
234.7303	0.5367
234.9461	0.5335
235.1619	0.5315
235.3776	0.536
235.5934	0.5457
235.8091	0.5319
236.0249	0.5384
236.2406	0.5411
236.4563	0.5332
236.672	0.5382
236.8877	0.5336
237.1034	0.5412
237.319	0.5389
237.5347	0.5291
237.7503	0.527
237.966	0.5367
238.1816	0.5338
238.3972	0.5346
238.6128	0.5422
238.8284	0.5314
239.0439	0.5409
239.2595	0.5338
239.475	0.5259
239.6906	0.5287
239.9061	0.5295
240.1216	0.5399
240.3371	0.5221
240.5526	0.5255
240.7681	0.5194
240.9836	0.5169
241.199	0.5195
241.4145	0.5093
241.6299	0.5028
241.8453	0.489
242.0607	0.4852
242.2761	0.4843
242.4915	0.4788
242.7069	0.4665
242.9223	0.4617
243.1376	0.4539
243.353	0.4479
243.5683	0.4465
243.7836	0.4287
243.9989	0.4205
244.2142	0.4124
244.4295	0.3964
244.6448	0.3969
244.86	0.3947
245.0753	0.3827
245.2905	0.3772
245.5057	0.3687
245.721	0.3539
245.9362	0.3547
246.1514	0.3365
246.3665	0.3366
246.5817	0.3352
246.7969	0.3246
247.012	0.3192
247.2271	0.3093
247.4423	0.3049
247.6574	0.3055
247.8725	0.302
248.0876	0.294
248.3026	0.2876
248.5177	0.284
248.7328	0.2738
248.9478	0.2695
249.1628	0.2611
249.3779	0.2673
249.5929	0.2595
249.8079	0.2543
250.0228	0.2522
250.2378	0.2547
250.4528	0.2462
250.6677	0.2479
250.8827	0.2436
251.0976	0.243
251.3125	0.2427
251.5274	0.2335
251.7423	0.2274
251.9572	0.219
252.172	0.2241
252.3869	0.2212
252.6017	0.2139
252.8166	0.2152
253.0314	0.2201
253.2462	0.2141
253.461	0.2154
253.6758	0.206
253.8906	0.2092
254.1053	0.2048
254.3201	0.2022
254.5348	0.204
254.7496	0.2001
254.9643	0.2064
255.179	0.2005
255.3937	0.1987
255.6083	0.2001
255.823	0.2029
256.0377	0.205
256.2523	0.2022
256.467	0.1943
256.6816	0.2024
256.8962	0.1977
257.1108	0.1968
257.3254	0.1943
257.54	0.195
257.7545	0.1851
257.9691	0.1918
258.1836	0.192
258.3981	0.1888
258.6127	0.1844
258.8272	0.1871
259.0417	0.1825
259.2561	0.1885
259.4706	0.1887
259.6851	0.1817
259.8995	0.1808
260.114	0.1879
260.3284	0.1801
260.5428	0.1809
260.7572	0.183
260.9716	0.186
261.186	0.1841
261.4003	0.1898
261.6147	0.1833
261.829	0.1847
262.0433	0.1797
262.2577	0.1868
262.472	0.1851
262.6863	0.1872
262.9005	0.1852
263.1148	0.1816
263.3291	0.185
263.5433	0.1871
263.7576	0.1778
263.9718	0.1857
264.186	0.1786
264.4002	0.1848
264.6144	0.1882
264.8286	0.1888
265.0427	0.1891
265.2569	0.1859
265.471	0.1879
265.6851	0.1822
265.8993	0.1886
266.1134	0.1872
266.3275	0.1858
266.5415	0.1868
266.7556	0.1774
266.9697	0.1852
267.1837	0.1869
267.3978	0.189
267.6118	0.1846
267.8258	0.1904
268.0398	0.1872
268.2538	0.1883
268.4677	0.1815
268.6817	0.1831
268.8957	0.1811
269.1096	0.1799
269.3235	0.1885
269.5374	0.1779
269.7514	0.1849
269.9652	0.185
270.1791	0.183
270.393	0.1786
270.6068	0.173
270.8207	0.1757
271.0345	0.1771
271.2483	0.1742
271.4622	0.1765
271.676	0.1744
271.8897	0.1731
272.1035	0.1777
272.3173	0.17
272.531	0.1766
272.7448	0.17
272.9585	0.1762
273.1722	0.1758
273.3859	0.1759
273.5996	0.1757
273.8133	0.1738
274.0269	0.1717
274.2406	0.175
274.4542	0.1631
274.6679	0.1712
274.8815	0.1738
275.0951	0.1743
275.3087	0.1779
275.5223	0.1721
275.7358	0.1834
275.9494	0.1722
276.1629	0.177
276.3765	0.1755
276.59	0.1797
276.8035	0.1795
277.017	0.18
277.2305	0.1784
277.444	0.1804
277.6574	0.1755
277.8709	0.1762
278.0843	0.1792
278.2978	0.1798
278.5112	0.1816
278.7246	0.1801
278.938	0.1804
279.1513	0.1828
279.3647	0.1781
279.5781	0.174
279.7914	0.1876
280.0047	0.1752
280.2181	0.1808
280.4314	0.1815
280.6447	0.1875
280.8579	0.1783
281.0712	0.1782
281.2845	0.1837
281.4977	0.1891
281.711	0.1817
281.9242	0.1784
282.1374	0.184
282.3506	0.19
282.5638	0.186
282.7769	0.1856
282.9901	0.1862
283.2033	0.1866
283.4164	0.186
283.6295	0.1785
283.8426	0.1841
284.0557	0.1861
284.2688	0.1899
284.4819	0.1956
284.695	0.1877
284.908	0.1947
285.1211	0.1901
285.3341	0.1924
285.5471	0.1929
285.7601	0.1963
285.9731	0.1859
286.1861	0.1961
286.3991	0.1947
286.612	0.191
286.825	0.1889
287.0379	0.1975
287.2508	0.1948
287.4637	0.1918
287.6766	0.1974
287.8895	0.1929
288.1024	0.1966
288.3152	0.1947
288.5281	0.1947
288.7409	0.196
288.9538	0.1972
289.1666	0.2012
289.3794	0.1979
289.5922	0.2015
289.8049	0.2032
290.0177	0.2012
290.2304	0.2025
290.4432	0.1969
290.6559	0.1898
290.8686	0.2009
291.0813	0.1981
291.294	0.2074
291.5067	0.2061
291.7194	0.1967
291.932	0.1961
292.1447	0.2034
292.3573	0.1964
292.5699	0.1996
292.7825	0.1973
292.9951	0.1991
293.2077	0.1996
293.4203	0.2002
293.6328	0.1937
293.8454	0.1977
294.0579	0.2047
294.2704	0.2026
294.4829	0.2051
294.6954	0.1935
294.9079	0.2042
295.1204	0.1997
295.3328	0.1956
295.5453	0.1981
295.7577	0.1956
295.9701	0.1975
296.1825	0.1993
296.3949	0.2006
296.6073	0.2035
296.8197	0.1983
297.0321	0.205
297.2444	0.1992
297.4567	0.1999
297.6691	0.1972
297.8814	0.2022
298.0937	0.2015
298.306	0.2009
298.5182	0.1994
298.7305	0.1977
298.9428	0.1981
299.155	0.2022
299.3672	0.1985
299.5794	0.1892
299.7916	0.1993
300.0038	0.1975
300.216	0.1978
300.4282	0.1927
300.6403	0.1976
300.8525	0.2018
301.0646	0.195
301.2767	0.1974
301.4888	0.1994
301.7009	0.1963
301.913	0.2079
302.125	0.2028
302.3371	0.1975
302.5491	0.1955
302.7612	0.1999
302.9732	0.1916
303.1852	0.1951
303.3972	0.1915
303.6092	0.2003
303.8211	0.1881
304.0331	0.1956
304.245	0.1919
304.457	0.1932
304.6689	0.1933
304.8808	0.1888
305.0927	0.1897
305.3046	0.1859
305.5164	0.1865
305.7283	0.1906
305.9401	0.1819
306.152	0.1827
306.3638	0.1784
306.5756	0.1843
306.7874	0.183
306.9992	0.1757
307.2109	0.171
307.4227	0.1742
307.6344	0.1745
307.8462	0.1635
308.0579	0.1646
308.2696	0.1657
308.4813	0.1586
308.693	0.1661
308.9046	0.1624
309.1163	0.1581
309.328	0.1562
309.5396	0.1583
309.7512	0.1603
309.9628	0.1499
310.1744	0.1594
310.386	0.1458
310.5976	0.1513
310.8091	0.1479
311.0207	0.1459
311.2322	0.1484
311.4437	0.1468
311.6552	0.1462
311.8667	0.139
312.0782	0.141
312.2897	0.1399
312.5012	0.1389
312.7126	0.1314
312.924	0.1338
313.1355	0.1382
313.3469	0.1303
313.5583	0.1334
313.7696	0.1259
313.981	0.1287
314.1924	0.1275
314.4037	0.1283
314.6151	0.1271
314.8264	0.1249
315.0377	0.1291
315.249	0.1265
315.4603	0.1248
315.6716	0.1223
315.8828	0.122
316.0941	0.1209
316.3053	0.1243
316.5165	0.1225
316.7277	0.1222
316.9389	0.123
317.1501	0.121
317.3613	0.1233
317.5724	0.1199
317.7836	0.1158
317.9947	0.1098
318.2058	0.1176
318.417	0.1162
318.6281	0.1157
318.8391	0.1208
319.0502	0.1153
319.2613	0.1125
319.4723	0.1179
319.6834	0.1219
319.8944	0.1186
320.1054	0.1172
320.3164	0.118
320.5274	0.1133
320.7383	0.1118
320.9493	0.1092
321.1602	0.1122
321.3712	0.1181
321.5821	0.1199
321.793	0.1134
322.0039	0.1161
322.2148	0.1165
322.4257	0.1211
322.6365	0.1095
322.8474	0.1153
323.0582	0.1137
323.269	0.1162
323.4798	0.1176
323.6906	0.119
323.9014	0.1163
324.1122	0.1109
324.3229	0.1163
324.5337	0.1234
324.7444	0.1186
324.9551	0.1208
325.1658	0.1175
325.3765	0.1222
325.5872	0.1153
325.7979	0.1149
326.0085	0.1172
326.2192	0.1131
326.4298	0.1193
326.6404	0.1221
326.851	0.1231
327.0616	0.1263
327.2722	0.1265
327.4828	0.1188
327.6933	0.1218
327.9039	0.1232
328.1144	0.1161
328.3249	0.1183
328.5354	0.1206
328.7459	0.1224
328.9564	0.1281
329.1669	0.1207
329.3773	0.1148
329.5878	0.1251
329.7982	0.1254
330.0086	0.1243
330.219	0.1202
330.4294	0.1268
330.6398	0.1263
330.8502	0.1269
331.0605	0.1258
331.2708	0.1253
331.4812	0.1227
331.6915	0.1149
331.9018	0.1221
332.1121	0.1284
332.3224	0.1252
332.5326	0.1213
332.7429	0.1177
332.9531	0.1238
333.1633	0.1271
333.3735	0.128
333.5837	0.1264
333.7939	0.1275
334.0041	0.1248
334.2143	0.1317
334.4244	0.1221
334.6346	0.1227
334.8447	0.1286
335.0548	0.1255
335.2649	0.1279
335.475	0.1227
335.685	0.1256
335.8951	0.1305
336.1051	0.1275
336.3152	0.1335
336.5252	0.1296
336.7352	0.1196
336.9452	0.1289
337.1552	0.1291
337.3652	0.126
337.5751	0.1234
337.7851	0.127
337.995	0.1281
338.2049	0.1283
338.4148	0.1288
338.6247	0.1277
338.8346	0.1304
339.0445	0.1362
339.2543	0.1389
339.4642	0.1398
339.674	0.1312
339.8838	0.1342
340.0936	0.1393
340.3034	0.1325
340.5132	0.1316
340.7229	0.1354
340.9327	0.1337
341.1424	0.1314
341.3522	0.1387
341.5619	0.1391
341.7716	0.1413
341.9813	0.1457
342.1909	0.1396
342.4006	0.1457
342.6102	0.1389
342.8199	0.1338
343.0295	0.1467
343.2391	0.1385
343.4487	0.1486
343.6583	0.1481
343.8679	0.1419
344.0774	0.1405
344.287	0.1424
344.4965	0.15
344.706	0.1514
344.9155	0.1481
345.125	0.1487
345.3345	0.146
345.544	0.1444
345.7534	0.1508
345.9629	0.1492
346.1723	0.1551
346.3817	0.156
346.5911	0.1552
346.8005	0.1509
347.0099	0.1529
347.2193	0.1496
347.4286	0.1488
347.638	0.1533
347.8473	0.1572
348.0566	0.1574
348.2659	0.1571
348.4752	0.1572
348.6845	0.168
348.8937	0.1574
349.103	0.1568
349.3122	0.1647
349.5214	0.1556
349.7306	0.1594
349.9398	0.1592
350.149	0.1609
350.3582	0.1613
350.5674	0.1629
350.7765	0.1651
350.9856	0.1601
351.1948	0.1638
351.4039	0.1707
351.613	0.1758
351.822	0.1661
352.0311	0.1653
352.2402	0.1753
352.4492	0.1663
352.6582	0.1693
352.8672	0.173
353.0762	0.1771
353.2852	0.1704
353.4942	0.1739
353.7032	0.1772
353.9121	0.1741
354.1211	0.1694
354.33	0.1815
354.5389	0.1847
354.7478	0.1801
354.9567	0.1741
355.1655	0.1771
355.3744	0.1774
355.5833	0.1801
355.7921	0.1801
356.0009	0.1845
356.2097	0.1877
356.4185	0.1895
356.6273	0.1833
356.8361	0.1915
357.0448	0.1808
357.2536	0.1911
357.4623	0.1866
357.671	0.1891
357.8797	0.1956
358.0884	0.1814
358.2971	0.194
358.5057	0.1864
358.7144	0.1991
358.923	0.1926
359.1316	0.1849
359.3402	0.2007
359.5488	0.1981
359.7574	0.201
359.966	0.2034
360.1746	0.1902
360.3831	0.2085
360.5916	0.1977
360.8002	0.2148
361.0087	0.2185
361.2172	0.2076
361.4256	0.2048
361.6341	0.2178
361.8426	0.2093
362.051	0.2111
362.2594	0.2161
362.4678	0.2121
362.6762	0.2209
362.8846	0.2244
363.093	0.2103
363.3014	0.2218
363.5097	0.2166
363.718	0.2352
363.9264	0.2154
364.1347	0.227
364.343	0.2283
364.5513	0.2272
364.7595	0.2331
364.9678	0.2252
365.176	0.2292
365.3842	0.2358
365.5925	0.2369
365.8007	0.233
366.0089	0.2273
366.217	0.234
366.4252	0.2373
366.6333	0.2364
366.8415	0.2422
367.0496	0.2448
367.2577	0.2426
367.4658	0.2406
367.6739	0.2412
367.882	0.2465
368.09	0.245
368.2981	0.2428
368.5061	0.2455
368.7141	0.2507
368.9221	0.2518
369.1301	0.2484
369.3381	0.2537
369.5461	0.252
369.754	0.2584
369.962	0.2533
370.1699	0.2602
370.3778	0.2512
370.5857	0.2619
370.7936	0.26
371.0015	0.2595
371.2093	0.2572
371.4172	0.2658
371.625	0.2664
371.8328	0.2676
372.0406	0.2557
372.2484	0.2593
372.4562	0.2606
372.664	0.2636
372.8717	0.269
373.0795	0.2755
373.2872	0.2711
373.4949	0.2814
373.7026	0.2745
373.9103	0.268
374.118	0.2726
374.3256	0.2835
374.5333	0.2746
374.7409	0.2633
374.9485	0.2731
375.1561	0.2828
375.3637	0.2735
375.5713	0.2759
375.7789	0.2703
375.9864	0.2855
376.194	0.2909
376.4015	0.2838
376.609	0.2844
376.8165	0.2886
377.024	0.2836
377.2315	0.2878
377.4389	0.2788
377.6464	0.2831
377.8538	0.2879
378.0612	0.2825
378.2686	0.2953
378.476	0.283
378.6834	0.293
378.8908	0.2869
379.0981	0.3005
379.3055	0.3092
379.5128	0.2939
379.7201	0.3003
379.9274	0.2882
380.1347	0.2947
380.342	0.3052
380.5492	0.2929
380.7565	0.3026
380.9637	0.3016
381.1709	0.2978
381.3781	0.3087
381.5853	0.2995
381.7925	0.308
381.9997	0.3127
382.2068	0.2928
382.4139	0.3062
382.6211	0.314
382.8282	0.3077
383.0353	0.312
383.2424	0.3116
383.4494	0.3165
383.6565	0.3023
383.8635	0.3282
384.0706	0.3106
384.2776	0.3165
384.4846	0.3089
384.6916	0.3127
384.8986	0.3172
385.1055	0.3159
385.3125	0.302
385.5194	0.3103
385.7263	0.3165
385.9333	0.3151
386.1402	0.3207
386.347	0.3174
386.5539	0.3166
386.7608	0.3143
386.9676	0.3054
387.1744	0.3219
387.3813	0.3158
387.5881	0.3142
387.7948	0.3126
388.0016	0.3145
388.2084	0.3156
388.4151	0.3165
388.6219	0.3042
388.8286	0.3085
389.0353	0.3108
389.242	0.2984
389.4487	0.3109
389.6553	0.3042
389.862	0.2972
390.0686	0.3079
390.2753	0.3113
390.4819	0.3108
390.6885	0.2968
390.8951	0.3031
391.1016	0.309
391.3082	0.2952
391.5147	0.3032
391.7213	0.3034
391.9278	0.3026
392.1343	0.2928
392.3408	0.2924
392.5473	0.2913
392.7537	0.2916
392.9602	0.2961
393.1666	0.2823
393.373	0.2895
393.5794	0.2851
393.7858	0.2801
393.9922	0.2961
394.1986	0.2822
394.4049	0.2902
394.6113	0.2867
394.8176	0.277
395.0239	0.2758
395.2302	0.2813
395.4365	0.2773
395.6428	0.2779
395.8491	0.2799
396.0553	0.2668
396.2615	0.2707
396.4678	0.27
396.674	0.2687
396.8802	0.2598
397.0863	0.279
397.2925	0.2619
397.4987	0.2717
397.7048	0.2763
397.9109	0.2759
398.117	0.2793
398.3231	0.2717
398.5292	0.2758
398.7353	0.2638
398.9413	0.2682
399.1474	0.2725
399.3534	0.2702
399.5594	0.2654
399.7654	0.2743
399.9714	0.2566
400.1774	0.2602
400.3833	0.2683
400.5893	0.2652
400.7952	0.2613
401.0011	0.2642
401.207	0.27
401.4129	0.277
401.6188	0.2725
401.8247	0.271
402.0305	0.2672
402.2364	0.2744
402.4422	0.2653
402.648	0.2674
402.8538	0.276
403.0596	0.2511
403.2654	0.2676
403.4711	0.2609
403.6768	0.2732
403.8826	0.2724
404.0883	0.2601
404.294	0.2671
404.4997	0.263
404.7054	0.2699
404.911	0.2724
405.1167	0.2707
405.3223	0.2685
405.5279	0.2786
405.7335	0.2634
405.9391	0.2589
406.1447	0.2623
406.3502	0.269
406.5558	0.2719
406.7613	0.2745
406.9668	0.2681
407.1724	0.2735
407.3778	0.2552
407.5833	0.2668
407.7888	0.2717
407.9942	0.2632
408.1997	0.274
408.4051	0.2586
408.6105	0.27
408.8159	0.2726
409.0213	0.2614
409.2267	0.2533
409.432	0.2615
409.6374	0.2747
409.8427	0.2693
410.048	0.2594
410.2533	0.2649
410.4586	0.2704
410.6639	0.2753
410.8691	0.2807
411.0744	0.2671
411.2796	0.2688
411.4848	0.268
411.69	0.2649
411.8952	0.2664
412.1004	0.2605
412.3056	0.2604
412.5107	0.2746
412.7158	0.2654
412.921	0.2653
413.1261	0.2699
413.3312	0.2606
413.5362	0.2594
413.7413	0.2567
413.9464	0.2733
414.1514	0.2597
414.3564	0.2653
414.5614	0.2673
414.7664	0.2616
414.9714	0.2713
415.1764	0.2613
415.3813	0.2527
415.5863	0.2659
415.7912	0.2614
415.9961	0.2591
416.201	0.2664
416.4059	0.2563
416.6108	0.2524
416.8156	0.2582
417.0205	0.2517
417.2253	0.2702
417.4301	0.2656
417.6349	0.2582
417.8397	0.2588
418.0445	0.2547
418.2492	0.2565
418.454	0.2595
418.6587	0.2545
418.8634	0.2574
419.0681	0.2544
419.2728	0.2474
419.4775	0.2616
419.6822	0.2457
419.8868	0.2513
420.0915	0.2514
420.2961	0.2421
420.5007	0.2519
420.7053	0.2534
420.9099	0.2362
421.1144	0.2389
421.319	0.2434
421.5235	0.2372
421.728	0.2444
421.9325	0.2425
422.137	0.2373
422.3415	0.2356
422.546	0.2444
422.7504	0.2386
422.9549	0.2462
423.1593	0.243
423.3637	0.2319
423.5681	0.2378
423.7725	0.2309
423.9769	0.2367
424.1812	0.2382
424.3856	0.2343
424.5899	0.2298
424.7942	0.2216
424.9985	0.2296
425.2028	0.2287
425.4071	0.222
425.6113	0.2261
425.8156	0.2304
426.0198	0.2195
426.224	0.2271
426.4282	0.2254
426.6324	0.216
426.8366	0.2215
