Data from D4ACN5uM480nmA_Absorbance_12-08-01-225.txt Node
Date: Fri Feb 21 12:08:01 GMT 2025
User: LASERRRRR
Spectrometer: FLMT03099
Trigger mode: 0
Integration Time (sec): 1.500000E-2
Scans to average: 1
Electric dark correction enabled: true
Nonlinearity correction enabled: false
Boxcar width: 0
XAxis mode: Wavelengths
Number of Pixels in Spectrum: 3648
>>>>>Begin Spectral Data<<<<<
179.3399	-0.0241
179.5586	-0.0241
179.7771	-0.0241
179.9957	-0.1218
180.2143	-0.421
180.4329	-0
180.6514	-0
180.8699	-0.1943
181.0885	0.1581
181.307	0.2757
181.5255	0.3092
181.744	-0
181.9625	0.0659
182.181	-0.1361
182.3994	-0
182.6179	-0
182.8363	-0
183.0547	-0.5482
183.2732	0.2839
183.4916	0.1961
183.71	0.137
183.9284	0.3199
184.1467	0.9981
184.3651	0.5584
184.5835	0.3895
184.8018	0.1911
185.0201	0.3764
185.2385	0.1469
185.4568	0.7587
185.6751	0.2541
185.8934	0.2274
186.1117	0.0568
186.3299	0.2239
186.5482	0.1257
186.7664	0.6118
186.9847	0.3657
187.2029	0.7251
187.4211	0.1423
187.6393	0.3766
187.8575	0.1767
188.0757	0.5068
188.2939	0.2385
188.512	0.1282
188.7302	0.2438
188.9483	0.5398
189.1665	0.5539
189.3846	0.1816
189.6027	0.1355
189.8208	0.2652
190.0389	0.32
190.257	0.4384
190.475	0.0513
190.6931	0.396
190.9111	0.4442
191.1292	0.1899
191.3472	0.2887
191.5652	0.3489
191.7832	0.3884
192.0012	0.342
192.2192	0.3556
192.4371	0.4855
192.6551	0.3024
192.873	0.4605
193.091	0.5875
193.3089	0.1314
193.5268	0.5659
193.7447	0.3694
193.9626	0.4409
194.1805	0.3535
194.3984	0.5206
194.6162	0.3519
194.8341	0.6998
195.0519	0.4891
195.2697	0.5869
195.4875	0.5387
195.7054	0.5555
195.9231	0.507
196.1409	0.7263
196.3587	0.5681
196.5765	0.5045
196.7942	0.6711
197.012	0.7384
197.2297	0.5298
197.4474	0.8116
197.6651	0.6121
197.8828	0.5993
198.1005	0.7
198.3182	0.5218
198.5358	0.5872
198.7535	0.6384
198.9711	0.6051
199.1888	0.67
199.4064	0.576
199.624	0.5989
199.8416	0.5416
200.0592	0.6851
200.2767	0.6667
200.4943	0.6107
200.7119	0.58
200.9294	0.5653
201.1469	0.6853
201.3645	0.6364
201.582	0.5429
201.7995	0.5347
202.017	0.5877
202.2344	0.5654
202.4519	0.5907
202.6694	0.5706
202.8868	0.5542
203.1042	0.5319
203.3217	0.5373
203.5391	0.5472
203.7565	0.4803
203.9739	0.5199
204.1913	0.5135
204.4086	0.539
204.626	0.5147
204.8433	0.5077
205.0607	0.4769
205.278	0.5256
205.4953	0.4622
205.7126	0.4658
205.9299	0.4753
206.1472	0.447
206.3644	0.4578
206.5817	0.4933
206.7989	0.4551
207.0162	0.4447
207.2334	0.4263
207.4506	0.4484
207.6678	0.4418
207.885	0.4573
208.1022	0.4553
208.3194	0.448
208.5365	0.4674
208.7537	0.4451
208.9708	0.455
209.1879	0.424
209.405	0.4643
209.6222	0.4106
209.8392	0.3969
210.0563	0.4226
210.2734	0.3975
210.4905	0.3884
210.7075	0.4387
210.9245	0.4268
211.1416	0.3875
211.3586	0.4204
211.5756	0.4223
211.7926	0.4167
212.0096	0.4315
212.2265	0.4295
212.4435	0.4206
212.6604	0.4185
212.8774	0.4143
213.0943	0.3967
213.3112	0.377
213.5281	0.4213
213.745	0.3876
213.9619	0.3821
214.1788	0.4066
214.3956	0.4232
214.6125	0.4138
214.8293	0.4291
215.0461	0.4073
215.2629	0.4217
215.4798	0.3858
215.6965	0.4013
215.9133	0.4265
216.1301	0.4026
216.3469	0.3946
216.5636	0.4171
216.7803	0.3976
216.9971	0.4079
217.2138	0.4039
217.4305	0.408
217.6472	0.4263
217.8639	0.4086
218.0805	0.404
218.2972	0.4112
218.5138	0.4015
218.7305	0.3913
218.9471	0.3855
219.1637	0.4009
219.3803	0.4249
219.5969	0.4227
219.8135	0.4184
220.0301	0.4261
220.2466	0.4267
220.4632	0.423
220.6797	0.4233
220.8962	0.4273
221.1127	0.4159
221.3292	0.4392
221.5457	0.4141
221.7622	0.4366
221.9787	0.4445
222.1951	0.4316
222.4116	0.4467
222.628	0.4423
222.8444	0.4277
223.0608	0.4286
223.2772	0.4268
223.4936	0.438
223.71	0.4508
223.9264	0.4406
224.1427	0.4431
224.3591	0.4494
224.5754	0.4703
224.7917	0.4661
225.008	0.4513
225.2243	0.4587
225.4406	0.4627
225.6569	0.4601
225.8732	0.4649
226.0894	0.4772
226.3057	0.4504
226.5219	0.4758
226.7381	0.4662
226.9543	0.4818
227.1705	0.4743
227.3867	0.4801
227.6029	0.4847
227.8191	0.4859
228.0352	0.4991
228.2513	0.501
228.4675	0.4883
228.6836	0.4901
228.8997	0.4924
229.1158	0.4821
229.3319	0.479
229.548	0.49
229.764	0.5068
229.9801	0.5088
230.1961	0.4948
230.4121	0.507
230.6282	0.5074
230.8442	0.5036
231.0602	0.5048
231.2761	0.5167
231.4921	0.5167
231.7081	0.5149
231.924	0.5165
232.14	0.521
232.3559	0.5263
232.5718	0.535
232.7877	0.5357
233.0036	0.5167
233.2195	0.5349
233.4353	0.531
233.6512	0.5418
233.867	0.529
234.0829	0.5259
234.2987	0.5364
234.5145	0.5318
234.7303	0.5404
234.9461	0.5422
235.1619	0.5359
235.3776	0.5233
235.5934	0.5309
235.8091	0.538
236.0249	0.5365
236.2406	0.5448
236.4563	0.5356
236.672	0.5317
236.8877	0.5316
237.1034	0.521
237.319	0.5328
237.5347	0.5306
237.7503	0.5327
237.966	0.5331
238.1816	0.5285
238.3972	0.5285
238.6128	0.5358
238.8284	0.5442
239.0439	0.5352
239.2595	0.529
239.475	0.5342
239.6906	0.5305
239.9061	0.5308
240.1216	0.5375
240.3371	0.5194
240.5526	0.501
240.7681	0.5324
240.9836	0.5104
241.199	0.514
241.4145	0.5085
241.6299	0.5022
241.8453	0.487
242.0607	0.4899
242.2761	0.4833
242.4915	0.4652
242.7069	0.4637
242.9223	0.4724
243.1376	0.4568
243.353	0.446
243.5683	0.4411
243.7836	0.4247
243.9989	0.4241
244.2142	0.4148
244.4295	0.4111
244.6448	0.3954
244.86	0.394
245.0753	0.3831
245.2905	0.3743
245.5057	0.3728
245.721	0.3518
245.9362	0.3471
246.1514	0.3407
246.3665	0.3447
246.5817	0.3338
246.7969	0.3262
247.012	0.3268
247.2271	0.3105
247.4423	0.3074
247.6574	0.3083
247.8725	0.3027
248.0876	0.2939
248.3026	0.2872
248.5177	0.2781
248.7328	0.2876
248.9478	0.2639
249.1628	0.2689
249.3779	0.2689
249.5929	0.2615
249.8079	0.2555
250.0228	0.2493
250.2378	0.2463
250.4528	0.2484
250.6677	0.2415
250.8827	0.2375
251.0976	0.2458
251.3125	0.236
251.5274	0.2344
251.7423	0.2292
251.9572	0.2211
252.172	0.2186
252.3869	0.2173
252.6017	0.2163
252.8166	0.2199
253.0314	0.2166
253.2462	0.2158
253.461	0.2131
253.6758	0.2114
253.8906	0.2078
254.1053	0.2051
254.3201	0.1988
254.5348	0.2034
254.7496	0.2027
254.9643	0.2008
255.179	0.2111
255.3937	0.198
255.6083	0.2034
255.823	0.1951
256.0377	0.203
256.2523	0.1948
256.467	0.1987
256.6816	0.2027
256.8962	0.1943
257.1108	0.1974
257.3254	0.192
257.54	0.192
257.7545	0.1868
257.9691	0.1919
258.1836	0.1886
258.3981	0.1879
258.6127	0.1844
258.8272	0.1861
259.0417	0.1794
259.2561	0.1855
259.4706	0.187
259.6851	0.1878
259.8995	0.1787
260.114	0.184
260.3284	0.1828
260.5428	0.179
260.7572	0.1887
260.9716	0.1856
261.186	0.1811
261.4003	0.1839
261.6147	0.1785
261.829	0.1806
262.0433	0.1836
262.2577	0.1924
262.472	0.1878
262.6863	0.1849
262.9005	0.1862
263.1148	0.1797
263.3291	0.1855
263.5433	0.1863
263.7576	0.1832
263.9718	0.1844
264.186	0.1858
264.4002	0.1841
264.6144	0.1865
264.8286	0.1921
265.0427	0.1916
265.2569	0.1872
265.471	0.1915
265.6851	0.1843
265.8993	0.1869
266.1134	0.1893
266.3275	0.1863
266.5415	0.1855
266.7556	0.1827
266.9697	0.1854
267.1837	0.1818
267.3978	0.1955
267.6118	0.1892
267.8258	0.1883
268.0398	0.1852
268.2538	0.183
268.4677	0.181
268.6817	0.1771
268.8957	0.179
269.1096	0.1756
269.3235	0.1835
269.5374	0.1771
269.7514	0.1832
269.9652	0.1811
270.1791	0.1788
270.393	0.1853
270.6068	0.178
270.8207	0.1753
271.0345	0.1714
271.2483	0.1746
271.4622	0.177
271.676	0.1733
271.8897	0.1709
272.1035	0.1709
272.3173	0.1668
272.531	0.1768
272.7448	0.171
272.9585	0.1755
273.1722	0.1723
273.3859	0.1729
273.5996	0.1726
273.8133	0.1707
274.0269	0.1829
274.2406	0.1704
274.4542	0.1694
274.6679	0.1768
274.8815	0.1763
275.0951	0.1762
275.3087	0.1795
275.5223	0.1714
275.7358	0.1749
275.9494	0.1735
276.1629	0.1743
276.3765	0.1708
276.59	0.177
276.8035	0.1833
277.017	0.1783
277.2305	0.1743
277.444	0.1754
277.6574	0.1782
277.8709	0.1812
278.0843	0.1744
278.2978	0.1835
278.5112	0.1866
278.7246	0.1843
278.938	0.1779
279.1513	0.1889
279.3647	0.178
279.5781	0.1751
279.7914	0.1782
280.0047	0.1773
280.2181	0.1817
280.4314	0.1822
280.6447	0.1823
280.8579	0.1795
281.0712	0.1829
281.2845	0.1845
281.4977	0.1879
281.711	0.1788
281.9242	0.1799
282.1374	0.1869
282.3506	0.1848
282.5638	0.1838
282.7769	0.1868
282.9901	0.1855
283.2033	0.1853
283.4164	0.1819
283.6295	0.18
283.8426	0.185
284.0557	0.1822
284.2688	0.1933
284.4819	0.188
284.695	0.1884
284.908	0.1898
285.1211	0.1947
285.3341	0.1938
285.5471	0.1907
285.7601	0.1957
285.9731	0.1932
286.1861	0.1884
286.3991	0.1872
286.612	0.1938
286.825	0.1983
287.0379	0.1954
287.2508	0.1989
287.4637	0.1951
287.6766	0.2014
287.8895	0.1959
288.1024	0.2002
288.3152	0.1963
288.5281	0.1965
288.7409	0.1986
288.9538	0.1953
289.1666	0.1966
289.3794	0.2043
289.5922	0.1996
289.8049	0.1993
290.0177	0.202
290.2304	0.1971
290.4432	0.1976
290.6559	0.1851
290.8686	0.2029
291.0813	0.2014
291.294	0.2018
291.5067	0.2016
291.7194	0.2027
291.932	0.1987
292.1447	0.2018
292.3573	0.201
292.5699	0.2063
292.7825	0.2045
292.9951	0.2025
293.2077	0.1977
293.4203	0.2005
293.6328	0.1994
293.8454	0.1952
294.0579	0.1995
294.2704	0.203
294.4829	0.1956
294.6954	0.1987
294.9079	0.2054
295.1204	0.2017
295.3328	0.2018
295.5453	0.1971
295.7577	0.1948
295.9701	0.2003
296.1825	0.1958
296.3949	0.1998
296.6073	0.2086
296.8197	0.2003
297.0321	0.2047
297.2444	0.1962
297.4567	0.2025
297.6691	0.1975
297.8814	0.1947
298.0937	0.2016
298.306	0.2044
298.5182	0.2049
298.7305	0.1928
298.9428	0.2004
299.155	0.196
299.3672	0.2023
299.5794	0.1947
299.7916	0.2025
300.0038	0.1997
300.216	0.202
300.4282	0.1945
300.6403	0.1944
300.8525	0.1973
301.0646	0.1898
301.2767	0.1989
301.4888	0.1935
301.7009	0.1962
301.913	0.2047
302.125	0.1965
302.3371	0.1965
302.5491	0.1966
302.7612	0.1958
302.9732	0.1925
303.1852	0.1974
303.3972	0.1977
303.6092	0.1946
303.8211	0.1878
304.0331	0.1889
304.245	0.1978
304.457	0.1967
304.6689	0.1918
304.8808	0.1923
305.0927	0.1939
305.3046	0.182
305.5164	0.1859
305.7283	0.1907
305.9401	0.1882
306.152	0.1837
306.3638	0.1753
306.5756	0.1794
306.7874	0.1766
306.9992	0.1763
307.2109	0.1758
307.4227	0.1708
307.6344	0.1768
307.8462	0.1675
308.0579	0.175
308.2696	0.1658
308.4813	0.158
308.693	0.1637
308.9046	0.1588
309.1163	0.1607
309.328	0.1556
309.5396	0.1609
309.7512	0.155
309.9628	0.1578
310.1744	0.1567
310.386	0.1483
310.5976	0.1434
310.8091	0.1449
311.0207	0.1529
311.2322	0.1475
311.4437	0.1443
311.6552	0.1433
311.8667	0.1401
312.0782	0.1474
312.2897	0.1414
312.5012	0.1413
312.7126	0.1313
312.924	0.1392
313.1355	0.1293
313.3469	0.1278
313.5583	0.1271
313.7696	0.1268
313.981	0.1273
314.1924	0.1283
314.4037	0.1245
314.6151	0.1302
314.8264	0.1336
315.0377	0.1328
315.249	0.1179
315.4603	0.1206
315.6716	0.122
315.8828	0.1207
316.0941	0.117
316.3053	0.1179
316.5165	0.12
316.7277	0.1225
316.9389	0.124
317.1501	0.1196
317.3613	0.1154
317.5724	0.1224
317.7836	0.1217
317.9947	0.1208
318.2058	0.1198
318.417	0.117
318.6281	0.1131
318.8391	0.1195
319.0502	0.1188
319.2613	0.1159
319.4723	0.1169
319.6834	0.1174
319.8944	0.1188
320.1054	0.1152
320.3164	0.1132
320.5274	0.1082
320.7383	0.115
320.9493	0.1161
321.1602	0.1138
321.3712	0.1192
321.5821	0.1185
321.793	0.1171
322.0039	0.1188
322.2148	0.1157
322.4257	0.1183
322.6365	0.1131
322.8474	0.1204
323.0582	0.1164
323.269	0.1101
323.4798	0.1149
323.6906	0.1224
323.9014	0.1092
324.1122	0.1049
324.3229	0.1202
324.5337	0.1206
324.7444	0.1175
324.9551	0.1221
325.1658	0.1137
325.3765	0.1192
325.5872	0.1137
325.7979	0.1115
326.0085	0.1207
326.2192	0.1118
326.4298	0.118
326.6404	0.1188
326.851	0.1195
327.0616	0.1255
327.2722	0.1241
327.4828	0.1173
327.6933	0.1226
327.9039	0.1226
328.1144	0.1189
328.3249	0.1253
328.5354	0.1182
328.7459	0.1197
328.9564	0.1275
329.1669	0.1179
329.3773	0.1267
329.5878	0.1205
329.7982	0.125
330.0086	0.1257
330.219	0.1237
330.4294	0.128
330.6398	0.1272
330.8502	0.123
331.0605	0.1198
331.2708	0.1221
331.4812	0.1202
331.6915	0.1222
331.9018	0.1234
332.1121	0.1263
332.3224	0.1275
332.5326	0.1265
332.7429	0.117
332.9531	0.1269
333.1633	0.1256
333.3735	0.1238
333.5837	0.1281
333.7939	0.1244
334.0041	0.1251
334.2143	0.1229
334.4244	0.1241
334.6346	0.1177
334.8447	0.1308
335.0548	0.1221
335.2649	0.1258
335.475	0.124
335.685	0.1307
335.8951	0.1328
336.1051	0.1244
336.3152	0.1247
336.5252	0.1291
336.7352	0.1233
336.9452	0.1293
337.1552	0.1325
337.3652	0.1268
337.5751	0.1254
337.7851	0.1265
337.995	0.1315
338.2049	0.1363
338.4148	0.1345
338.6247	0.13
338.8346	0.1208
339.0445	0.1307
339.2543	0.1332
339.4642	0.1353
339.674	0.1348
339.8838	0.1336
340.0936	0.1337
340.3034	0.1365
340.5132	0.1262
340.7229	0.1368
340.9327	0.1347
341.1424	0.1374
341.3522	0.1402
341.5619	0.1381
341.7716	0.1377
341.9813	0.1429
342.1909	0.1364
342.4006	0.1388
342.6102	0.1409
342.8199	0.139
343.0295	0.1394
343.2391	0.1409
343.4487	0.1399
343.6583	0.1527
343.8679	0.1432
344.0774	0.1424
344.287	0.1426
344.4965	0.1429
344.706	0.1495
344.9155	0.1374
345.125	0.1487
345.3345	0.1429
345.544	0.1554
345.7534	0.1484
345.9629	0.1496
346.1723	0.1421
346.3817	0.1532
346.5911	0.1531
346.8005	0.1459
347.0099	0.1537
347.2193	0.153
347.4286	0.1513
347.638	0.1544
347.8473	0.1548
348.0566	0.1604
348.2659	0.1558
348.4752	0.1576
348.6845	0.1595
348.8937	0.1589
349.103	0.1493
349.3122	0.1576
349.5214	0.1605
349.7306	0.1607
349.9398	0.1622
350.149	0.1662
350.3582	0.1642
350.5674	0.1666
350.7765	0.1675
350.9856	0.1618
351.1948	0.1672
351.4039	0.1642
351.613	0.1788
351.822	0.1761
352.0311	0.1651
352.2402	0.1741
352.4492	0.1663
352.6582	0.1734
352.8672	0.1733
353.0762	0.1708
353.2852	0.1692
353.4942	0.1752
353.7032	0.1706
353.9121	0.1755
354.1211	0.17
354.33	0.1772
354.5389	0.1855
354.7478	0.1706
354.9567	0.1773
355.1655	0.1792
355.3744	0.1751
355.5833	0.1807
355.7921	0.1777
356.0009	0.1818
356.2097	0.1854
356.4185	0.1898
356.6273	0.1778
356.8361	0.1949
357.0448	0.1903
357.2536	0.1866
357.4623	0.1847
357.671	0.1872
357.8797	0.1951
358.0884	0.1929
358.2971	0.1962
358.5057	0.1888
358.7144	0.1968
358.923	0.1913
359.1316	0.1941
359.3402	0.1886
359.5488	0.1977
359.7574	0.1904
359.966	0.2135
360.1746	0.1972
360.3831	0.2065
360.5916	0.2008
360.8002	0.2049
361.0087	0.2179
361.2172	0.2097
361.4256	0.2065
361.6341	0.2157
361.8426	0.2091
362.051	0.2172
362.2594	0.2127
362.4678	0.2187
362.6762	0.2154
362.8846	0.2212
363.093	0.2168
363.3014	0.2226
363.5097	0.2195
363.718	0.2268
363.9264	0.2241
364.1347	0.2314
364.343	0.2336
364.5513	0.2249
364.7595	0.23
364.9678	0.2337
365.176	0.2283
365.3842	0.2325
365.5925	0.2315
365.8007	0.238
366.0089	0.231
366.217	0.2318
366.4252	0.2309
366.6333	0.2316
366.8415	0.2339
367.0496	0.2303
367.2577	0.2422
367.4658	0.2446
367.6739	0.2419
367.882	0.2442
368.09	0.2401
368.2981	0.2497
368.5061	0.2406
368.7141	0.2551
368.9221	0.2511
369.1301	0.2514
369.3381	0.2558
369.5461	0.2559
369.754	0.2487
369.962	0.2564
370.1699	0.2541
370.3778	0.2531
370.5857	0.2563
370.7936	0.2593
371.0015	0.255
371.2093	0.2562
371.4172	0.2634
371.625	0.2613
371.8328	0.2722
372.0406	0.2667
372.2484	0.2644
372.4562	0.2615
372.664	0.2686
372.8717	0.2721
373.0795	0.2703
373.2872	0.2654
373.4949	0.2742
373.7026	0.2824
373.9103	0.2796
374.118	0.2726
374.3256	0.2834
374.5333	0.2782
374.7409	0.27
374.9485	0.2703
375.1561	0.2776
375.3637	0.2741
375.5713	0.2827
375.7789	0.2667
375.9864	0.276
376.194	0.2863
376.4015	0.2839
376.609	0.2811
376.8165	0.2828
377.024	0.2837
377.2315	0.2963
377.4389	0.2734
377.6464	0.2879
377.8538	0.283
378.0612	0.2839
378.2686	0.2963
378.476	0.2794
378.6834	0.2913
378.8908	0.2924
379.0981	0.3013
379.3055	0.3082
379.5128	0.2989
379.7201	0.2895
379.9274	0.29
380.1347	0.306
380.342	0.3022
380.5492	0.3009
380.7565	0.3056
380.9637	0.2994
381.1709	0.2974
381.3781	0.2983
381.5853	0.3001
381.7925	0.3149
381.9997	0.3108
382.2068	0.3
382.4139	0.306
382.6211	0.312
382.8282	0.3076
383.0353	0.306
383.2424	0.3128
383.4494	0.3167
383.6565	0.3078
383.8635	0.3258
384.0706	0.3125
384.2776	0.3071
384.4846	0.3076
384.6916	0.3081
384.8986	0.3172
385.1055	0.3153
385.3125	0.3128
385.5194	0.3177
385.7263	0.3136
385.9333	0.3129
386.1402	0.3123
386.347	0.3186
386.5539	0.3165
386.7608	0.3155
386.9676	0.3125
387.1744	0.3109
387.3813	0.3156
387.5881	0.3143
387.7948	0.3096
388.0016	0.3255
388.2084	0.311
388.4151	0.3126
388.6219	0.31
388.8286	0.3137
389.0353	0.3098
389.242	0.3007
389.4487	0.3022
389.6553	0.3166
389.862	0.3126
390.0686	0.3072
390.2753	0.3013
390.4819	0.3164
390.6885	0.2952
390.8951	0.3068
391.1016	0.3076
391.3082	0.2999
391.5147	0.2944
391.7213	0.2989
391.9278	0.2938
392.1343	0.2936
392.3408	0.2904
392.5473	0.292
392.7537	0.2874
392.9602	0.2849
393.1666	0.2984
393.373	0.2822
393.5794	0.2913
393.7858	0.2882
393.9922	0.2894
394.1986	0.2876
394.4049	0.2811
394.6113	0.2924
394.8176	0.2764
395.0239	0.2714
395.2302	0.2725
395.4365	0.2812
395.6428	0.2759
395.8491	0.2701
396.0553	0.27
396.2615	0.2721
396.4678	0.2723
396.674	0.2695
396.8802	0.2703
397.0863	0.2673
397.2925	0.2652
397.4987	0.2628
397.7048	0.2763
397.9109	0.2712
398.117	0.2701
398.3231	0.2848
398.5292	0.2639
398.7353	0.262
398.9413	0.2706
399.1474	0.2772
399.3534	0.2729
399.5594	0.2702
399.7654	0.2664
399.9714	0.2627
400.1774	0.268
400.3833	0.2776
400.5893	0.2629
400.7952	0.2702
401.0011	0.2576
401.207	0.2703
401.4129	0.2716
401.6188	0.2673
401.8247	0.2682
402.0305	0.2647
402.2364	0.2629
402.4422	0.2709
402.648	0.2739
402.8538	0.2725
403.0596	0.2618
403.2654	0.2576
403.4711	0.2633
403.6768	0.2775
403.8826	0.2696
404.0883	0.2557
404.294	0.2713
404.4997	0.2582
404.7054	0.2569
404.911	0.2593
405.1167	0.266
405.3223	0.2743
405.5279	0.2616
405.7335	0.2547
405.9391	0.2706
406.1447	0.2631
406.3502	0.2758
406.5558	0.2774
406.7613	0.2665
406.9668	0.2623
407.1724	0.275
407.3778	0.2576
407.5833	0.2694
407.7888	0.2703
407.9942	0.2631
408.1997	0.2719
408.4051	0.2676
408.6105	0.2719
408.8159	0.2741
409.0213	0.2656
409.2267	0.2619
409.432	0.2709
409.6374	0.2727
409.8427	0.2753
410.048	0.2628
410.2533	0.2617
410.4586	0.2601
410.6639	0.261
410.8691	0.2729
411.0744	0.2613
411.2796	0.2699
411.4848	0.2615
411.69	0.2639
411.8952	0.2662
412.1004	0.2656
412.3056	0.2624
412.5107	0.2645
412.7158	0.2677
412.921	0.2564
413.1261	0.2718
413.3312	0.2663
413.5362	0.2571
413.7413	0.2619
413.9464	0.2565
414.1514	0.2601
414.3564	0.2685
414.5614	0.2627
414.7664	0.2629
414.9714	0.2753
415.1764	0.2579
415.3813	0.2605
415.5863	0.2536
415.7912	0.265
415.9961	0.2599
416.201	0.2568
416.4059	0.2522
416.6108	0.2654
416.8156	0.2486
417.0205	0.2595
417.2253	0.2623
417.4301	0.2702
417.6349	0.2554
417.8397	0.2748
418.0445	0.2587
418.2492	0.2525
418.454	0.2517
418.6587	0.2543
418.8634	0.2502
419.0681	0.2497
419.2728	0.2475
419.4775	0.2576
419.6822	0.2493
419.8868	0.2629
420.0915	0.2619
420.2961	0.2484
420.5007	0.2437
420.7053	0.255
420.9099	0.2445
421.1144	0.2421
421.319	0.2417
421.5235	0.2322
421.728	0.2478
421.9325	0.2537
422.137	0.2429
422.3415	0.2312
422.546	0.2445
422.7504	0.2351
422.9549	0.2345
423.1593	0.2393
423.3637	0.2331
423.5681	0.2439
423.7725	0.2398
423.9769	0.2397
424.1812	0.2446
424.3856	0.2388
424.5899	0.2323
424.7942	0.219
424.9985	0.2279
425.2028	0.2353
425.4071	0.2151
425.6113	0.226
425.8156	0.2204
426.0198	0.226
426.224	0.2285
426.4282	0.2259
426.6324	0.2176
426.8366	0.2267
