Data from D4ACN5uM480nmA_Absorbance_12-08-00-475.txt Node
Date: Fri Feb 21 12:08:00 GMT 2025
User: LASERRRRR
Spectrometer: FLMT03099
Trigger mode: 0
Integration Time (sec): 1.500000E-2
Scans to average: 1
Electric dark correction enabled: true
Nonlinearity correction enabled: false
Boxcar width: 0
XAxis mode: Wavelengths
Number of Pixels in Spectrum: 3648
>>>>>Begin Spectral Data<<<<<
179.3399	0.8262
179.5586	0.8262
179.7771	0.8262
179.9957	0.2011
180.2143	-0.0402
180.4329	-0
180.6514	-0.4574
180.8699	2.0682
181.0885	0.4626
181.307	0.0161
181.5255	0.1589
181.744	-0
181.9625	-0.1325
182.181	-0
182.3994	-0
182.6179	-0
182.8363	-0
183.0547	-0
183.2732	0.0045
183.4916	0.484
183.71	0.3334
183.9284	0.1773
184.1467	0.3119
184.3651	0.1504
184.5835	0.0869
184.8018	0.4026
185.0201	0.1658
185.2385	0.0267
185.4568	0.2105
185.6751	0.1336
185.8934	0.2798
186.1117	0.0012
186.3299	0.0828
186.5482	0.1293
186.7664	0.6611
186.9847	0.2575
187.2029	0.1235
187.4211	0.102
187.6393	0.2684
187.8575	0.1401
188.0757	0.5406
188.2939	0.1124
188.512	0.3205
188.7302	-0.0317
188.9483	0.6514
189.1665	0.3623
189.3846	0.2701
189.6027	-0.03
189.8208	0.2296
190.0389	0.3077
190.257	0.4451
190.475	0.3995
190.6931	0.4431
190.9111	0.2485
191.1292	0.2888
191.3472	0.2236
191.5652	0.3555
191.7832	0.4141
192.0012	0.4443
192.2192	0.1233
192.4371	0.2158
192.6551	0.2123
192.873	0.2519
193.091	0.2669
193.3089	0.395
193.5268	0.4546
193.7447	0.4899
193.9626	0.5652
194.1805	0.4278
194.3984	0.253
194.6162	0.5028
194.8341	0.5776
195.0519	0.6817
195.2697	0.5955
195.4875	0.5738
195.7054	0.6026
195.9231	0.5431
196.1409	0.5835
196.3587	0.4632
196.5765	0.5128
196.7942	0.7572
197.012	0.4457
197.2297	0.5513
197.4474	0.6261
197.6651	0.5633
197.8828	0.6623
198.1005	0.619
198.3182	0.6784
198.5358	0.4903
198.7535	0.5935
198.9711	0.6358
199.1888	0.513
199.4064	0.5294
199.624	0.5491
199.8416	0.5413
200.0592	0.5952
200.2767	0.6127
200.4943	0.6654
200.7119	0.5663
200.9294	0.6032
201.1469	0.6712
201.3645	0.5928
201.582	0.4654
201.7995	0.6188
202.017	0.546
202.2344	0.5336
202.4519	0.5374
202.6694	0.4654
202.8868	0.6254
203.1042	0.5366
203.3217	0.55
203.5391	0.5516
203.7565	0.5135
203.9739	0.4793
204.1913	0.5038
204.4086	0.5266
204.626	0.4861
204.8433	0.5424
205.0607	0.4792
205.278	0.5548
205.4953	0.4357
205.7126	0.4529
205.9299	0.465
206.1472	0.4854
206.3644	0.4661
206.5817	0.4407
206.7989	0.4945
207.0162	0.4104
207.2334	0.4324
207.4506	0.4225
207.6678	0.4528
207.885	0.4276
208.1022	0.4324
208.3194	0.4175
208.5365	0.4558
208.7537	0.3879
208.9708	0.447
209.1879	0.4295
209.405	0.3927
209.6222	0.419
209.8392	0.4197
210.0563	0.4278
210.2734	0.3863
210.4905	0.4114
210.7075	0.4509
210.9245	0.4004
211.1416	0.4112
211.3586	0.4167
211.5756	0.3943
211.7926	0.4105
212.0096	0.4105
212.2265	0.4242
212.4435	0.3985
212.6604	0.3985
212.8774	0.3909
213.0943	0.4404
213.3112	0.4079
213.5281	0.4104
213.745	0.4053
213.9619	0.4008
214.1788	0.3969
214.3956	0.4348
214.6125	0.4029
214.8293	0.4306
215.0461	0.4076
215.2629	0.39
215.4798	0.3965
215.6965	0.3732
215.9133	0.407
216.1301	0.4167
216.3469	0.3936
216.5636	0.4096
216.7803	0.4094
216.9971	0.4107
217.2138	0.3997
217.4305	0.4237
217.6472	0.4325
217.8639	0.4101
218.0805	0.4103
218.2972	0.4082
218.5138	0.43
218.7305	0.4161
218.9471	0.4272
219.1637	0.4319
219.3803	0.4144
219.5969	0.4197
219.8135	0.42
220.0301	0.3937
220.2466	0.4272
220.4632	0.4343
220.6797	0.4303
220.8962	0.412
221.1127	0.4322
221.3292	0.4392
221.5457	0.4271
221.7622	0.4319
221.9787	0.4297
222.1951	0.4494
222.4116	0.4377
222.628	0.4479
222.8444	0.441
223.0608	0.426
223.2772	0.4446
223.4936	0.4387
223.71	0.4448
223.9264	0.4554
224.1427	0.4529
224.3591	0.4473
224.5754	0.4378
224.7917	0.4605
225.008	0.4615
225.2243	0.4601
225.4406	0.4592
225.6569	0.4576
225.8732	0.4627
226.0894	0.4623
226.3057	0.4618
226.5219	0.4642
226.7381	0.4668
226.9543	0.4804
227.1705	0.472
227.3867	0.479
227.6029	0.4635
227.8191	0.4859
228.0352	0.5014
228.2513	0.5023
228.4675	0.4778
228.6836	0.4831
228.8997	0.4958
229.1158	0.4922
229.3319	0.492
229.548	0.485
229.764	0.4968
229.9801	0.5175
230.1961	0.5032
230.4121	0.5132
230.6282	0.5099
230.8442	0.5089
231.0602	0.5137
231.2761	0.5187
231.4921	0.5182
231.7081	0.5054
231.924	0.5105
232.14	0.5257
232.3559	0.5329
232.5718	0.5262
232.7877	0.5236
233.0036	0.5269
233.2195	0.5239
233.4353	0.5326
233.6512	0.5425
233.867	0.529
234.0829	0.5208
234.2987	0.5222
234.5145	0.5292
234.7303	0.526
234.9461	0.5197
235.1619	0.5401
235.3776	0.5307
235.5934	0.5352
235.8091	0.5348
236.0249	0.5326
236.2406	0.5417
236.4563	0.5429
236.672	0.526
236.8877	0.5409
237.1034	0.528
237.319	0.5414
237.5347	0.5315
237.7503	0.5377
237.966	0.5364
238.1816	0.5443
238.3972	0.5336
238.6128	0.5481
238.8284	0.5349
239.0439	0.5345
239.2595	0.5279
239.475	0.5437
239.6906	0.5314
239.9061	0.534
240.1216	0.5282
240.3371	0.5214
240.5526	0.5165
240.7681	0.5252
240.9836	0.522
241.199	0.5178
241.4145	0.4966
241.6299	0.4894
241.8453	0.4948
242.0607	0.4827
242.2761	0.4801
242.4915	0.4709
242.7069	0.4682
242.9223	0.4703
243.1376	0.4526
243.353	0.4471
243.5683	0.4347
243.7836	0.4228
243.9989	0.4315
244.2142	0.4101
244.4295	0.411
244.6448	0.3971
244.86	0.3933
245.0753	0.3718
245.2905	0.3803
245.5057	0.3604
245.721	0.3562
245.9362	0.354
246.1514	0.334
246.3665	0.3361
246.5817	0.3333
246.7969	0.3286
247.012	0.3248
247.2271	0.3088
247.4423	0.3079
247.6574	0.3126
247.8725	0.2988
248.0876	0.2941
248.3026	0.2853
248.5177	0.2771
248.7328	0.2819
248.9478	0.27
249.1628	0.265
249.3779	0.2662
249.5929	0.2511
249.8079	0.2537
250.0228	0.2519
250.2378	0.2498
250.4528	0.2494
250.6677	0.2369
250.8827	0.2391
251.0976	0.2412
251.3125	0.2337
251.5274	0.2304
251.7423	0.2194
251.9572	0.2221
252.172	0.2153
252.3869	0.2188
252.6017	0.2178
252.8166	0.2175
253.0314	0.2184
253.2462	0.2089
253.461	0.2162
253.6758	0.2058
253.8906	0.2079
254.1053	0.202
254.3201	0.2059
254.5348	0.2013
254.7496	0.2032
254.9643	0.2037
255.179	0.1994
255.3937	0.195
255.6083	0.1995
255.823	0.1966
256.0377	0.194
256.2523	0.195
256.467	0.1961
256.6816	0.1983
256.8962	0.1961
257.1108	0.1945
257.3254	0.1864
257.54	0.1888
257.7545	0.1883
257.9691	0.1879
258.1836	0.1928
258.3981	0.1892
258.6127	0.1854
258.8272	0.1831
259.0417	0.1806
259.2561	0.1876
259.4706	0.1909
259.6851	0.1792
259.8995	0.185
260.114	0.1839
260.3284	0.1859
260.5428	0.1833
260.7572	0.1864
260.9716	0.1827
261.186	0.1814
261.4003	0.187
261.6147	0.1837
261.829	0.1819
262.0433	0.1894
262.2577	0.1887
262.472	0.1862
262.6863	0.1909
262.9005	0.1868
263.1148	0.1798
263.3291	0.1844
263.5433	0.1855
263.7576	0.1806
263.9718	0.1819
264.186	0.1861
264.4002	0.1851
264.6144	0.1858
264.8286	0.1832
265.0427	0.1934
265.2569	0.1857
265.471	0.1921
265.6851	0.1835
265.8993	0.1802
266.1134	0.1876
266.3275	0.1882
266.5415	0.1811
266.7556	0.179
266.9697	0.1765
267.1837	0.1767
267.3978	0.1936
267.6118	0.1816
267.8258	0.1897
268.0398	0.1846
268.2538	0.183
268.4677	0.1816
268.6817	0.1783
268.8957	0.1872
269.1096	0.1762
269.3235	0.1833
269.5374	0.1805
269.7514	0.1807
269.9652	0.1777
270.1791	0.1779
270.393	0.1831
270.6068	0.1695
270.8207	0.1769
271.0345	0.1723
271.2483	0.1811
271.4622	0.1707
271.676	0.1702
271.8897	0.1689
272.1035	0.1729
272.3173	0.1696
272.531	0.1717
272.7448	0.1681
272.9585	0.1706
273.1722	0.1774
273.3859	0.1656
273.5996	0.1743
273.8133	0.1695
274.0269	0.1761
274.2406	0.1703
274.4542	0.1737
274.6679	0.1691
274.8815	0.1735
275.0951	0.1746
275.3087	0.1765
275.5223	0.1736
275.7358	0.1764
275.9494	0.1739
276.1629	0.1762
276.3765	0.1688
276.59	0.1769
276.8035	0.1746
277.017	0.1789
277.2305	0.1797
277.444	0.1741
277.6574	0.1829
277.8709	0.1754
278.0843	0.1784
278.2978	0.1821
278.5112	0.1836
278.7246	0.1789
278.938	0.1791
279.1513	0.1795
279.3647	0.1778
279.5781	0.1826
279.7914	0.1843
280.0047	0.1813
280.2181	0.1823
280.4314	0.1793
280.6447	0.1859
280.8579	0.1794
281.0712	0.1816
281.2845	0.183
281.4977	0.1873
281.711	0.1832
281.9242	0.1848
282.1374	0.1779
282.3506	0.1901
282.5638	0.185
282.7769	0.1827
282.9901	0.18
283.2033	0.1884
283.4164	0.1856
283.6295	0.1841
283.8426	0.1827
284.0557	0.186
284.2688	0.1847
284.4819	0.1925
284.695	0.1928
284.908	0.1928
285.1211	0.1934
285.3341	0.1957
285.5471	0.1937
285.7601	0.1868
285.9731	0.1857
286.1861	0.1907
286.3991	0.1936
286.612	0.1961
286.825	0.193
287.0379	0.194
287.2508	0.1995
287.4637	0.1949
287.6766	0.1981
287.8895	0.1903
288.1024	0.1992
288.3152	0.1977
288.5281	0.1981
288.7409	0.2003
288.9538	0.1919
289.1666	0.1985
289.3794	0.2008
289.5922	0.1973
289.8049	0.2034
290.0177	0.1976
290.2304	0.2055
290.4432	0.1982
290.6559	0.1918
290.8686	0.1979
291.0813	0.196
291.294	0.206
291.5067	0.2024
291.7194	0.2004
291.932	0.1964
292.1447	0.2008
292.3573	0.196
292.5699	0.2037
292.7825	0.2013
292.9951	0.1975
293.2077	0.1972
293.4203	0.2002
293.6328	0.1929
293.8454	0.1971
294.0579	0.2006
294.2704	0.1989
294.4829	0.2036
294.6954	0.2
294.9079	0.202
295.1204	0.1966
295.3328	0.2043
295.5453	0.193
295.7577	0.1986
295.9701	0.1987
296.1825	0.1973
296.3949	0.2068
296.6073	0.203
296.8197	0.1998
297.0321	0.2019
297.2444	0.2013
297.4567	0.1921
297.6691	0.2009
297.8814	0.1986
298.0937	0.2009
298.306	0.198
298.5182	0.2031
298.7305	0.1911
298.9428	0.1971
299.155	0.1983
299.3672	0.2021
299.5794	0.1909
299.7916	0.2004
300.0038	0.1956
300.216	0.1986
300.4282	0.19
300.6403	0.1907
300.8525	0.2016
301.0646	0.1924
301.2767	0.198
301.4888	0.1968
301.7009	0.1975
301.913	0.1983
302.125	0.1952
302.3371	0.2006
302.5491	0.1955
302.7612	0.1987
302.9732	0.1923
303.1852	0.2019
303.3972	0.1927
303.6092	0.1911
303.8211	0.184
304.0331	0.1893
304.245	0.1944
304.457	0.1962
304.6689	0.1962
304.8808	0.191
305.0927	0.1919
305.3046	0.1893
305.5164	0.1826
305.7283	0.1875
305.9401	0.1798
306.152	0.1819
306.3638	0.1855
306.5756	0.1831
306.7874	0.1864
306.9992	0.1775
307.2109	0.1717
307.4227	0.1733
307.6344	0.1766
307.8462	0.1676
308.0579	0.1685
308.2696	0.1697
308.4813	0.1588
308.693	0.1658
308.9046	0.1595
309.1163	0.1632
309.328	0.1635
309.5396	0.1567
309.7512	0.1549
309.9628	0.1531
310.1744	0.1539
310.386	0.1482
310.5976	0.1469
310.8091	0.1492
311.0207	0.1511
311.2322	0.151
311.4437	0.1409
311.6552	0.1429
311.8667	0.1388
312.0782	0.1408
312.2897	0.1386
312.5012	0.1383
312.7126	0.1321
312.924	0.1327
313.1355	0.131
313.3469	0.1276
313.5583	0.1278
313.7696	0.1255
313.981	0.1293
314.1924	0.1281
314.4037	0.1273
314.6151	0.1286
314.8264	0.1263
315.0377	0.1241
315.249	0.1237
315.4603	0.1198
315.6716	0.1252
315.8828	0.1249
316.0941	0.1139
316.3053	0.1211
316.5165	0.1228
316.7277	0.1233
316.9389	0.12
317.1501	0.1163
317.3613	0.1142
317.5724	0.1226
317.7836	0.1202
317.9947	0.1152
318.2058	0.1166
318.417	0.118
318.6281	0.1154
318.8391	0.1195
319.0502	0.1171
319.2613	0.1168
319.4723	0.1191
319.6834	0.1213
319.8944	0.1182
320.1054	0.1134
320.3164	0.1121
320.5274	0.1111
320.7383	0.1166
320.9493	0.1175
321.1602	0.1104
321.3712	0.1174
321.5821	0.1173
321.793	0.1125
322.0039	0.1138
322.2148	0.1189
322.4257	0.1204
322.6365	0.1173
322.8474	0.113
323.0582	0.1183
323.269	0.1166
323.4798	0.1238
323.6906	0.115
323.9014	0.111
324.1122	0.1208
324.3229	0.1127
324.5337	0.1249
324.7444	0.1157
324.9551	0.1213
325.1658	0.1203
325.3765	0.1143
325.5872	0.1106
325.7979	0.1159
326.0085	0.1165
326.2192	0.115
326.4298	0.1205
326.6404	0.1171
326.851	0.12
327.0616	0.1216
327.2722	0.1269
327.4828	0.113
327.6933	0.1193
327.9039	0.115
328.1144	0.1248
328.3249	0.1228
328.5354	0.1169
328.7459	0.1259
328.9564	0.1212
329.1669	0.1181
329.3773	0.1196
329.5878	0.1237
329.7982	0.1194
330.0086	0.1297
330.219	0.1239
330.4294	0.1222
330.6398	0.126
330.8502	0.1277
331.0605	0.125
331.2708	0.1222
331.4812	0.1231
331.6915	0.1215
331.9018	0.1213
332.1121	0.1279
332.3224	0.1299
332.5326	0.1301
332.7429	0.1213
332.9531	0.1258
333.1633	0.1267
333.3735	0.1185
333.5837	0.128
333.7939	0.1205
334.0041	0.1198
334.2143	0.1267
334.4244	0.1211
334.6346	0.1209
334.8447	0.1302
335.0548	0.1241
335.2649	0.126
335.475	0.1258
335.685	0.1253
335.8951	0.1314
336.1051	0.128
336.3152	0.1254
336.5252	0.1276
336.7352	0.1201
336.9452	0.1269
337.1552	0.1304
337.3652	0.1313
337.5751	0.128
337.7851	0.1252
337.995	0.1301
338.2049	0.1333
338.4148	0.1255
338.6247	0.1267
338.8346	0.1253
339.0445	0.1347
339.2543	0.1335
339.4642	0.1333
339.674	0.1344
339.8838	0.1353
340.0936	0.1325
340.3034	0.1327
340.5132	0.1349
340.7229	0.1357
340.9327	0.138
341.1424	0.1367
341.3522	0.1378
341.5619	0.1345
341.7716	0.1364
341.9813	0.1381
342.1909	0.1396
342.4006	0.1408
342.6102	0.1368
342.8199	0.1332
343.0295	0.1418
343.2391	0.1366
343.4487	0.1459
343.6583	0.1446
343.8679	0.1449
344.0774	0.1359
344.287	0.1444
344.4965	0.1432
344.706	0.1476
344.9155	0.1399
345.125	0.1477
345.3345	0.1396
345.544	0.1499
345.7534	0.1531
345.9629	0.147
346.1723	0.1502
346.3817	0.1518
346.5911	0.1516
346.8005	0.1483
347.0099	0.1518
347.2193	0.144
347.4286	0.1546
347.638	0.1501
347.8473	0.1537
348.0566	0.1565
348.2659	0.1579
348.4752	0.1572
348.6845	0.1575
348.8937	0.16
349.103	0.1538
349.3122	0.167
349.5214	0.1551
349.7306	0.16
349.9398	0.1633
350.149	0.1658
350.3582	0.1536
350.5674	0.1616
350.7765	0.1664
350.9856	0.1593
351.1948	0.1638
351.4039	0.1654
351.613	0.1729
351.822	0.1655
352.0311	0.164
352.2402	0.1747
352.4492	0.1691
352.6582	0.1748
352.8672	0.1729
353.0762	0.1686
353.2852	0.176
353.4942	0.1753
353.7032	0.169
353.9121	0.1752
354.1211	0.1737
354.33	0.1754
354.5389	0.1829
354.7478	0.175
354.9567	0.1817
355.1655	0.1816
355.3744	0.1724
355.5833	0.1824
355.7921	0.1779
356.0009	0.1784
356.2097	0.1859
356.4185	0.1934
356.6273	0.1857
356.8361	0.1945
357.0448	0.1917
357.2536	0.1877
357.4623	0.1807
357.671	0.1869
357.8797	0.1889
358.0884	0.1843
358.2971	0.1912
358.5057	0.1927
358.7144	0.1977
358.923	0.1861
359.1316	0.1922
359.3402	0.2006
359.5488	0.1983
359.7574	0.202
359.966	0.2081
360.1746	0.1971
360.3831	0.2108
360.5916	0.2047
360.8002	0.2078
361.0087	0.2047
361.2172	0.2003
361.4256	0.202
361.6341	0.2189
361.8426	0.2195
362.051	0.2153
362.2594	0.22
362.4678	0.2131
362.6762	0.2237
362.8846	0.2215
363.093	0.2137
363.3014	0.2254
363.5097	0.2202
363.718	0.2304
363.9264	0.2229
364.1347	0.233
364.343	0.2301
364.5513	0.223
364.7595	0.2313
364.9678	0.2356
365.176	0.2297
365.3842	0.2321
365.5925	0.2325
365.8007	0.2305
366.0089	0.2401
366.217	0.2324
366.4252	0.2344
366.6333	0.2385
366.8415	0.237
367.0496	0.2266
367.2577	0.2392
367.4658	0.2482
367.6739	0.2389
367.882	0.25
368.09	0.2412
368.2981	0.2451
368.5061	0.2505
368.7141	0.2471
368.9221	0.2539
369.1301	0.2534
369.3381	0.2585
369.5461	0.2484
369.754	0.2507
369.962	0.257
370.1699	0.2603
370.3778	0.2566
370.5857	0.2588
370.7936	0.2565
371.0015	0.2534
371.2093	0.2598
371.4172	0.2643
371.625	0.2677
371.8328	0.2618
372.0406	0.263
372.2484	0.2599
372.4562	0.2615
372.664	0.2761
372.8717	0.2705
373.0795	0.2751
373.2872	0.2661
373.4949	0.2818
373.7026	0.2872
373.9103	0.2625
374.118	0.2748
374.3256	0.279
374.5333	0.2688
374.7409	0.2705
374.9485	0.2786
375.1561	0.2794
375.3637	0.2695
375.5713	0.2756
375.7789	0.2731
375.9864	0.278
376.194	0.2839
376.4015	0.28
376.609	0.2833
376.8165	0.291
377.024	0.2787
377.2315	0.2868
377.4389	0.279
377.6464	0.2896
377.8538	0.2889
378.0612	0.2754
378.2686	0.2921
378.476	0.2908
378.6834	0.2876
378.8908	0.2877
379.0981	0.2947
379.3055	0.2986
379.5128	0.2937
379.7201	0.2984
379.9274	0.2981
380.1347	0.3042
380.342	0.3078
380.5492	0.2881
380.7565	0.2931
380.9637	0.2948
381.1709	0.2963
381.3781	0.3071
381.5853	0.2999
381.7925	0.3087
381.9997	0.3058
382.2068	0.3128
382.4139	0.2998
382.6211	0.3118
382.8282	0.3123
383.0353	0.3069
383.2424	0.3071
383.4494	0.3099
383.6565	0.3105
383.8635	0.3102
384.0706	0.314
384.2776	0.3149
384.4846	0.318
384.6916	0.3032
384.8986	0.3172
385.1055	0.3156
385.3125	0.3063
385.5194	0.305
385.7263	0.3123
385.9333	0.3186
386.1402	0.3193
386.347	0.3141
386.5539	0.3195
386.7608	0.3083
386.9676	0.3174
387.1744	0.3179
387.3813	0.3095
387.5881	0.3139
387.7948	0.308
388.0016	0.3139
388.2084	0.315
388.4151	0.3054
388.6219	0.3045
388.8286	0.31
389.0353	0.2983
389.242	0.307
389.4487	0.3102
389.6553	0.3062
389.862	0.3116
390.0686	0.3068
390.2753	0.3088
390.4819	0.3018
390.6885	0.3075
390.8951	0.3144
391.1016	0.3105
391.3082	0.295
391.5147	0.3046
391.7213	0.2957
391.9278	0.2995
392.1343	0.2963
392.3408	0.2847
392.5473	0.2958
392.7537	0.2955
392.9602	0.2913
393.1666	0.2935
393.373	0.2884
393.5794	0.2871
393.7858	0.2837
393.9922	0.2878
394.1986	0.2786
394.4049	0.2818
394.6113	0.2911
394.8176	0.2757
395.0239	0.2789
395.2302	0.2747
395.4365	0.2836
395.6428	0.2791
395.8491	0.2693
396.0553	0.2662
396.2615	0.2779
396.4678	0.2749
396.674	0.2703
396.8802	0.267
397.0863	0.2769
397.2925	0.2708
397.4987	0.2669
397.7048	0.2797
397.9109	0.2769
398.117	0.2699
398.3231	0.2701
398.5292	0.2658
398.7353	0.2663
398.9413	0.2673
399.1474	0.2774
399.3534	0.2715
399.5594	0.2711
399.7654	0.2665
399.9714	0.2711
400.1774	0.2568
400.3833	0.2705
400.5893	0.2576
400.7952	0.2596
401.0011	0.2627
401.207	0.2644
401.4129	0.2698
401.6188	0.263
401.8247	0.2702
402.0305	0.2584
402.2364	0.2665
402.4422	0.2639
402.648	0.2776
402.8538	0.2718
403.0596	0.2566
403.2654	0.2698
403.4711	0.2629
403.6768	0.2645
403.8826	0.2706
404.0883	0.2603
404.294	0.2612
404.4997	0.2645
404.7054	0.2664
404.911	0.2655
405.1167	0.2727
405.3223	0.2714
405.5279	0.2691
405.7335	0.2669
405.9391	0.2703
406.1447	0.2668
406.3502	0.2774
406.5558	0.2698
406.7613	0.2729
406.9668	0.2677
407.1724	0.28
407.3778	0.2672
407.5833	0.2571
407.7888	0.2629
407.9942	0.271
408.1997	0.2714
408.4051	0.2566
408.6105	0.2748
408.8159	0.269
409.0213	0.2692
409.2267	0.2656
409.432	0.2661
409.6374	0.2673
409.8427	0.2705
410.048	0.2691
410.2533	0.2584
410.4586	0.2674
410.6639	0.2655
410.8691	0.2668
411.0744	0.2627
411.2796	0.2753
411.4848	0.2653
411.69	0.2633
411.8952	0.2682
412.1004	0.2623
412.3056	0.2606
412.5107	0.2622
412.7158	0.2688
412.921	0.261
413.1261	0.2725
413.3312	0.2582
413.5362	0.2571
413.7413	0.2728
413.9464	0.2637
414.1514	0.2615
414.3564	0.2611
414.5614	0.2571
414.7664	0.2645
414.9714	0.2735
415.1764	0.2616
415.3813	0.2509
415.5863	0.2521
415.7912	0.2676
415.9961	0.2632
416.201	0.2577
416.4059	0.2587
416.6108	0.2581
416.8156	0.2449
417.0205	0.2548
417.2253	0.2675
417.4301	0.2706
417.6349	0.2582
417.8397	0.2665
418.0445	0.2586
418.2492	0.2688
418.454	0.2505
418.6587	0.2693
418.8634	0.253
419.0681	0.246
419.2728	0.2456
419.4775	0.2556
419.6822	0.245
419.8868	0.2527
420.0915	0.2696
420.2961	0.2453
420.5007	0.2539
420.7053	0.2462
420.9099	0.2442
421.1144	0.2338
421.319	0.2448
421.5235	0.2361
421.728	0.2495
421.9325	0.2435
422.137	0.2407
422.3415	0.2381
422.546	0.2381
422.7504	0.2456
422.9549	0.2364
423.1593	0.2412
423.3637	0.2317
423.5681	0.2428
423.7725	0.2446
423.9769	0.2377
424.1812	0.2433
424.3856	0.2399
424.5899	0.2308
424.7942	0.2222
424.9985	0.2347
425.2028	0.2245
425.4071	0.2024
425.6113	0.2338
425.8156	0.2183
426.0198	0.2236
426.224	0.2324
426.4282	0.229
426.6324	0.2307
426.8366	0.2142
427.0407	0.2233
