Data from D4ACN5uM480nmA_Absorbance_12-07-59-905.txt Node
Date: Fri Feb 21 12:07:59 GMT 2025
User: LASERRRRR
Spectrometer: FLMT03099
Trigger mode: 0
Integration Time (sec): 1.500000E-2
Scans to average: 1
Electric dark correction enabled: true
Nonlinearity correction enabled: false
Boxcar width: 0
XAxis mode: Wavelengths
Number of Pixels in Spectrum: 3648
>>>>>Begin Spectral Data<<<<<
179.3399	0.368
179.5586	0.368
179.7771	0.368
179.9957	-0.0211
180.2143	-0
180.4329	0.699
180.6514	-0
180.8699	-0
181.0885	-0.1482
181.307	0.3874
181.5255	-0.1454
181.744	-0.2293
181.9625	-0.2094
182.181	1.3979
182.3994	-0
182.6179	-0
182.8363	-0
183.0547	-0
183.2732	0.1498
183.4916	0.3717
183.71	0.1579
183.9284	0.1569
184.1467	-0.0433
184.3651	0.1939
184.5835	0.0165
184.8018	0.3616
185.0201	0.0569
185.2385	0.1165
185.4568	0.0842
185.6751	0.0763
185.8934	0.2083
186.1117	0.2649
186.3299	0.0668
186.5482	0.3296
186.7664	0.4727
186.9847	0.2132
187.2029	0.1215
187.4211	0.1924
187.6393	0.2473
187.8575	0.1116
188.0757	0.5365
188.2939	0.1064
188.512	-0.0404
188.7302	-0.0924
188.9483	0.3568
189.1665	0.4135
189.3846	0.4159
189.6027	-0.0844
189.8208	0.1786
190.0389	0.2205
190.257	0.1505
190.475	0.1841
190.6931	0.2735
190.9111	0.3421
191.1292	0.3422
191.3472	0.1594
191.5652	0.2931
191.7832	0.2075
192.0012	0.187
192.2192	0.2584
192.4371	0.1821
192.6551	0.3389
192.873	0.2408
193.091	0.4059
193.3089	0.1963
193.5268	0.6086
193.7447	0.4258
193.9626	0.5341
194.1805	0.4137
194.3984	0.4693
194.6162	0.3503
194.8341	0.4224
195.0519	0.3796
195.2697	0.4328
195.4875	0.6539
195.7054	0.6419
195.9231	0.3317
196.1409	0.6194
196.3587	0.62
196.5765	0.3953
196.7942	0.5799
197.012	0.4975
197.2297	0.542
197.4474	0.6633
197.6651	0.6461
197.8828	0.6786
198.1005	0.5454
198.3182	0.6244
198.5358	0.5328
198.7535	0.5378
198.9711	0.6961
199.1888	0.5772
199.4064	0.5813
199.624	0.5445
199.8416	0.5551
200.0592	0.6177
200.2767	0.5936
200.4943	0.6801
200.7119	0.5496
200.9294	0.5972
201.1469	0.5879
201.3645	0.6618
201.582	0.5805
201.7995	0.5484
202.017	0.5187
202.2344	0.5704
202.4519	0.5997
202.6694	0.5851
202.8868	0.5429
203.1042	0.5741
203.3217	0.5174
203.5391	0.541
203.7565	0.4857
203.9739	0.545
204.1913	0.5429
204.4086	0.5344
204.626	0.521
204.8433	0.5019
205.0607	0.4921
205.278	0.5524
205.4953	0.5064
205.7126	0.4461
205.9299	0.4702
206.1472	0.4953
206.3644	0.4551
206.5817	0.5009
206.7989	0.4604
207.0162	0.4048
207.2334	0.4457
207.4506	0.4265
207.6678	0.4694
207.885	0.4772
208.1022	0.4543
208.3194	0.4202
208.5365	0.4285
208.7537	0.4275
208.9708	0.4456
209.1879	0.4396
209.405	0.4084
209.6222	0.4135
209.8392	0.4398
210.0563	0.4335
210.2734	0.4102
210.4905	0.4102
210.7075	0.4304
210.9245	0.3961
211.1416	0.4074
211.3586	0.3942
211.5756	0.4028
211.7926	0.4332
212.0096	0.4085
212.2265	0.4041
212.4435	0.4067
212.6604	0.398
212.8774	0.4115
213.0943	0.4337
213.3112	0.4218
213.5281	0.4239
213.745	0.3904
213.9619	0.3895
214.1788	0.3964
214.3956	0.4025
214.6125	0.3846
214.8293	0.4172
215.0461	0.3964
215.2629	0.3835
215.4798	0.3666
215.6965	0.3761
215.9133	0.4031
216.1301	0.3943
216.3469	0.4028
216.5636	0.3996
216.7803	0.4103
216.9971	0.414
217.2138	0.4279
217.4305	0.405
217.6472	0.4209
217.8639	0.4003
218.0805	0.403
218.2972	0.4401
218.5138	0.4206
218.7305	0.4136
218.9471	0.421
219.1637	0.4217
219.3803	0.4176
219.5969	0.4263
219.8135	0.4338
220.0301	0.4245
220.2466	0.4315
220.4632	0.4081
220.6797	0.4343
220.8962	0.4305
221.1127	0.4364
221.3292	0.4244
221.5457	0.4365
221.7622	0.4456
221.9787	0.4347
222.1951	0.4367
222.4116	0.4407
222.628	0.4379
222.8444	0.4556
223.0608	0.4345
223.2772	0.436
223.4936	0.4397
223.71	0.4512
223.9264	0.4387
224.1427	0.4366
224.3591	0.4528
224.5754	0.4575
224.7917	0.4647
225.008	0.447
225.2243	0.4689
225.4406	0.474
225.6569	0.4476
225.8732	0.4624
226.0894	0.48
226.3057	0.4449
226.5219	0.458
226.7381	0.459
226.9543	0.459
227.1705	0.4537
227.3867	0.4795
227.6029	0.4758
227.8191	0.4889
228.0352	0.5075
228.2513	0.5062
228.4675	0.4802
228.6836	0.4977
228.8997	0.4924
229.1158	0.4882
229.3319	0.4877
229.548	0.4882
229.764	0.4885
229.9801	0.5062
230.1961	0.5121
230.4121	0.5009
230.6282	0.5142
230.8442	0.5147
231.0602	0.5209
231.2761	0.5135
231.4921	0.5035
231.7081	0.5156
231.924	0.5185
232.14	0.5196
232.3559	0.5363
232.5718	0.5303
232.7877	0.5351
233.0036	0.5226
233.2195	0.532
233.4353	0.5315
233.6512	0.537
233.867	0.5278
234.0829	0.5338
234.2987	0.5222
234.5145	0.5318
234.7303	0.5255
234.9461	0.5296
235.1619	0.5331
235.3776	0.5272
235.5934	0.5312
235.8091	0.5227
236.0249	0.5383
236.2406	0.5354
236.4563	0.5425
236.672	0.5249
236.8877	0.5299
237.1034	0.5323
237.319	0.5366
237.5347	0.5163
237.7503	0.5364
237.966	0.5403
238.1816	0.535
238.3972	0.5344
238.6128	0.5329
238.8284	0.5323
239.0439	0.5352
239.2595	0.5277
239.475	0.5261
239.6906	0.5292
239.9061	0.5187
240.1216	0.5341
240.3371	0.5181
240.5526	0.5205
240.7681	0.5113
240.9836	0.5184
241.199	0.5076
241.4145	0.5098
241.6299	0.4945
241.8453	0.4899
242.0607	0.4779
242.2761	0.4825
242.4915	0.4707
242.7069	0.4697
242.9223	0.4655
243.1376	0.4509
243.353	0.4376
243.5683	0.4411
243.7836	0.4209
243.9989	0.4197
244.2142	0.4143
244.4295	0.3956
244.6448	0.3838
244.86	0.3934
245.0753	0.3876
245.2905	0.379
245.5057	0.3679
245.721	0.3583
245.9362	0.355
246.1514	0.3316
246.3665	0.3397
246.5817	0.3321
246.7969	0.329
247.012	0.3209
247.2271	0.3059
247.4423	0.2981
247.6574	0.3105
247.8725	0.3075
248.0876	0.2936
248.3026	0.2878
248.5177	0.2841
248.7328	0.2745
248.9478	0.2735
249.1628	0.2673
249.3779	0.2622
249.5929	0.2614
249.8079	0.2541
250.0228	0.2454
250.2378	0.2473
250.4528	0.2509
250.6677	0.2416
250.8827	0.2368
251.0976	0.2445
251.3125	0.2352
251.5274	0.2392
251.7423	0.2316
251.9572	0.22
252.172	0.2189
252.3869	0.2252
252.6017	0.2139
252.8166	0.2216
253.0314	0.2121
253.2462	0.2124
253.461	0.2071
253.6758	0.2055
253.8906	0.2077
254.1053	0.2022
254.3201	0.2061
254.5348	0.2002
254.7496	0.1998
254.9643	0.1979
255.179	0.2031
255.3937	0.1972
255.6083	0.2047
255.823	0.1974
256.0377	0.2031
256.2523	0.2017
256.467	0.1969
256.6816	0.2017
256.8962	0.197
257.1108	0.1889
257.3254	0.1958
257.54	0.1922
257.7545	0.1898
257.9691	0.1924
258.1836	0.1866
258.3981	0.1879
258.6127	0.1839
258.8272	0.1874
259.0417	0.1828
259.2561	0.1852
259.4706	0.1913
259.6851	0.1886
259.8995	0.1794
260.114	0.1852
260.3284	0.1877
260.5428	0.181
260.7572	0.1856
260.9716	0.1845
261.186	0.1833
261.4003	0.1843
261.6147	0.1894
261.829	0.1828
262.0433	0.1807
262.2577	0.1943
262.472	0.182
262.6863	0.18
262.9005	0.1923
263.1148	0.1853
263.3291	0.1896
263.5433	0.1881
263.7576	0.1867
263.9718	0.191
264.186	0.1852
264.4002	0.1881
264.6144	0.1834
264.8286	0.184
265.0427	0.1893
265.2569	0.1921
265.471	0.182
265.6851	0.1833
265.8993	0.1904
266.1134	0.1882
266.3275	0.1834
266.5415	0.1819
266.7556	0.1762
266.9697	0.1803
267.1837	0.1793
267.3978	0.1953
267.6118	0.1857
267.8258	0.1829
268.0398	0.1868
268.2538	0.184
268.4677	0.177
268.6817	0.1831
268.8957	0.1835
269.1096	0.1783
269.3235	0.1846
269.5374	0.1761
269.7514	0.1789
269.9652	0.1829
270.1791	0.1778
270.393	0.1837
270.6068	0.1706
270.8207	0.1731
271.0345	0.1757
271.2483	0.1761
271.4622	0.1789
271.676	0.1764
271.8897	0.1702
272.1035	0.1762
272.3173	0.1728
272.531	0.1734
272.7448	0.175
272.9585	0.1754
273.1722	0.1778
273.3859	0.162
273.5996	0.172
273.8133	0.1654
274.0269	0.1722
274.2406	0.1721
274.4542	0.1687
274.6679	0.171
274.8815	0.173
275.0951	0.1708
275.3087	0.1748
275.5223	0.1736
275.7358	0.1777
275.9494	0.1709
276.1629	0.1793
276.3765	0.1692
276.59	0.1798
276.8035	0.179
277.017	0.1765
277.2305	0.1772
277.444	0.1719
277.6574	0.1771
277.8709	0.1752
278.0843	0.1726
278.2978	0.1772
278.5112	0.1829
278.7246	0.1771
278.938	0.1756
279.1513	0.1841
279.3647	0.1793
279.5781	0.1762
279.7914	0.181
280.0047	0.1818
280.2181	0.1854
280.4314	0.1749
280.6447	0.1874
280.8579	0.1764
281.0712	0.1789
281.2845	0.1842
281.4977	0.1867
281.711	0.1843
281.9242	0.1838
282.1374	0.1772
282.3506	0.1869
282.5638	0.1791
282.7769	0.1849
282.9901	0.1797
283.2033	0.1797
283.4164	0.1889
283.6295	0.182
283.8426	0.19
284.0557	0.1875
284.2688	0.1886
284.4819	0.192
284.695	0.1928
284.908	0.1903
285.1211	0.1921
285.3341	0.1938
285.5471	0.1974
285.7601	0.1926
285.9731	0.1929
286.1861	0.1969
286.3991	0.1935
286.612	0.1947
286.825	0.1955
287.0379	0.1985
287.2508	0.1977
287.4637	0.1938
287.6766	0.1976
287.8895	0.1893
288.1024	0.1932
288.3152	0.1966
288.5281	0.1981
288.7409	0.2006
288.9538	0.1916
289.1666	0.1992
289.3794	0.2011
289.5922	0.2061
289.8049	0.199
290.0177	0.2008
290.2304	0.2025
290.4432	0.2018
290.6559	0.1894
290.8686	0.1982
291.0813	0.1996
291.294	0.2071
291.5067	0.198
291.7194	0.2022
291.932	0.1991
292.1447	0.2012
292.3573	0.2
292.5699	0.2002
292.7825	0.1971
292.9951	0.2027
293.2077	0.203
293.4203	0.1986
293.6328	0.1936
293.8454	0.1994
294.0579	0.203
294.2704	0.2015
294.4829	0.1973
294.6954	0.1992
294.9079	0.2007
295.1204	0.2001
295.3328	0.1982
295.5453	0.194
295.7577	0.194
295.9701	0.1946
296.1825	0.195
296.3949	0.2047
296.6073	0.2023
296.8197	0.1994
297.0321	0.1975
297.2444	0.1957
297.4567	0.1918
297.6691	0.2008
297.8814	0.1969
298.0937	0.1965
298.306	0.1974
298.5182	0.1977
298.7305	0.1975
298.9428	0.1977
299.155	0.2039
299.3672	0.2034
299.5794	0.194
299.7916	0.2008
300.0038	0.1971
300.216	0.2025
300.4282	0.1965
300.6403	0.2011
300.8525	0.201
301.0646	0.1958
301.2767	0.202
301.4888	0.1961
301.7009	0.1926
301.913	0.2067
302.125	0.1956
302.3371	0.195
302.5491	0.1941
302.7612	0.2032
302.9732	0.1956
303.1852	0.1925
303.3972	0.1938
303.6092	0.1936
303.8211	0.1833
304.0331	0.1922
304.245	0.1917
304.457	0.1997
304.6689	0.1906
304.8808	0.186
305.0927	0.1947
305.3046	0.1879
305.5164	0.1881
305.7283	0.1903
305.9401	0.1796
306.152	0.1834
306.3638	0.1765
306.5756	0.1827
306.7874	0.1814
306.9992	0.1768
307.2109	0.1795
307.4227	0.1758
307.6344	0.1759
307.8462	0.1692
308.0579	0.1688
308.2696	0.1628
308.4813	0.1586
308.693	0.1651
308.9046	0.1635
309.1163	0.1635
309.328	0.1519
309.5396	0.1592
309.7512	0.1523
309.9628	0.1523
310.1744	0.1554
310.386	0.1506
310.5976	0.1489
310.8091	0.1463
311.0207	0.1463
311.2322	0.1479
311.4437	0.1433
311.6552	0.1448
311.8667	0.1382
312.0782	0.1411
312.2897	0.1381
312.5012	0.138
312.7126	0.1305
312.924	0.137
313.1355	0.1294
313.3469	0.1274
313.5583	0.1256
313.7696	0.1262
313.981	0.1231
314.1924	0.127
314.4037	0.1214
314.6151	0.1252
314.8264	0.126
315.0377	0.1267
315.249	0.1196
315.4603	0.1235
315.6716	0.1246
315.8828	0.1223
316.0941	0.1234
316.3053	0.117
316.5165	0.1161
316.7277	0.1226
316.9389	0.1227
317.1501	0.1204
317.3613	0.1157
317.5724	0.1233
317.7836	0.1138
317.9947	0.1139
318.2058	0.1148
318.417	0.1156
318.6281	0.1129
318.8391	0.1209
319.0502	0.1177
319.2613	0.1138
319.4723	0.1156
319.6834	0.1157
319.8944	0.1217
320.1054	0.1198
320.3164	0.1179
320.5274	0.1144
320.7383	0.1128
320.9493	0.1199
321.1602	0.1161
321.3712	0.1153
321.5821	0.1169
321.793	0.1117
322.0039	0.1176
322.2148	0.1168
322.4257	0.1206
322.6365	0.1145
322.8474	0.119
323.0582	0.1185
323.269	0.1108
323.4798	0.1169
323.6906	0.1187
323.9014	0.1109
324.1122	0.1178
324.3229	0.1217
324.5337	0.1181
324.7444	0.1145
324.9551	0.1222
325.1658	0.1183
325.3765	0.1184
325.5872	0.1147
325.7979	0.118
326.0085	0.1204
326.2192	0.1174
326.4298	0.1223
326.6404	0.1219
326.851	0.1237
327.0616	0.1215
327.2722	0.1257
327.4828	0.1158
327.6933	0.118
327.9039	0.1171
328.1144	0.1182
328.3249	0.1178
328.5354	0.1167
328.7459	0.1241
328.9564	0.1226
329.1669	0.1209
329.3773	0.1206
329.5878	0.1217
329.7982	0.1237
330.0086	0.1304
330.219	0.1211
330.4294	0.1265
330.6398	0.1237
330.8502	0.1224
331.0605	0.1229
331.2708	0.1203
331.4812	0.1252
331.6915	0.1224
331.9018	0.1151
332.1121	0.1285
332.3224	0.1279
332.5326	0.1265
332.7429	0.1192
332.9531	0.133
333.1633	0.128
333.3735	0.1233
333.5837	0.1259
333.7939	0.1224
334.0041	0.1273
334.2143	0.1284
334.4244	0.121
334.6346	0.1195
334.8447	0.1237
335.0548	0.127
335.2649	0.1299
335.475	0.1307
335.685	0.1217
335.8951	0.1301
336.1051	0.1269
336.3152	0.1244
336.5252	0.1372
336.7352	0.1223
336.9452	0.1353
337.1552	0.1318
337.3652	0.1253
337.5751	0.1244
337.7851	0.124
337.995	0.1278
338.2049	0.1303
338.4148	0.1292
338.6247	0.1279
338.8346	0.1357
339.0445	0.1294
339.2543	0.1345
339.4642	0.1404
339.674	0.1379
339.8838	0.1271
340.0936	0.1304
340.3034	0.1277
340.5132	0.1329
340.7229	0.1378
340.9327	0.1344
341.1424	0.1402
341.3522	0.1404
341.5619	0.1313
341.7716	0.1394
341.9813	0.1415
342.1909	0.1374
342.4006	0.1372
342.6102	0.1376
342.8199	0.1352
343.0295	0.1432
343.2391	0.1402
343.4487	0.1364
343.6583	0.1525
343.8679	0.14
344.0774	0.1457
344.287	0.143
344.4965	0.1486
344.706	0.1457
344.9155	0.1432
345.125	0.1489
345.3345	0.1437
345.544	0.1522
345.7534	0.146
345.9629	0.1527
346.1723	0.1466
346.3817	0.1472
346.5911	0.1574
346.8005	0.1471
347.0099	0.1574
347.2193	0.151
347.4286	0.153
347.638	0.1522
347.8473	0.1609
348.0566	0.1602
348.2659	0.1591
348.4752	0.1558
348.6845	0.1606
348.8937	0.1565
349.103	0.153
349.3122	0.1652
349.5214	0.1578
349.7306	0.1567
349.9398	0.1598
350.149	0.1698
350.3582	0.16
350.5674	0.1653
350.7765	0.1635
350.9856	0.1675
351.1948	0.1633
351.4039	0.1654
351.613	0.1792
351.822	0.1692
352.0311	0.1646
352.2402	0.171
352.4492	0.1623
352.6582	0.1647
352.8672	0.1659
353.0762	0.1682
353.2852	0.1785
353.4942	0.1678
353.7032	0.1701
353.9121	0.1734
354.1211	0.1739
354.33	0.1735
354.5389	0.1842
354.7478	0.1817
354.9567	0.1745
355.1655	0.1758
355.3744	0.1805
355.5833	0.1887
355.7921	0.186
356.0009	0.1758
356.2097	0.1845
356.4185	0.1866
356.6273	0.1811
356.8361	0.1915
357.0448	0.1899
357.2536	0.1872
357.4623	0.1867
357.671	0.1896
357.8797	0.1918
358.0884	0.1918
358.2971	0.1885
358.5057	0.189
358.7144	0.1905
358.923	0.1942
359.1316	0.1931
359.3402	0.1932
359.5488	0.1956
359.7574	0.2014
359.966	0.1969
360.1746	0.1944
360.3831	0.2085
360.5916	0.2048
360.8002	0.2076
361.0087	0.215
361.2172	0.2031
361.4256	0.1984
361.6341	0.2201
361.8426	0.2081
362.051	0.2052
362.2594	0.2097
362.4678	0.2129
362.6762	0.2209
362.8846	0.217
363.093	0.214
363.3014	0.2186
363.5097	0.2227
363.718	0.2327
363.9264	0.2228
364.1347	0.229
364.343	0.2232
364.5513	0.2247
364.7595	0.2315
364.9678	0.2362
365.176	0.2238
365.3842	0.2277
365.5925	0.2329
365.8007	0.239
366.0089	0.2368
366.217	0.2287
366.4252	0.2386
366.6333	0.233
366.8415	0.2387
367.0496	0.231
367.2577	0.2404
367.4658	0.2404
367.6739	0.2413
367.882	0.2514
368.09	0.2499
368.2981	0.2409
368.5061	0.2522
368.7141	0.2483
368.9221	0.2427
369.1301	0.2495
369.3381	0.2494
369.5461	0.2553
369.754	0.2518
369.962	0.2572
370.1699	0.2619
370.3778	0.2587
370.5857	0.2557
370.7936	0.2537
371.0015	0.2547
371.2093	0.2648
371.4172	0.2589
371.625	0.2613
371.8328	0.2594
372.0406	0.2665
372.2484	0.2523
372.4562	0.2629
372.664	0.2679
372.8717	0.2658
373.0795	0.27
373.2872	0.2694
373.4949	0.2747
373.7026	0.2716
373.9103	0.2638
374.118	0.2672
374.3256	0.2783
374.5333	0.2728
374.7409	0.2627
374.9485	0.2698
375.1561	0.2723
375.3637	0.2659
375.5713	0.2787
375.7789	0.27
375.9864	0.28
376.194	0.2815
376.4015	0.2825
376.609	0.2834
376.8165	0.2898
377.024	0.284
377.2315	0.2975
377.4389	0.284
377.6464	0.2917
377.8538	0.2868
378.0612	0.2769
378.2686	0.2895
378.476	0.2927
378.6834	0.2887
378.8908	0.291
379.0981	0.2971
379.3055	0.295
379.5128	0.2992
379.7201	0.2988
379.9274	0.2921
380.1347	0.3058
380.342	0.3112
380.5492	0.2927
380.7565	0.2947
380.9637	0.3018
381.1709	0.2953
381.3781	0.3076
381.5853	0.3026
381.7925	0.3068
381.9997	0.3064
382.2068	0.2986
382.4139	0.3073
382.6211	0.3132
382.8282	0.3056
383.0353	0.3124
383.2424	0.3106
383.4494	0.3113
383.6565	0.3086
383.8635	0.3234
384.0706	0.3129
384.2776	0.3156
384.4846	0.3118
384.6916	0.3084
384.8986	0.3127
385.1055	0.3152
385.3125	0.3178
385.5194	0.3165
385.7263	0.3063
385.9333	0.3097
386.1402	0.3183
386.347	0.3169
386.5539	0.3224
386.7608	0.3115
386.9676	0.3172
387.1744	0.3134
387.3813	0.3199
387.5881	0.3132
387.7948	0.3129
388.0016	0.3121
388.2084	0.3133
388.4151	0.3108
388.6219	0.314
388.8286	0.3094
389.0353	0.3158
389.242	0.3016
389.4487	0.3148
389.6553	0.3101
389.862	0.3082
390.0686	0.3023
390.2753	0.3001
390.4819	0.299
390.6885	0.305
390.8951	0.3073
391.1016	0.3038
391.3082	0.298
391.5147	0.2979
391.7213	0.2976
391.9278	0.3059
392.1343	0.2949
392.3408	0.2943
392.5473	0.2839
392.7537	0.2921
392.9602	0.2847
393.1666	0.3012
393.373	0.2959
393.5794	0.2908
393.7858	0.2903
393.9922	0.2915
394.1986	0.2883
394.4049	0.2908
394.6113	0.2801
394.8176	0.2731
395.0239	0.2719
395.2302	0.2718
395.4365	0.2761
395.6428	0.287
395.8491	0.2813
396.0553	0.2778
396.2615	0.2694
396.4678	0.2705
396.674	0.2684
396.8802	0.2681
397.0863	0.2723
397.2925	0.2743
397.4987	0.2684
397.7048	0.2719
397.9109	0.2796
398.117	0.2689
398.3231	0.278
398.5292	0.2778
398.7353	0.2697
398.9413	0.2669
399.1474	0.2793
399.3534	0.2706
399.5594	0.2744
399.7654	0.2587
399.9714	0.2631
400.1774	0.2631
400.3833	0.2674
400.5893	0.2607
400.7952	0.2732
401.0011	0.2514
401.207	0.2629
401.4129	0.2706
401.6188	0.2621
401.8247	0.2674
402.0305	0.2659
402.2364	0.2692
402.4422	0.2691
402.648	0.2744
402.8538	0.2744
403.0596	0.2553
403.2654	0.273
403.4711	0.2659
403.6768	0.2736
403.8826	0.2615
404.0883	0.252
404.294	0.2687
404.4997	0.2657
404.7054	0.2548
404.911	0.2667
405.1167	0.2708
405.3223	0.2669
405.5279	0.268
405.7335	0.2653
405.9391	0.2616
406.1447	0.2661
406.3502	0.2717
406.5558	0.2736
406.7613	0.2707
406.9668	0.2619
407.1724	0.265
407.3778	0.2672
407.5833	0.2622
407.7888	0.2685
407.9942	0.2659
408.1997	0.2608
408.4051	0.2695
408.6105	0.2749
408.8159	0.2641
409.0213	0.2693
409.2267	0.2688
409.432	0.2706
409.6374	0.2633
409.8427	0.2712
410.048	0.2692
410.2533	0.2674
410.4586	0.2608
410.6639	0.269
410.8691	0.2722
411.0744	0.2646
411.2796	0.2745
411.4848	0.2731
411.69	0.2778
411.8952	0.268
412.1004	0.2555
412.3056	0.2502
412.5107	0.2579
412.7158	0.266
412.921	0.2669
413.1261	0.264
413.3312	0.2623
413.5362	0.2667
413.7413	0.2623
413.9464	0.2667
414.1514	0.2602
414.3564	0.266
414.5614	0.2664
414.7664	0.269
414.9714	0.2732
415.1764	0.2595
415.3813	0.263
415.5863	0.2606
415.7912	0.2592
415.9961	0.2616
416.201	0.2496
416.4059	0.256
416.6108	0.2588
416.8156	0.2562
417.0205	0.2501
417.2253	0.2625
417.4301	0.2643
417.6349	0.2609
417.8397	0.2653
418.0445	0.2584
418.2492	0.2563
418.454	0.2618
418.6587	0.2472
418.8634	0.2483
419.0681	0.2543
419.2728	0.2511
419.4775	0.2551
419.6822	0.2497
419.8868	0.2542
420.0915	0.2571
420.2961	0.2368
420.5007	0.2372
420.7053	0.2514
420.9099	0.2453
421.1144	0.2434
421.319	0.2526
421.5235	0.2485
421.728	0.2471
421.9325	0.2493
422.137	0.2394
422.3415	0.2517
422.546	0.2402
422.7504	0.2395
422.9549	0.2394
423.1593	0.2363
423.3637	0.2342
423.5681	0.2459
423.7725	0.2342
423.9769	0.2347
424.1812	0.2355
424.3856	0.2338
424.5899	0.2352
424.7942	0.222
424.9985	0.2311
425.2028	0.2278
425.4071	0.2222
425.6113	0.225
425.8156	0.2265
426.0198	0.2183
426.224	0.2243
426.4282	0.2173
426.6324	0.2159
426.8366	0.2169
