Data from D4ACN5uM480nmA_Absorbance_12-08-00-400.txt Node
Date: Fri Feb 21 12:08:00 GMT 2025
User: LASERRRRR
Spectrometer: FLMT03099
Trigger mode: 0
Integration Time (sec): 1.500000E-2
Scans to average: 1
Electric dark correction enabled: true
Nonlinearity correction enabled: false
Boxcar width: 0
XAxis mode: Wavelengths
Number of Pixels in Spectrum: 3648
>>>>>Begin Spectral Data<<<<<
179.3399	0.3584
179.5586	0.3584
179.7771	0.3584
179.9957	0.2816
180.2143	1.4393
180.4329	-0
180.6514	-0
180.8699	-0
181.0885	-0.2705
181.307	1.1163
181.5255	0.4434
181.744	0.0193
181.9625	-0.3583
182.181	-0
182.3994	-0
182.6179	-0.7553
182.8363	-0
183.0547	-0
183.2732	0.3784
183.4916	0.2882
183.71	0.3222
183.9284	0.3791
184.1467	0.22
184.3651	0.3765
184.5835	0.2115
184.8018	0.0832
185.0201	0.2985
185.2385	0.378
185.4568	0.3115
185.6751	0.1479
185.8934	0.5215
186.1117	0.0334
186.3299	0.3724
186.5482	0.0565
186.7664	0.1761
186.9847	0.1493
187.2029	0.4241
187.4211	0.2221
187.6393	0.1926
187.8575	0.164
188.0757	0.1888
188.2939	0.228
188.512	0.2015
188.7302	0.357
188.9483	0.2223
189.1665	0.5313
189.3846	0.0903
189.6027	-0.0385
189.8208	0.2665
190.0389	0.1184
190.257	0.1577
190.475	0.0598
190.6931	0.17
190.9111	0.4542
191.1292	0.2154
191.3472	0.1833
191.5652	0.2516
191.7832	0.2283
192.0012	0.3733
192.2192	0.2965
192.4371	0.312
192.6551	0.4517
192.873	0.2636
193.091	0.2027
193.3089	0.2089
193.5268	0.6866
193.7447	0.5655
193.9626	0.3826
194.1805	0.3297
194.3984	0.4438
194.6162	0.4221
194.8341	0.4032
195.0519	0.6301
195.2697	0.6484
195.4875	0.6239
195.7054	0.4654
195.9231	0.5964
196.1409	0.4278
196.3587	0.6546
196.5765	0.4634
196.7942	0.6176
197.012	0.4995
197.2297	0.4754
197.4474	0.6964
197.6651	0.5518
197.8828	0.8092
198.1005	0.6292
198.3182	0.5662
198.5358	0.4912
198.7535	0.5414
198.9711	0.568
199.1888	0.6706
199.4064	0.6212
199.624	0.6173
199.8416	0.5492
200.0592	0.5412
200.2767	0.5911
200.4943	0.5623
200.7119	0.5995
200.9294	0.5139
201.1469	0.5406
201.3645	0.6571
201.582	0.574
201.7995	0.6336
202.017	0.5171
202.2344	0.4805
202.4519	0.5617
202.6694	0.5419
202.8868	0.5852
203.1042	0.5216
203.3217	0.5614
203.5391	0.5103
203.7565	0.4777
203.9739	0.5031
204.1913	0.5137
204.4086	0.4967
204.626	0.4909
204.8433	0.5043
205.0607	0.4861
205.278	0.5212
205.4953	0.5
205.7126	0.4784
205.9299	0.4607
206.1472	0.5138
206.3644	0.4894
206.5817	0.4554
206.7989	0.4956
207.0162	0.4397
207.2334	0.4327
207.4506	0.4293
207.6678	0.4433
207.885	0.4333
208.1022	0.4345
208.3194	0.4077
208.5365	0.4535
208.7537	0.4244
208.9708	0.4455
209.1879	0.4067
209.405	0.428
209.6222	0.3792
209.8392	0.4001
210.0563	0.4437
210.2734	0.4038
210.4905	0.4096
210.7075	0.4429
210.9245	0.42
211.1416	0.4027
211.3586	0.4304
211.5756	0.401
211.7926	0.4076
212.0096	0.3977
212.2265	0.3883
212.4435	0.4126
212.6604	0.4092
212.8774	0.3964
213.0943	0.3944
213.3112	0.4064
213.5281	0.4206
213.745	0.4272
213.9619	0.4166
214.1788	0.4021
214.3956	0.3966
214.6125	0.4049
214.8293	0.4093
215.0461	0.3989
215.2629	0.3948
215.4798	0.3849
215.6965	0.3803
215.9133	0.3989
216.1301	0.412
216.3469	0.4123
216.5636	0.4128
216.7803	0.4119
216.9971	0.42
217.2138	0.4053
217.4305	0.4199
217.6472	0.3906
217.8639	0.406
218.0805	0.4083
218.2972	0.4156
218.5138	0.4317
218.7305	0.411
218.9471	0.4426
219.1637	0.4234
219.3803	0.4176
219.5969	0.4265
219.8135	0.4182
220.0301	0.3951
220.2466	0.4252
220.4632	0.413
220.6797	0.4381
220.8962	0.4355
221.1127	0.4173
221.3292	0.4578
221.5457	0.4333
221.7622	0.426
221.9787	0.4223
222.1951	0.45
222.4116	0.4394
222.628	0.4446
222.8444	0.4487
223.0608	0.4177
223.2772	0.4526
223.4936	0.4531
223.71	0.4317
223.9264	0.447
224.1427	0.4503
224.3591	0.4566
224.5754	0.4652
224.7917	0.4553
225.008	0.4528
225.2243	0.4614
225.4406	0.4675
225.6569	0.4569
225.8732	0.4616
226.0894	0.4748
226.3057	0.447
226.5219	0.4577
226.7381	0.4577
226.9543	0.4752
227.1705	0.4723
227.3867	0.4869
227.6029	0.4807
227.8191	0.484
228.0352	0.488
228.2513	0.4828
228.4675	0.4784
228.6836	0.4869
228.8997	0.4971
229.1158	0.4928
229.3319	0.4951
229.548	0.4904
229.764	0.4904
229.9801	0.503
230.1961	0.4867
230.4121	0.511
230.6282	0.5098
230.8442	0.5211
231.0602	0.5172
231.2761	0.5181
231.4921	0.507
231.7081	0.507
231.924	0.5001
232.14	0.5265
232.3559	0.524
232.5718	0.524
232.7877	0.5283
233.0036	0.4997
233.2195	0.5298
233.4353	0.5324
233.6512	0.5319
233.867	0.5321
234.0829	0.5359
234.2987	0.522
234.5145	0.5324
234.7303	0.536
234.9461	0.5312
235.1619	0.5321
235.3776	0.533
235.5934	0.5328
235.8091	0.5297
236.0249	0.53
236.2406	0.5323
236.4563	0.533
236.672	0.5278
236.8877	0.5319
237.1034	0.5325
237.319	0.5395
237.5347	0.5229
237.7503	0.54
237.966	0.524
238.1816	0.5376
238.3972	0.5474
238.6128	0.5435
238.8284	0.536
239.0439	0.5219
239.2595	0.5231
239.475	0.5248
239.6906	0.5331
239.9061	0.5223
240.1216	0.5286
240.3371	0.5157
240.5526	0.5122
240.7681	0.5184
240.9836	0.5132
241.199	0.5144
241.4145	0.5048
241.6299	0.4842
241.8453	0.4827
242.0607	0.4792
242.2761	0.4802
242.4915	0.4685
242.7069	0.4602
242.9223	0.4637
243.1376	0.4471
243.353	0.4451
243.5683	0.4495
243.7836	0.4236
243.9989	0.4154
244.2142	0.4174
244.4295	0.4081
244.6448	0.3986
244.86	0.3876
245.0753	0.3746
245.2905	0.3736
245.5057	0.3678
245.721	0.3507
245.9362	0.3495
246.1514	0.3393
246.3665	0.3358
246.5817	0.335
246.7969	0.3312
247.012	0.3238
247.2271	0.3127
247.4423	0.3103
247.6574	0.314
247.8725	0.304
248.0876	0.2958
248.3026	0.2879
248.5177	0.2774
248.7328	0.2785
248.9478	0.2735
249.1628	0.2684
249.3779	0.2659
249.5929	0.2578
249.8079	0.2489
250.0228	0.2445
250.2378	0.2424
250.4528	0.2487
250.6677	0.2424
250.8827	0.2335
251.0976	0.2397
251.3125	0.2356
251.5274	0.2365
251.7423	0.2255
251.9572	0.2173
252.172	0.215
252.3869	0.2216
252.6017	0.2152
252.8166	0.2177
253.0314	0.2201
253.2462	0.2162
253.461	0.2132
253.6758	0.2038
253.8906	0.2086
254.1053	0.2017
254.3201	0.2063
254.5348	0.2043
254.7496	0.1965
254.9643	0.2013
255.179	0.2024
255.3937	0.1971
255.6083	0.1966
255.823	0.201
256.0377	0.1916
256.2523	0.2
256.467	0.2003
256.6816	0.2033
256.8962	0.1969
257.1108	0.1947
257.3254	0.2018
257.54	0.1934
257.7545	0.1926
257.9691	0.1912
258.1836	0.1901
258.3981	0.1891
258.6127	0.1847
258.8272	0.184
259.0417	0.1811
259.2561	0.186
259.4706	0.1881
259.6851	0.1854
259.8995	0.1809
260.114	0.1866
260.3284	0.1867
260.5428	0.1823
260.7572	0.1882
260.9716	0.1836
261.186	0.1816
261.4003	0.1899
261.6147	0.1832
261.829	0.1861
262.0433	0.1768
262.2577	0.1848
262.472	0.1893
262.6863	0.1862
262.9005	0.1885
263.1148	0.1818
263.3291	0.184
263.5433	0.186
263.7576	0.1837
263.9718	0.1867
264.186	0.1826
264.4002	0.1843
264.6144	0.188
264.8286	0.1871
265.0427	0.1953
265.2569	0.1852
265.471	0.1844
265.6851	0.1815
265.8993	0.1833
266.1134	0.1818
266.3275	0.182
266.5415	0.1853
266.7556	0.1821
266.9697	0.1807
267.1837	0.1814
267.3978	0.1873
267.6118	0.1829
267.8258	0.1861
268.0398	0.1821
268.2538	0.185
268.4677	0.182
268.6817	0.171
268.8957	0.1809
269.1096	0.1704
269.3235	0.1848
269.5374	0.1733
269.7514	0.1759
269.9652	0.1854
270.1791	0.1814
270.393	0.18
270.6068	0.1689
270.8207	0.178
271.0345	0.1711
271.2483	0.1731
271.4622	0.1723
271.676	0.1756
271.8897	0.1698
272.1035	0.1704
272.3173	0.1675
272.531	0.1667
272.7448	0.1692
272.9585	0.1768
273.1722	0.1708
273.3859	0.1644
273.5996	0.1752
273.8133	0.172
274.0269	0.1728
274.2406	0.1728
274.4542	0.1667
274.6679	0.1689
274.8815	0.173
275.0951	0.1808
275.3087	0.1752
275.5223	0.1691
275.7358	0.1781
275.9494	0.1763
276.1629	0.1734
276.3765	0.1699
276.59	0.1739
276.8035	0.1756
277.017	0.1758
277.2305	0.1762
277.444	0.1755
277.6574	0.1758
277.8709	0.1823
278.0843	0.1782
278.2978	0.1759
278.5112	0.1791
278.7246	0.1745
278.938	0.1776
279.1513	0.1806
279.3647	0.1825
279.5781	0.18
279.7914	0.1771
280.0047	0.1824
280.2181	0.1809
280.4314	0.1775
280.6447	0.1856
280.8579	0.1786
281.0712	0.1875
281.2845	0.1831
281.4977	0.1842
281.711	0.1815
281.9242	0.1828
282.1374	0.186
282.3506	0.1902
282.5638	0.1848
282.7769	0.1802
282.9901	0.186
283.2033	0.1877
283.4164	0.1816
283.6295	0.1831
283.8426	0.1871
284.0557	0.1807
284.2688	0.1923
284.4819	0.1925
284.695	0.1935
284.908	0.1937
285.1211	0.1886
285.3341	0.1993
285.5471	0.1927
285.7601	0.1939
285.9731	0.1882
286.1861	0.1914
286.3991	0.1899
286.612	0.191
286.825	0.1904
287.0379	0.1978
287.2508	0.1876
287.4637	0.1936
287.6766	0.1992
287.8895	0.194
288.1024	0.1966
288.3152	0.1957
288.5281	0.1985
288.7409	0.1984
288.9538	0.193
289.1666	0.1995
289.3794	0.201
289.5922	0.1985
289.8049	0.2072
290.0177	0.195
290.2304	0.1981
290.4432	0.2063
290.6559	0.1903
290.8686	0.2008
291.0813	0.1942
291.294	0.2028
291.5067	0.1998
291.7194	0.1921
291.932	0.2002
292.1447	0.1998
292.3573	0.1984
292.5699	0.2033
292.7825	0.1964
292.9951	0.1986
293.2077	0.1988
293.4203	0.206
293.6328	0.2012
293.8454	0.2021
294.0579	0.2078
294.2704	0.2021
294.4829	0.2019
294.6954	0.1971
294.9079	0.1988
295.1204	0.1939
295.3328	0.2012
295.5453	0.1986
295.7577	0.1929
295.9701	0.1973
296.1825	0.1946
296.3949	0.2041
296.6073	0.2046
296.8197	0.2064
297.0321	0.1967
297.2444	0.1987
297.4567	0.1945
297.6691	0.1995
297.8814	0.2005
298.0937	0.1999
298.306	0.1951
298.5182	0.208
298.7305	0.192
298.9428	0.1962
299.155	0.1974
299.3672	0.2015
299.5794	0.1975
299.7916	0.1957
300.0038	0.1926
300.216	0.1958
300.4282	0.1972
300.6403	0.2
300.8525	0.2033
301.0646	0.1992
301.2767	0.1999
301.4888	0.1931
301.7009	0.1911
301.913	0.2024
302.125	0.1981
302.3371	0.1974
302.5491	0.1963
302.7612	0.1944
302.9732	0.1979
303.1852	0.1959
303.3972	0.1911
303.6092	0.1972
303.8211	0.1857
304.0331	0.1891
304.245	0.1998
304.457	0.201
304.6689	0.193
304.8808	0.1869
305.0927	0.1881
305.3046	0.1857
305.5164	0.1844
305.7283	0.1952
305.9401	0.1841
306.152	0.1855
306.3638	0.1791
306.5756	0.1894
306.7874	0.1801
306.9992	0.1764
307.2109	0.1761
307.4227	0.1726
307.6344	0.1753
307.8462	0.1706
308.0579	0.1662
308.2696	0.1698
308.4813	0.1631
308.693	0.1626
308.9046	0.162
309.1163	0.1636
309.328	0.151
309.5396	0.1595
309.7512	0.1599
309.9628	0.1564
310.1744	0.1579
310.386	0.1475
310.5976	0.1455
310.8091	0.1494
311.0207	0.1498
311.2322	0.1499
311.4437	0.1486
311.6552	0.1444
311.8667	0.1365
312.0782	0.1435
312.2897	0.14
312.5012	0.1373
312.7126	0.1338
312.924	0.1322
313.1355	0.1331
313.3469	0.1294
313.5583	0.1312
313.7696	0.1229
313.981	0.13
314.1924	0.1281
314.4037	0.1241
314.6151	0.1238
314.8264	0.1239
315.0377	0.1311
315.249	0.1157
315.4603	0.12
315.6716	0.1299
315.8828	0.119
316.0941	0.1172
316.3053	0.1195
316.5165	0.1182
316.7277	0.1258
316.9389	0.1204
317.1501	0.1154
317.3613	0.1168
317.5724	0.1188
317.7836	0.1172
317.9947	0.1104
318.2058	0.1223
318.417	0.1124
318.6281	0.1179
318.8391	0.1203
319.0502	0.1149
319.2613	0.1131
319.4723	0.1174
319.6834	0.1147
319.8944	0.1201
320.1054	0.1169
320.3164	0.1145
320.5274	0.1158
320.7383	0.1123
320.9493	0.1147
321.1602	0.112
321.3712	0.1205
321.5821	0.1213
321.793	0.1184
322.0039	0.1206
322.2148	0.1212
322.4257	0.1202
322.6365	0.111
322.8474	0.1136
323.0582	0.1131
323.269	0.1115
323.4798	0.1156
323.6906	0.1127
323.9014	0.1149
324.1122	0.11
324.3229	0.1185
324.5337	0.1164
324.7444	0.1155
324.9551	0.1167
325.1658	0.1191
325.3765	0.1219
325.5872	0.1179
325.7979	0.1208
326.0085	0.1121
326.2192	0.1172
326.4298	0.1214
326.6404	0.1183
326.851	0.1222
327.0616	0.1231
327.2722	0.1257
327.4828	0.1137
327.6933	0.1153
327.9039	0.1232
328.1144	0.121
328.3249	0.1254
328.5354	0.1187
328.7459	0.122
328.9564	0.1257
329.1669	0.1208
329.3773	0.1264
329.5878	0.1228
329.7982	0.116
330.0086	0.1226
330.219	0.1225
330.4294	0.1232
330.6398	0.126
330.8502	0.1186
331.0605	0.1213
331.2708	0.1232
331.4812	0.1181
331.6915	0.1258
331.9018	0.1194
332.1121	0.1271
332.3224	0.1247
332.5326	0.1266
332.7429	0.1217
332.9531	0.1269
333.1633	0.1256
333.3735	0.122
333.5837	0.127
333.7939	0.1247
334.0041	0.1261
334.2143	0.1242
334.4244	0.1215
334.6346	0.1195
334.8447	0.133
335.0548	0.1265
335.2649	0.1265
335.475	0.1284
335.685	0.1243
335.8951	0.13
336.1051	0.1271
336.3152	0.1269
336.5252	0.1272
336.7352	0.1183
336.9452	0.1335
337.1552	0.124
337.3652	0.1312
337.5751	0.1271
337.7851	0.1234
337.995	0.1358
338.2049	0.1328
338.4148	0.1245
338.6247	0.1249
338.8346	0.1288
339.0445	0.1319
339.2543	0.1368
339.4642	0.1345
339.674	0.1332
339.8838	0.1303
340.0936	0.1321
340.3034	0.1366
340.5132	0.1316
340.7229	0.1373
340.9327	0.1407
341.1424	0.1373
341.3522	0.1424
341.5619	0.1368
341.7716	0.1376
341.9813	0.1472
342.1909	0.1466
342.4006	0.1449
342.6102	0.1361
342.8199	0.1385
343.0295	0.1357
343.2391	0.1382
343.4487	0.1414
343.6583	0.1487
343.8679	0.1476
344.0774	0.1427
344.287	0.1479
344.4965	0.1452
344.706	0.1411
344.9155	0.1457
345.125	0.145
345.3345	0.1444
345.544	0.1513
345.7534	0.1523
345.9629	0.1576
346.1723	0.1472
346.3817	0.1517
346.5911	0.1542
346.8005	0.1466
347.0099	0.1556
347.2193	0.1505
347.4286	0.1521
347.638	0.1513
347.8473	0.1569
348.0566	0.1589
348.2659	0.1585
348.4752	0.1551
348.6845	0.1647
348.8937	0.1599
349.103	0.1538
349.3122	0.1621
349.5214	0.16
349.7306	0.1592
349.9398	0.1668
350.149	0.1654
350.3582	0.1585
350.5674	0.1646
350.7765	0.1679
350.9856	0.1676
351.1948	0.1649
351.4039	0.1636
351.613	0.1746
351.822	0.1675
352.0311	0.1654
352.2402	0.171
352.4492	0.1718
352.6582	0.1686
352.8672	0.1658
353.0762	0.1702
353.2852	0.1713
353.4942	0.167
353.7032	0.1694
353.9121	0.169
354.1211	0.1714
354.33	0.182
354.5389	0.1777
354.7478	0.1722
354.9567	0.1772
355.1655	0.1752
355.3744	0.171
355.5833	0.1812
355.7921	0.1728
356.0009	0.1739
356.2097	0.1864
356.4185	0.1865
356.6273	0.1854
356.8361	0.19
357.0448	0.1964
357.2536	0.1893
357.4623	0.1853
357.671	0.1814
357.8797	0.1904
358.0884	0.1784
358.2971	0.1945
358.5057	0.1895
358.7144	0.1964
358.923	0.193
359.1316	0.1946
359.3402	0.2008
359.5488	0.1997
359.7574	0.204
359.966	0.2011
360.1746	0.1987
360.3831	0.2042
360.5916	0.2049
360.8002	0.2052
361.0087	0.2109
361.2172	0.2148
361.4256	0.2014
361.6341	0.2125
361.8426	0.2065
362.051	0.2116
362.2594	0.2148
362.4678	0.2165
362.6762	0.2197
362.8846	0.2195
363.093	0.2147
363.3014	0.2156
363.5097	0.2177
363.718	0.2265
363.9264	0.2201
364.1347	0.2231
364.343	0.2286
364.5513	0.2273
364.7595	0.223
364.9678	0.2352
365.176	0.2341
365.3842	0.2334
365.5925	0.2288
365.8007	0.2323
366.0089	0.2268
366.217	0.2417
366.4252	0.231
366.6333	0.2339
366.8415	0.2415
367.0496	0.2381
367.2577	0.2451
367.4658	0.2477
367.6739	0.2359
367.882	0.2455
368.09	0.2397
368.2981	0.245
368.5061	0.2502
368.7141	0.2499
368.9221	0.2462
369.1301	0.2511
369.3381	0.2503
369.5461	0.2585
369.754	0.2546
369.962	0.253
370.1699	0.2601
370.3778	0.2564
370.5857	0.2638
370.7936	0.2598
371.0015	0.2534
371.2093	0.2603
371.4172	0.2675
371.625	0.2667
371.8328	0.2756
372.0406	0.2616
372.2484	0.2593
372.4562	0.2633
372.664	0.2729
372.8717	0.2624
373.0795	0.2669
373.2872	0.269
373.4949	0.2818
373.7026	0.2767
373.9103	0.2564
374.118	0.2702
374.3256	0.2837
374.5333	0.2741
374.7409	0.2699
374.9485	0.2671
375.1561	0.2789
375.3637	0.2842
375.5713	0.2723
375.7789	0.2777
375.9864	0.2921
376.194	0.2789
376.4015	0.2887
376.609	0.2889
376.8165	0.2823
377.024	0.2801
377.2315	0.2856
377.4389	0.2795
377.6464	0.2905
377.8538	0.2789
378.0612	0.2864
378.2686	0.2923
378.476	0.2891
378.6834	0.2873
378.8908	0.2952
379.0981	0.2951
379.3055	0.304
379.5128	0.2964
379.7201	0.2979
379.9274	0.3009
380.1347	0.2993
380.342	0.3103
380.5492	0.2983
380.7565	0.2963
380.9637	0.2942
381.1709	0.2989
381.3781	0.3016
381.5853	0.2965
381.7925	0.3164
381.9997	0.3117
382.2068	0.3048
382.4139	0.3044
382.6211	0.3036
382.8282	0.3093
383.0353	0.3012
383.2424	0.3075
383.4494	0.31
383.6565	0.3056
383.8635	0.3221
384.0706	0.3117
384.2776	0.3153
384.4846	0.3152
384.6916	0.3077
384.8986	0.307
385.1055	0.3162
385.3125	0.3175
385.5194	0.3131
385.7263	0.3048
385.9333	0.3117
386.1402	0.313
386.347	0.323
386.5539	0.3259
386.7608	0.3182
386.9676	0.3095
387.1744	0.3082
387.3813	0.3098
387.5881	0.3213
387.7948	0.3121
388.0016	0.3101
388.2084	0.315
388.4151	0.3022
388.6219	0.3059
388.8286	0.3082
389.0353	0.3022
389.242	0.3098
389.4487	0.3115
389.6553	0.2961
389.862	0.3061
390.0686	0.3023
390.2753	0.2983
390.4819	0.307
390.6885	0.298
390.8951	0.31
391.1016	0.3057
391.3082	0.293
391.5147	0.2999
391.7213	0.2957
391.9278	0.2949
392.1343	0.2955
392.3408	0.2962
392.5473	0.2831
392.7537	0.2929
392.9602	0.2743
393.1666	0.287
393.373	0.2873
393.5794	0.2875
393.7858	0.2997
393.9922	0.2902
394.1986	0.2831
394.4049	0.2804
394.6113	0.2917
394.8176	0.278
395.0239	0.2781
395.2302	0.2703
395.4365	0.2749
395.6428	0.2757
395.8491	0.2718
396.0553	0.2746
396.2615	0.2777
396.4678	0.2719
396.674	0.2639
396.8802	0.2724
397.0863	0.2649
397.2925	0.2678
397.4987	0.274
397.7048	0.278
397.9109	0.2767
398.117	0.2663
398.3231	0.2723
398.5292	0.2764
398.7353	0.2743
398.9413	0.2675
399.1474	0.2748
399.3534	0.2664
399.5594	0.2778
399.7654	0.2736
399.9714	0.2584
400.1774	0.262
400.3833	0.2779
400.5893	0.262
400.7952	0.2749
401.0011	0.2594
401.207	0.2587
401.4129	0.2657
401.6188	0.27
401.8247	0.2676
402.0305	0.2565
402.2364	0.2683
402.4422	0.2692
402.648	0.2797
402.8538	0.2773
403.0596	0.2563
403.2654	0.2618
403.4711	0.2717
403.6768	0.2818
403.8826	0.2649
404.0883	0.2611
404.294	0.2752
404.4997	0.2655
404.7054	0.2612
404.911	0.2686
405.1167	0.2739
405.3223	0.2729
405.5279	0.2718
405.7335	0.2556
405.9391	0.2656
406.1447	0.256
406.3502	0.2706
406.5558	0.2736
406.7613	0.2658
406.9668	0.2699
407.1724	0.2718
407.3778	0.2632
407.5833	0.2686
407.7888	0.2722
407.9942	0.2737
408.1997	0.2615
408.4051	0.2599
408.6105	0.2732
408.8159	0.2644
409.0213	0.2773
409.2267	0.2736
409.432	0.2719
409.6374	0.2661
409.8427	0.2753
410.048	0.2647
410.2533	0.2612
410.4586	0.2742
410.6639	0.2655
410.8691	0.2757
411.0744	0.2579
411.2796	0.2699
411.4848	0.2634
411.69	0.2639
411.8952	0.2678
412.1004	0.2624
412.3056	0.2654
412.5107	0.2725
412.7158	0.2605
412.921	0.2606
413.1261	0.2678
413.3312	0.2564
413.5362	0.2664
413.7413	0.2677
413.9464	0.2623
414.1514	0.2559
414.3564	0.2555
414.5614	0.2598
414.7664	0.2529
414.9714	0.2647
415.1764	0.2556
415.3813	0.2438
415.5863	0.2549
415.7912	0.2692
415.9961	0.2708
416.201	0.2706
416.4059	0.253
416.6108	0.2647
416.8156	0.247
417.0205	0.2626
417.2253	0.2586
417.4301	0.2654
417.6349	0.2521
417.8397	0.2633
418.0445	0.2612
418.2492	0.2607
418.454	0.2518
418.6587	0.2529
418.8634	0.2552
419.0681	0.2526
419.2728	0.2462
419.4775	0.2562
419.6822	0.2489
419.8868	0.2606
420.0915	0.2592
420.2961	0.2409
420.5007	0.2474
420.7053	0.2508
420.9099	0.2379
421.1144	0.2431
421.319	0.2305
421.5235	0.2434
421.728	0.2492
421.9325	0.2452
422.137	0.2496
422.3415	0.2386
422.546	0.242
422.7504	0.2415
422.9549	0.2314
423.1593	0.2359
423.3637	0.2269
423.5681	0.2371
423.7725	0.2289
423.9769	0.2317
424.1812	0.238
424.3856	0.2356
424.5899	0.2357
424.7942	0.2322
424.9985	0.2316
425.2028	0.2266
425.4071	0.2103
425.6113	0.2261
425.8156	0.2223
426.0198	0.2298
426.224	0.2183
426.4282	0.2189
426.6324	0.2222
426.8366	0.222
427.0407	0.2214
427.2449	0.2157
