Data from D4ACN5uM480nmA_Absorbance_12-08-02-065.txt Node
Date: Fri Feb 21 12:08:02 GMT 2025
User: LASERRRRR
Spectrometer: FLMT03099
Trigger mode: 0
Integration Time (sec): 1.500000E-2
Scans to average: 1
Electric dark correction enabled: true
Nonlinearity correction enabled: false
Boxcar width: 0
XAxis mode: Wavelengths
Number of Pixels in Spectrum: 3648
>>>>>Begin Spectral Data<<<<<
179.3399	0.6118
179.5586	0.6118
179.7771	0.6118
179.9957	0.2069
180.2143	-0
180.4329	-0
180.6514	-0
180.8699	-0.3836
181.0885	-0.0509
181.307	0.0312
181.5255	0.2171
181.744	-0
181.9625	-0
182.181	-0.1117
182.3994	-0
182.6179	-0
182.8363	-0
183.0547	-0
183.2732	0.3482
183.4916	0.1764
183.71	0.2766
183.9284	0.1797
184.1467	-0.1366
184.3651	0.2289
184.5835	0.1305
184.8018	0.1639
185.0201	0.1444
185.2385	-0.0471
185.4568	0.0797
185.6751	0.0814
185.8934	0.2074
186.1117	0.0181
186.3299	0.3312
186.5482	0.26
186.7664	0.3363
186.9847	0.2967
187.2029	0.2804
187.4211	0.1398
187.6393	0.1415
187.8575	0.2262
188.0757	0.3171
188.2939	0.01
188.512	0.0478
188.7302	0.1702
188.9483	0.2839
189.1665	0.2033
189.3846	0.1767
189.6027	0.3323
189.8208	0.2178
190.0389	0.4328
190.257	0.4491
190.475	0.5082
190.6931	0.4474
190.9111	0.3411
191.1292	0.3178
191.3472	0.2632
191.5652	0.6492
191.7832	0.2916
192.0012	0.2639
192.2192	0.3127
192.4371	0.2008
192.6551	0.1681
192.873	0.2148
193.091	0.4512
193.3089	0.0171
193.5268	0.6073
193.7447	0.4207
193.9626	0.4116
194.1805	0.3733
194.3984	0.5944
194.6162	0.4149
194.8341	0.237
195.0519	0.4771
195.2697	0.6943
195.4875	0.6531
195.7054	0.4226
195.9231	0.4318
196.1409	0.7535
196.3587	0.5462
196.5765	0.4882
196.7942	0.6522
197.012	0.5537
197.2297	0.5583
197.4474	0.721
197.6651	0.5029
197.8828	0.6606
198.1005	0.6479
198.3182	0.6067
198.5358	0.537
198.7535	0.5172
198.9711	0.5597
199.1888	0.5158
199.4064	0.5172
199.624	0.6947
199.8416	0.6132
200.0592	0.5364
200.2767	0.6096
200.4943	0.6432
200.7119	0.5431
200.9294	0.5969
201.1469	0.6209
201.3645	0.6511
201.582	0.5392
201.7995	0.5961
202.017	0.5506
202.2344	0.5329
202.4519	0.636
202.6694	0.5254
202.8868	0.6294
203.1042	0.552
203.3217	0.5228
203.5391	0.551
203.7565	0.4856
203.9739	0.517
204.1913	0.4707
204.4086	0.5181
204.626	0.5415
204.8433	0.4937
205.0607	0.4886
205.278	0.5317
205.4953	0.4966
205.7126	0.4839
205.9299	0.4585
206.1472	0.4897
206.3644	0.4976
206.5817	0.4951
206.7989	0.4617
207.0162	0.4569
207.2334	0.443
207.4506	0.4588
207.6678	0.4525
207.885	0.4487
208.1022	0.443
208.3194	0.4524
208.5365	0.4651
208.7537	0.4693
208.9708	0.4413
209.1879	0.403
209.405	0.4157
209.6222	0.4066
209.8392	0.4319
210.0563	0.3875
210.2734	0.3866
210.4905	0.3987
210.7075	0.4569
210.9245	0.3888
211.1416	0.4446
211.3586	0.4128
211.5756	0.4112
211.7926	0.4094
212.0096	0.3938
212.2265	0.3935
212.4435	0.4212
212.6604	0.4022
212.8774	0.4014
213.0943	0.4415
213.3112	0.3977
213.5281	0.423
213.745	0.3988
213.9619	0.3792
214.1788	0.4063
214.3956	0.4319
214.6125	0.4042
214.8293	0.43
215.0461	0.4011
215.2629	0.4124
215.4798	0.3907
215.6965	0.3707
215.9133	0.3855
216.1301	0.4134
216.3469	0.4106
216.5636	0.4091
216.7803	0.3967
216.9971	0.4124
217.2138	0.4082
217.4305	0.4084
217.6472	0.4143
217.8639	0.4045
218.0805	0.3996
218.2972	0.4254
218.5138	0.4311
218.7305	0.4339
218.9471	0.4252
219.1637	0.4176
219.3803	0.4184
219.5969	0.4222
219.8135	0.4403
220.0301	0.4301
220.2466	0.4336
220.4632	0.4204
220.6797	0.4297
220.8962	0.4198
221.1127	0.4217
221.3292	0.4175
221.5457	0.4264
221.7622	0.4352
221.9787	0.4532
222.1951	0.4362
222.4116	0.4529
222.628	0.4444
222.8444	0.456
223.0608	0.4345
223.2772	0.4392
223.4936	0.4482
223.71	0.4456
223.9264	0.4436
224.1427	0.4458
224.3591	0.4558
224.5754	0.4564
224.7917	0.4542
225.008	0.4494
225.2243	0.4631
225.4406	0.4732
225.6569	0.459
225.8732	0.464
226.0894	0.4873
226.3057	0.4749
226.5219	0.4559
226.7381	0.4684
226.9543	0.4606
227.1705	0.4805
227.3867	0.4868
227.6029	0.4769
227.8191	0.4924
228.0352	0.4841
228.2513	0.4846
228.4675	0.4798
228.6836	0.4959
228.8997	0.4951
229.1158	0.4766
229.3319	0.5054
229.548	0.5091
229.764	0.5
229.9801	0.5039
230.1961	0.5027
230.4121	0.5197
230.6282	0.4994
230.8442	0.5077
231.0602	0.529
231.2761	0.5287
231.4921	0.5249
231.7081	0.5172
231.924	0.5205
232.14	0.5165
232.3559	0.5284
232.5718	0.536
232.7877	0.5335
233.0036	0.5227
233.2195	0.5367
233.4353	0.5322
233.6512	0.5292
233.867	0.5306
234.0829	0.5261
234.2987	0.5222
234.5145	0.5304
234.7303	0.5317
234.9461	0.5313
235.1619	0.5435
235.3776	0.5268
235.5934	0.5317
235.8091	0.527
236.0249	0.5263
236.2406	0.5374
236.4563	0.5408
236.672	0.5225
236.8877	0.5304
237.1034	0.5435
237.319	0.552
237.5347	0.5361
237.7503	0.5529
237.966	0.5432
238.1816	0.5326
238.3972	0.5304
238.6128	0.5435
238.8284	0.5472
239.0439	0.536
239.2595	0.5323
239.475	0.531
239.6906	0.5264
239.9061	0.5296
240.1216	0.5257
240.3371	0.5182
240.5526	0.5183
240.7681	0.52
240.9836	0.5152
241.199	0.5147
241.4145	0.4941
241.6299	0.4919
241.8453	0.4997
242.0607	0.4889
242.2761	0.4853
242.4915	0.4713
242.7069	0.4672
242.9223	0.461
243.1376	0.4494
243.353	0.4402
243.5683	0.44
243.7836	0.433
243.9989	0.4142
244.2142	0.4174
244.4295	0.4066
244.6448	0.3996
244.86	0.3887
245.0753	0.3783
245.2905	0.3756
245.5057	0.3681
245.721	0.358
245.9362	0.3487
246.1514	0.3349
246.3665	0.3497
246.5817	0.3321
246.7969	0.3236
247.012	0.3159
247.2271	0.3149
247.4423	0.3058
247.6574	0.3049
247.8725	0.3016
248.0876	0.291
248.3026	0.2863
248.5177	0.2776
248.7328	0.2828
248.9478	0.2755
249.1628	0.2658
249.3779	0.263
249.5929	0.2611
249.8079	0.2501
250.0228	0.2584
250.2378	0.2551
250.4528	0.2518
250.6677	0.2358
250.8827	0.2358
251.0976	0.2436
251.3125	0.231
251.5274	0.2354
251.7423	0.2303
251.9572	0.2173
252.172	0.2188
252.3869	0.2169
252.6017	0.2179
252.8166	0.2167
253.0314	0.2189
253.2462	0.2145
253.461	0.2128
253.6758	0.2075
253.8906	0.2123
254.1053	0.2036
254.3201	0.2045
254.5348	0.2041
254.7496	0.2072
254.9643	0.204
255.179	0.2039
255.3937	0.1984
255.6083	0.2004
255.823	0.1984
256.0377	0.1992
256.2523	0.2034
256.467	0.1937
256.6816	0.1978
256.8962	0.1973
257.1108	0.1987
257.3254	0.1974
257.54	0.1922
257.7545	0.1935
257.9691	0.1901
258.1836	0.1897
258.3981	0.1857
258.6127	0.18
258.8272	0.1926
259.0417	0.1837
259.2561	0.1866
259.4706	0.1896
259.6851	0.1837
259.8995	0.1793
260.114	0.1889
260.3284	0.185
260.5428	0.1818
260.7572	0.1879
260.9716	0.1792
261.186	0.1771
261.4003	0.1936
261.6147	0.1859
261.829	0.1816
262.0433	0.1848
262.2577	0.1807
262.472	0.1827
262.6863	0.1926
262.9005	0.1872
263.1148	0.1784
263.3291	0.1904
263.5433	0.1873
263.7576	0.1828
263.9718	0.1924
264.186	0.1879
264.4002	0.1805
264.6144	0.1881
264.8286	0.1831
265.0427	0.1927
265.2569	0.1862
265.471	0.1882
265.6851	0.1841
265.8993	0.1885
266.1134	0.1873
266.3275	0.1881
266.5415	0.1873
266.7556	0.1859
266.9697	0.1848
267.1837	0.1828
267.3978	0.1892
267.6118	0.1855
267.8258	0.1862
268.0398	0.1797
268.2538	0.1863
268.4677	0.1833
268.6817	0.1765
268.8957	0.1833
269.1096	0.1743
269.3235	0.1859
269.5374	0.1764
269.7514	0.184
269.9652	0.1795
270.1791	0.1823
270.393	0.1835
270.6068	0.1763
270.8207	0.1813
271.0345	0.173
271.2483	0.1784
271.4622	0.1781
271.676	0.175
271.8897	0.1733
272.1035	0.1768
272.3173	0.1735
272.531	0.1765
272.7448	0.1755
272.9585	0.1732
273.1722	0.177
273.3859	0.1721
273.5996	0.1699
273.8133	0.1662
274.0269	0.1763
274.2406	0.1701
274.4542	0.1668
274.6679	0.1687
274.8815	0.1721
275.0951	0.1772
275.3087	0.1754
275.5223	0.167
275.7358	0.1762
275.9494	0.1753
276.1629	0.1768
276.3765	0.1725
276.59	0.1763
276.8035	0.1807
277.017	0.1806
277.2305	0.1799
277.444	0.1753
277.6574	0.1776
277.8709	0.1774
278.0843	0.1773
278.2978	0.179
278.5112	0.1833
278.7246	0.1731
278.938	0.186
279.1513	0.1811
279.3647	0.18
279.5781	0.1776
279.7914	0.1804
280.0047	0.1828
280.2181	0.1858
280.4314	0.181
280.6447	0.1865
280.8579	0.1795
281.0712	0.1806
281.2845	0.1822
281.4977	0.1859
281.711	0.1823
281.9242	0.1878
282.1374	0.1836
282.3506	0.1863
282.5638	0.1854
282.7769	0.1832
282.9901	0.1812
283.2033	0.1917
283.4164	0.1844
283.6295	0.1845
283.8426	0.1848
284.0557	0.1858
284.2688	0.1856
284.4819	0.1934
284.695	0.1954
284.908	0.1911
285.1211	0.1892
285.3341	0.194
285.5471	0.1911
285.7601	0.1896
285.9731	0.1924
286.1861	0.191
286.3991	0.1905
286.612	0.1931
286.825	0.1906
287.0379	0.1944
287.2508	0.2011
287.4637	0.1958
287.6766	0.1977
287.8895	0.1905
288.1024	0.1987
288.3152	0.1922
288.5281	0.1961
288.7409	0.1945
288.9538	0.1919
289.1666	0.2005
289.3794	0.203
289.5922	0.1923
289.8049	0.2151
290.0177	0.2053
290.2304	0.1992
290.4432	0.201
290.6559	0.1935
290.8686	0.203
291.0813	0.2016
291.294	0.2005
291.5067	0.2022
291.7194	0.1972
291.932	0.2032
292.1447	0.2006
292.3573	0.204
292.5699	0.2037
292.7825	0.1993
292.9951	0.1981
293.2077	0.202
293.4203	0.2018
293.6328	0.1934
293.8454	0.2012
294.0579	0.2072
294.2704	0.199
294.4829	0.1988
294.6954	0.1963
294.9079	0.2021
295.1204	0.2025
295.3328	0.2022
295.5453	0.201
295.7577	0.1946
295.9701	0.1974
296.1825	0.1966
296.3949	0.2059
296.6073	0.2004
296.8197	0.202
297.0321	0.202
297.2444	0.1997
297.4567	0.2046
297.6691	0.1987
297.8814	0.2002
298.0937	0.2004
298.306	0.1952
298.5182	0.1991
298.7305	0.1987
298.9428	0.1967
299.155	0.2037
299.3672	0.2036
299.5794	0.1949
299.7916	0.1972
300.0038	0.2009
300.216	0.2003
300.4282	0.1917
300.6403	0.2014
300.8525	0.2024
301.0646	0.197
301.2767	0.1983
301.4888	0.1977
301.7009	0.2061
301.913	0.1962
302.125	0.2036
302.3371	0.1976
302.5491	0.1991
302.7612	0.1991
302.9732	0.1935
303.1852	0.2009
303.3972	0.1932
303.6092	0.1974
303.8211	0.1896
304.0331	0.1901
304.245	0.1957
304.457	0.1941
304.6689	0.1904
304.8808	0.1895
305.0927	0.1915
305.3046	0.1881
305.5164	0.1889
305.7283	0.1892
305.9401	0.1793
306.152	0.1827
306.3638	0.1773
306.5756	0.1816
306.7874	0.1799
306.9992	0.18
307.2109	0.1742
307.4227	0.1736
307.6344	0.1709
307.8462	0.1791
308.0579	0.1696
308.2696	0.1604
308.4813	0.1617
308.693	0.1664
308.9046	0.1627
309.1163	0.167
309.328	0.1575
309.5396	0.1554
309.7512	0.1562
309.9628	0.1581
310.1744	0.1537
310.386	0.1539
310.5976	0.1411
310.8091	0.1418
311.0207	0.1512
311.2322	0.1497
311.4437	0.1464
311.6552	0.148
311.8667	0.1359
312.0782	0.1395
312.2897	0.1419
312.5012	0.1394
312.7126	0.1282
312.924	0.1356
313.1355	0.1287
313.3469	0.1276
313.5583	0.1238
313.7696	0.1309
313.981	0.1286
314.1924	0.1294
314.4037	0.1239
314.6151	0.1305
314.8264	0.1221
315.0377	0.1275
315.249	0.1185
315.4603	0.1202
315.6716	0.1256
315.8828	0.1257
316.0941	0.1203
316.3053	0.1171
316.5165	0.1181
316.7277	0.1221
316.9389	0.1226
317.1501	0.1179
317.3613	0.1144
317.5724	0.1189
317.7836	0.1217
317.9947	0.1154
318.2058	0.1148
318.417	0.1184
318.6281	0.1132
318.8391	0.1172
319.0502	0.1152
319.2613	0.1156
319.4723	0.1178
319.6834	0.1161
319.8944	0.1205
320.1054	0.1125
320.3164	0.1169
320.5274	0.1121
320.7383	0.1154
320.9493	0.118
321.1602	0.1141
321.3712	0.1206
321.5821	0.1173
321.793	0.1149
322.0039	0.1203
322.2148	0.1165
322.4257	0.1218
322.6365	0.1166
322.8474	0.1131
323.0582	0.1184
323.269	0.1167
323.4798	0.1153
323.6906	0.1194
323.9014	0.1143
324.1122	0.1205
324.3229	0.1185
324.5337	0.1102
324.7444	0.1181
324.9551	0.1169
325.1658	0.1244
325.3765	0.1172
325.5872	0.1151
325.7979	0.1211
326.0085	0.1198
326.2192	0.1109
326.4298	0.1202
326.6404	0.1209
326.851	0.1188
327.0616	0.1202
327.2722	0.1262
327.4828	0.1169
327.6933	0.1242
327.9039	0.1189
328.1144	0.12
328.3249	0.1174
328.5354	0.1219
328.7459	0.1234
328.9564	0.1197
329.1669	0.123
329.3773	0.1244
329.5878	0.1229
329.7982	0.1224
330.0086	0.1253
330.219	0.1197
330.4294	0.1229
330.6398	0.1301
330.8502	0.1294
331.0605	0.1282
331.2708	0.1252
331.4812	0.1298
331.6915	0.1207
331.9018	0.1221
332.1121	0.1262
332.3224	0.1277
332.5326	0.1283
332.7429	0.1219
332.9531	0.1228
333.1633	0.1208
333.3735	0.122
333.5837	0.1234
333.7939	0.1266
334.0041	0.1243
334.2143	0.1316
334.4244	0.126
334.6346	0.1232
334.8447	0.1239
335.0548	0.1307
335.2649	0.1275
335.475	0.1222
335.685	0.1224
335.8951	0.1258
336.1051	0.1329
336.3152	0.1218
336.5252	0.1315
336.7352	0.1275
336.9452	0.1275
337.1552	0.1368
337.3652	0.1279
337.5751	0.1299
337.7851	0.1214
337.995	0.1303
338.2049	0.1334
338.4148	0.1252
338.6247	0.1291
338.8346	0.1246
339.0445	0.1311
339.2543	0.1337
339.4642	0.1358
339.674	0.137
339.8838	0.1301
340.0936	0.1312
340.3034	0.1358
340.5132	0.1361
340.7229	0.1344
340.9327	0.1402
341.1424	0.1329
341.3522	0.1453
341.5619	0.1363
341.7716	0.134
341.9813	0.1378
342.1909	0.144
342.4006	0.1406
342.6102	0.144
342.8199	0.1409
343.0295	0.1488
343.2391	0.1402
343.4487	0.1493
343.6583	0.1471
343.8679	0.143
344.0774	0.1439
344.287	0.1407
344.4965	0.146
344.706	0.1496
344.9155	0.1451
345.125	0.1485
345.3345	0.1422
345.544	0.1505
345.7534	0.1509
345.9629	0.1493
346.1723	0.1482
346.3817	0.1509
346.5911	0.1518
346.8005	0.1542
347.0099	0.1557
347.2193	0.1446
347.4286	0.1482
347.638	0.1599
347.8473	0.1575
348.0566	0.1587
348.2659	0.1568
348.4752	0.1539
348.6845	0.1626
348.8937	0.1623
349.103	0.152
349.3122	0.1656
349.5214	0.162
349.7306	0.1598
349.9398	0.1599
350.149	0.1615
350.3582	0.1642
350.5674	0.1657
350.7765	0.1634
350.9856	0.1588
351.1948	0.1601
351.4039	0.1663
351.613	0.1764
351.822	0.1703
352.0311	0.1643
352.2402	0.175
352.4492	0.1716
352.6582	0.1686
352.8672	0.179
353.0762	0.1709
353.2852	0.174
353.4942	0.1735
353.7032	0.1703
353.9121	0.1731
354.1211	0.1666
354.33	0.1766
354.5389	0.1738
354.7478	0.181
354.9567	0.1759
355.1655	0.1826
355.3744	0.1806
355.5833	0.1797
355.7921	0.1791
356.0009	0.1796
356.2097	0.1878
356.4185	0.1875
356.6273	0.1807
356.8361	0.1974
357.0448	0.185
357.2536	0.1877
357.4623	0.1866
357.671	0.1907
357.8797	0.1951
358.0884	0.1959
358.2971	0.1921
358.5057	0.1857
358.7144	0.199
358.923	0.1985
359.1316	0.1933
359.3402	0.1995
359.5488	0.2018
359.7574	0.2003
359.966	0.2015
360.1746	0.2022
360.3831	0.2026
360.5916	0.2037
360.8002	0.2093
361.0087	0.2057
361.2172	0.2113
361.4256	0.2051
361.6341	0.2106
361.8426	0.2033
362.051	0.2082
362.2594	0.2172
362.4678	0.2125
362.6762	0.2225
362.8846	0.2208
363.093	0.2144
363.3014	0.226
363.5097	0.2137
363.718	0.2304
363.9264	0.2261
364.1347	0.2283
364.343	0.2275
364.5513	0.2296
364.7595	0.2291
364.9678	0.2304
365.176	0.2312
365.3842	0.231
365.5925	0.2302
365.8007	0.2349
366.0089	0.2351
366.217	0.2345
366.4252	0.2342
366.6333	0.2318
366.8415	0.2325
367.0496	0.2399
367.2577	0.2486
367.4658	0.2438
367.6739	0.2395
367.882	0.245
368.09	0.2408
368.2981	0.2373
368.5061	0.259
368.7141	0.2403
368.9221	0.2529
369.1301	0.2516
369.3381	0.2571
369.5461	0.2574
369.754	0.2541
369.962	0.2569
370.1699	0.2554
370.3778	0.2552
370.5857	0.2554
370.7936	0.2574
371.0015	0.2567
371.2093	0.2541
371.4172	0.2574
371.625	0.2577
371.8328	0.2727
372.0406	0.2615
372.2484	0.2591
372.4562	0.2598
372.664	0.2683
372.8717	0.2636
373.0795	0.271
373.2872	0.2627
373.4949	0.2732
373.7026	0.2838
373.9103	0.2595
374.118	0.2667
374.3256	0.2818
374.5333	0.2655
374.7409	0.2629
374.9485	0.2745
375.1561	0.2809
375.3637	0.2703
375.5713	0.2701
375.7789	0.2729
375.9864	0.2779
376.194	0.2825
376.4015	0.2823
376.609	0.2895
376.8165	0.2871
377.024	0.2861
377.2315	0.2853
377.4389	0.2796
377.6464	0.2863
377.8538	0.2881
378.0612	0.2905
378.2686	0.2849
378.476	0.2965
378.6834	0.285
378.8908	0.2914
379.0981	0.2968
379.3055	0.3041
379.5128	0.2959
379.7201	0.2887
379.9274	0.294
380.1347	0.3003
380.342	0.2956
380.5492	0.3001
380.7565	0.3
380.9637	0.2958
381.1709	0.3047
381.3781	0.3009
381.5853	0.3022
381.7925	0.3127
381.9997	0.3058
382.2068	0.2959
382.4139	0.3081
382.6211	0.3172
382.8282	0.3052
383.0353	0.3096
383.2424	0.3001
383.4494	0.3108
383.6565	0.3096
383.8635	0.3173
384.0706	0.3128
384.2776	0.3166
384.4846	0.3165
384.6916	0.3014
384.8986	0.321
385.1055	0.3192
385.3125	0.3009
385.5194	0.3101
385.7263	0.3175
385.9333	0.3172
386.1402	0.3258
386.347	0.314
386.5539	0.3155
386.7608	0.323
386.9676	0.3079
387.1744	0.3107
387.3813	0.3173
387.5881	0.3168
387.7948	0.3121
388.0016	0.3125
388.2084	0.3083
388.4151	0.3067
388.6219	0.3181
388.8286	0.3159
389.0353	0.3057
389.242	0.3019
389.4487	0.3103
389.6553	0.3084
389.862	0.3081
390.0686	0.3065
390.2753	0.3017
390.4819	0.3054
390.6885	0.3042
390.8951	0.3043
391.1016	0.3152
391.3082	0.294
391.5147	0.3018
391.7213	0.3045
391.9278	0.3009
392.1343	0.29
392.3408	0.2935
392.5473	0.2934
392.7537	0.2872
392.9602	0.291
393.1666	0.2937
393.373	0.2874
393.5794	0.2931
393.7858	0.2945
393.9922	0.2947
394.1986	0.2799
394.4049	0.2809
394.6113	0.2868
394.8176	0.276
395.0239	0.2771
395.2302	0.2798
395.4365	0.2835
395.6428	0.2786
395.8491	0.2754
396.0553	0.2682
396.2615	0.2708
396.4678	0.2778
396.674	0.2723
396.8802	0.2701
397.0863	0.2673
397.2925	0.2666
397.4987	0.2773
397.7048	0.2745
397.9109	0.2692
398.117	0.2632
398.3231	0.2695
398.5292	0.2691
398.7353	0.2661
398.9413	0.256
399.1474	0.2767
399.3534	0.2829
399.5594	0.2623
399.7654	0.2755
399.9714	0.2638
400.1774	0.2666
400.3833	0.2712
400.5893	0.2641
400.7952	0.2721
401.0011	0.2622
401.207	0.2681
401.4129	0.2658
401.6188	0.2681
401.8247	0.2713
402.0305	0.2733
402.2364	0.2808
402.4422	0.2717
402.648	0.2749
402.8538	0.2793
403.0596	0.2611
403.2654	0.2598
403.4711	0.2686
403.6768	0.266
403.8826	0.2736
404.0883	0.265
404.294	0.2674
404.4997	0.2666
404.7054	0.2628
404.911	0.2687
405.1167	0.2715
405.3223	0.273
405.5279	0.2636
405.7335	0.2566
405.9391	0.265
406.1447	0.2649
406.3502	0.2735
406.5558	0.2733
406.7613	0.2692
406.9668	0.2596
407.1724	0.2698
407.3778	0.2719
407.5833	0.2598
407.7888	0.268
407.9942	0.2575
408.1997	0.2659
408.4051	0.2695
408.6105	0.2843
408.8159	0.2726
409.0213	0.2758
409.2267	0.2572
409.432	0.2683
409.6374	0.2703
409.8427	0.2726
410.048	0.2591
410.2533	0.2635
410.4586	0.2703
410.6639	0.2633
410.8691	0.2758
411.0744	0.2637
411.2796	0.2716
411.4848	0.2636
411.69	0.2708
411.8952	0.2786
412.1004	0.2668
412.3056	0.2529
412.5107	0.2673
412.7158	0.2683
412.921	0.2637
413.1261	0.2631
413.3312	0.2533
413.5362	0.2698
413.7413	0.2682
413.9464	0.2572
414.1514	0.2545
414.3564	0.2601
414.5614	0.2631
414.7664	0.2668
414.9714	0.273
415.1764	0.2634
415.3813	0.2527
415.5863	0.2638
415.7912	0.2693
415.9961	0.2538
416.201	0.2611
416.4059	0.2639
416.6108	0.2602
416.8156	0.2494
417.0205	0.2591
417.2253	0.2601
417.4301	0.2732
417.6349	0.2501
417.8397	0.2675
418.0445	0.2545
418.2492	0.2604
418.454	0.2635
418.6587	0.26
418.8634	0.2578
419.0681	0.249
419.2728	0.2449
419.4775	0.2601
419.6822	0.2545
419.8868	0.2475
420.0915	0.255
420.2961	0.247
420.5007	0.2457
420.7053	0.2487
420.9099	0.2436
421.1144	0.2428
421.319	0.2429
421.5235	0.2421
421.728	0.2529
421.9325	0.2493
422.137	0.2376
422.3415	0.2365
422.546	0.2425
422.7504	0.2424
422.9549	0.2466
423.1593	0.242
423.3637	0.2293
423.5681	0.238
423.7725	0.2416
423.9769	0.2426
424.1812	0.241
424.3856	0.2325
424.5899	0.2326
424.7942	0.221
424.9985	0.2256
425.2028	0.2278
425.4071	0.2163
425.6113	0.2275
425.8156	0.2297
426.0198	0.221
426.224	0.2304
426.4282	0.2186
426.6324	0.2271
426.8366	0.225
427.0407	0.2154
