Data from D4ACN5uM480nmA_Absorbance_12-07-59-875.txt Node
Date: Fri Feb 21 12:07:59 GMT 2025
User: LASERRRRR
Spectrometer: FLMT03099
Trigger mode: 0
Integration Time (sec): 1.500000E-2
Scans to average: 1
Electric dark correction enabled: true
Nonlinearity correction enabled: false
Boxcar width: 0
XAxis mode: Wavelengths
Number of Pixels in Spectrum: 3648
>>>>>Begin Spectral Data<<<<<
179.3399	0.3553
179.5586	0.3553
179.7771	0.3553
179.9957	0.2538
180.2143	0.6047
180.4329	0.2553
180.6514	-0
180.8699	-0.4161
181.0885	-0.1194
181.307	-0.0507
181.5255	0.0786
181.744	-0
181.9625	0.6041
182.181	1.0827
182.3994	-0
182.6179	-0.8607
182.8363	-0
183.0547	-0
183.2732	0.0444
183.4916	0.3568
183.71	0.1516
183.9284	0.2249
184.1467	0.2189
184.3651	0.2144
184.5835	0.1757
184.8018	0.3242
185.0201	0.347
185.2385	0.0281
185.4568	0.2502
185.6751	0.0809
185.8934	0.3503
186.1117	0.206
186.3299	0.3718
186.5482	0.2422
186.7664	0.5676
186.9847	0.2072
187.2029	0.2534
187.4211	0.1354
187.6393	0.53
187.8575	0.2087
188.0757	0.6276
188.2939	0.2456
188.512	0.1845
188.7302	0.3279
188.9483	0.2057
189.1665	0.5561
189.3846	0.3994
189.6027	0.3159
189.8208	0.3395
190.0389	0.1402
190.257	0.6638
190.475	0.3621
190.6931	0.4547
190.9111	0.3658
191.1292	0.148
191.3472	0.1382
191.5652	0.6311
191.7832	0.352
192.0012	0.2673
192.2192	0.1916
192.4371	0.1937
192.6551	0.2993
192.873	0.3773
193.091	0.3853
193.3089	0.152
193.5268	0.4682
193.7447	0.4813
193.9626	0.4555
194.1805	0.4652
194.3984	0.3774
194.6162	0.4106
194.8341	0.7777
195.0519	0.5619
195.2697	0.5105
195.4875	0.7399
195.7054	0.5193
195.9231	0.5921
196.1409	0.5776
196.3587	0.4434
196.5765	0.6701
196.7942	0.7155
197.012	0.7779
197.2297	0.5094
197.4474	0.7732
197.6651	0.7563
197.8828	0.7855
198.1005	0.7078
198.3182	0.5711
198.5358	0.553
198.7535	0.6185
198.9711	0.6923
199.1888	0.5786
199.4064	0.6163
199.624	0.6782
199.8416	0.549
200.0592	0.6651
200.2767	0.5619
200.4943	0.7072
200.7119	0.5769
200.9294	0.5689
201.1469	0.5732
201.3645	0.5623
201.582	0.546
201.7995	0.6246
202.017	0.6197
202.2344	0.5461
202.4519	0.5629
202.6694	0.5604
202.8868	0.5571
203.1042	0.5531
203.3217	0.4924
203.5391	0.5361
203.7565	0.4943
203.9739	0.504
204.1913	0.5354
204.4086	0.5638
204.626	0.5235
204.8433	0.5198
205.0607	0.5294
205.278	0.5461
205.4953	0.4965
205.7126	0.5176
205.9299	0.4826
206.1472	0.5535
206.3644	0.4549
206.5817	0.4974
206.7989	0.5025
207.0162	0.4162
207.2334	0.4468
207.4506	0.46
207.6678	0.4218
207.885	0.4498
208.1022	0.4393
208.3194	0.4457
208.5365	0.4503
208.7537	0.4207
208.9708	0.465
209.1879	0.4348
209.405	0.4182
209.6222	0.4197
209.8392	0.4603
210.0563	0.4206
210.2734	0.4208
210.4905	0.4606
210.7075	0.4388
210.9245	0.4298
211.1416	0.4318
211.3586	0.406
211.5756	0.4663
211.7926	0.4063
212.0096	0.3791
212.2265	0.423
212.4435	0.4313
212.6604	0.4333
212.8774	0.423
213.0943	0.4318
213.3112	0.4179
213.5281	0.4141
213.745	0.4126
213.9619	0.3623
214.1788	0.409
214.3956	0.4161
214.6125	0.4023
214.8293	0.4193
215.0461	0.4214
215.2629	0.4094
215.4798	0.4069
215.6965	0.3909
215.9133	0.4255
216.1301	0.4081
216.3469	0.4146
216.5636	0.4104
216.7803	0.4173
216.9971	0.4328
217.2138	0.4157
217.4305	0.4257
217.6472	0.4221
217.8639	0.3931
218.0805	0.4086
218.2972	0.4026
218.5138	0.4316
218.7305	0.4251
218.9471	0.4203
219.1637	0.4075
219.3803	0.4422
219.5969	0.4262
219.8135	0.4295
220.0301	0.4167
220.2466	0.436
220.4632	0.4233
220.6797	0.447
220.8962	0.4324
221.1127	0.424
221.3292	0.4274
221.5457	0.4229
221.7622	0.4356
221.9787	0.4506
222.1951	0.4345
222.4116	0.4403
222.628	0.4395
222.8444	0.4347
223.0608	0.4361
223.2772	0.4561
223.4936	0.4505
223.71	0.4522
223.9264	0.4504
224.1427	0.4567
224.3591	0.4478
224.5754	0.4577
224.7917	0.4655
225.008	0.4485
225.2243	0.4697
225.4406	0.4731
225.6569	0.4614
225.8732	0.4678
226.0894	0.4693
226.3057	0.4718
226.5219	0.4615
226.7381	0.4903
226.9543	0.4871
227.1705	0.4803
227.3867	0.4869
227.6029	0.4775
227.8191	0.4909
228.0352	0.4919
228.2513	0.4966
228.4675	0.488
228.6836	0.4927
228.8997	0.4996
229.1158	0.4879
229.3319	0.5034
229.548	0.4819
229.764	0.5023
229.9801	0.5051
230.1961	0.514
230.4121	0.5125
230.6282	0.4937
230.8442	0.5141
231.0602	0.5164
231.2761	0.5179
231.4921	0.5213
231.7081	0.5265
231.924	0.5152
232.14	0.524
232.3559	0.5357
232.5718	0.5236
232.7877	0.5357
233.0036	0.5334
233.2195	0.5278
233.4353	0.5413
233.6512	0.5456
233.867	0.5396
234.0829	0.5392
234.2987	0.5317
234.5145	0.5439
234.7303	0.5293
234.9461	0.5248
235.1619	0.5379
235.3776	0.5246
235.5934	0.5251
235.8091	0.5303
236.0249	0.5357
236.2406	0.538
236.4563	0.5474
236.672	0.5446
236.8877	0.5455
237.1034	0.5349
237.319	0.5318
237.5347	0.5262
237.7503	0.5422
237.966	0.5388
238.1816	0.5361
238.3972	0.5367
238.6128	0.5411
238.8284	0.5359
239.0439	0.5439
239.2595	0.5399
239.475	0.5426
239.6906	0.5325
239.9061	0.5292
240.1216	0.5272
240.3371	0.5197
240.5526	0.5257
240.7681	0.5277
240.9836	0.5158
241.199	0.5106
241.4145	0.4962
241.6299	0.4924
241.8453	0.4929
242.0607	0.4858
242.2761	0.4799
242.4915	0.4718
242.7069	0.4698
242.9223	0.4659
243.1376	0.4481
243.353	0.4398
243.5683	0.4456
243.7836	0.4297
243.9989	0.4234
244.2142	0.4048
244.4295	0.4045
244.6448	0.3999
244.86	0.3954
245.0753	0.3839
245.2905	0.3816
245.5057	0.3731
245.721	0.3631
245.9362	0.35
246.1514	0.3364
246.3665	0.3394
246.5817	0.3437
246.7969	0.3261
247.012	0.3175
247.2271	0.312
247.4423	0.3088
247.6574	0.3093
247.8725	0.3058
248.0876	0.286
248.3026	0.2901
248.5177	0.2827
248.7328	0.2779
248.9478	0.2714
249.1628	0.2633
249.3779	0.2684
249.5929	0.2533
249.8079	0.2595
250.0228	0.2579
250.2378	0.2512
250.4528	0.2473
250.6677	0.2435
250.8827	0.24
251.0976	0.2431
251.3125	0.2358
251.5274	0.2338
251.7423	0.2328
251.9572	0.2242
252.172	0.2253
252.3869	0.2169
252.6017	0.2196
252.8166	0.2171
253.0314	0.2227
253.2462	0.2198
253.461	0.2054
253.6758	0.2131
253.8906	0.2085
254.1053	0.2056
254.3201	0.1999
254.5348	0.2052
254.7496	0.2001
254.9643	0.2033
255.179	0.2041
255.3937	0.1964
255.6083	0.199
255.823	0.2049
256.0377	0.2006
256.2523	0.1989
256.467	0.201
256.6816	0.1951
256.8962	0.1968
257.1108	0.1955
257.3254	0.2004
257.54	0.1917
257.7545	0.1978
257.9691	0.1942
258.1836	0.1953
258.3981	0.1906
258.6127	0.1834
258.8272	0.1898
259.0417	0.1834
259.2561	0.1914
259.4706	0.1881
259.6851	0.182
259.8995	0.1806
260.114	0.1903
260.3284	0.1853
260.5428	0.1857
260.7572	0.1869
260.9716	0.1821
261.186	0.1846
261.4003	0.1896
261.6147	0.1813
261.829	0.1842
262.0433	0.181
262.2577	0.1854
262.472	0.1817
262.6863	0.1841
262.9005	0.1889
263.1148	0.1837
263.3291	0.1899
263.5433	0.1838
263.7576	0.1823
263.9718	0.1844
264.186	0.1892
264.4002	0.1829
264.6144	0.189
264.8286	0.1919
265.0427	0.1918
265.2569	0.1848
265.471	0.1808
265.6851	0.1799
265.8993	0.1832
266.1134	0.1862
266.3275	0.1819
266.5415	0.1852
266.7556	0.1837
266.9697	0.188
267.1837	0.1868
267.3978	0.1908
267.6118	0.1832
267.8258	0.1847
268.0398	0.1841
268.2538	0.1824
268.4677	0.1822
268.6817	0.177
268.8957	0.1834
269.1096	0.1718
269.3235	0.1866
269.5374	0.1746
269.7514	0.1844
269.9652	0.181
270.1791	0.1838
270.393	0.1782
270.6068	0.17
270.8207	0.173
271.0345	0.1742
271.2483	0.18
271.4622	0.174
271.676	0.1704
271.8897	0.1693
272.1035	0.1742
272.3173	0.1752
272.531	0.1766
272.7448	0.1696
272.9585	0.1779
273.1722	0.1712
273.3859	0.1696
273.5996	0.1694
273.8133	0.1677
274.0269	0.1779
274.2406	0.1756
274.4542	0.1698
274.6679	0.165
274.8815	0.1713
275.0951	0.174
275.3087	0.1756
275.5223	0.1706
275.7358	0.1784
275.9494	0.1706
276.1629	0.1737
276.3765	0.1686
276.59	0.1772
276.8035	0.1763
277.017	0.1796
277.2305	0.1773
277.444	0.1724
277.6574	0.1827
277.8709	0.1766
278.0843	0.1817
278.2978	0.181
278.5112	0.1792
278.7246	0.1759
278.938	0.1797
279.1513	0.1813
279.3647	0.1799
279.5781	0.1773
279.7914	0.1872
280.0047	0.1807
280.2181	0.1788
280.4314	0.1829
280.6447	0.1861
280.8579	0.1801
281.0712	0.1813
281.2845	0.1818
281.4977	0.1919
281.711	0.1808
281.9242	0.1843
282.1374	0.1822
282.3506	0.1859
282.5638	0.1888
282.7769	0.1872
282.9901	0.1834
283.2033	0.1887
283.4164	0.1913
283.6295	0.1852
283.8426	0.1855
284.0557	0.1888
284.2688	0.1932
284.4819	0.1907
284.695	0.1935
284.908	0.1939
285.1211	0.1888
285.3341	0.1973
285.5471	0.1945
285.7601	0.1876
285.9731	0.1936
286.1861	0.1912
286.3991	0.1899
286.612	0.1933
286.825	0.1982
287.0379	0.2009
287.2508	0.1943
287.4637	0.1997
287.6766	0.1991
287.8895	0.1949
288.1024	0.199
288.3152	0.1951
288.5281	0.2027
288.7409	0.1979
288.9538	0.1932
289.1666	0.2025
289.3794	0.2065
289.5922	0.2015
289.8049	0.2007
290.0177	0.2036
290.2304	0.2054
290.4432	0.2065
290.6559	0.1879
290.8686	0.2057
291.0813	0.2007
291.294	0.2025
291.5067	0.2012
291.7194	0.1987
291.932	0.1998
292.1447	0.1981
292.3573	0.1999
292.5699	0.1994
292.7825	0.2018
292.9951	0.1991
293.2077	0.2032
293.4203	0.2035
293.6328	0.1944
293.8454	0.2021
294.0579	0.201
294.2704	0.2055
294.4829	0.2018
294.6954	0.2008
294.9079	0.2011
295.1204	0.2041
295.3328	0.2019
295.5453	0.1972
295.7577	0.195
295.9701	0.202
296.1825	0.1997
296.3949	0.2052
296.6073	0.1993
296.8197	0.1982
297.0321	0.1989
297.2444	0.1959
297.4567	0.1979
297.6691	0.1996
297.8814	0.1966
298.0937	0.2045
298.306	0.195
298.5182	0.2023
298.7305	0.1978
298.9428	0.1939
299.155	0.198
299.3672	0.1994
299.5794	0.1975
299.7916	0.2013
300.0038	0.1982
300.216	0.1982
300.4282	0.197
300.6403	0.1958
300.8525	0.2051
301.0646	0.1963
301.2767	0.2016
301.4888	0.1993
301.7009	0.2013
301.913	0.2067
302.125	0.2
302.3371	0.1994
302.5491	0.1996
302.7612	0.1934
302.9732	0.194
303.1852	0.1972
303.3972	0.1962
303.6092	0.1936
303.8211	0.1934
304.0331	0.1892
304.245	0.1933
304.457	0.1982
304.6689	0.1938
304.8808	0.1923
305.0927	0.1892
305.3046	0.186
305.5164	0.1846
305.7283	0.1879
305.9401	0.1797
306.152	0.1816
306.3638	0.1763
306.5756	0.1858
306.7874	0.182
306.9992	0.1817
307.2109	0.1745
307.4227	0.1719
307.6344	0.1787
307.8462	0.1737
308.0579	0.1702
308.2696	0.1647
308.4813	0.1653
308.693	0.1658
308.9046	0.1629
309.1163	0.1629
309.328	0.1526
309.5396	0.1606
309.7512	0.1534
309.9628	0.1538
310.1744	0.1553
310.386	0.1487
310.5976	0.1498
310.8091	0.1509
311.0207	0.1467
311.2322	0.1524
311.4437	0.1473
311.6552	0.1474
311.8667	0.1439
312.0782	0.1429
312.2897	0.1381
312.5012	0.1411
312.7126	0.1296
312.924	0.1366
313.1355	0.136
313.3469	0.1305
313.5583	0.1371
313.7696	0.1302
313.981	0.1264
314.1924	0.1314
314.4037	0.1211
314.6151	0.1228
314.8264	0.129
315.0377	0.1323
315.249	0.1227
315.4603	0.123
315.6716	0.1251
315.8828	0.1236
316.0941	0.1174
316.3053	0.1208
316.5165	0.1189
316.7277	0.1198
316.9389	0.1186
317.1501	0.1185
317.3613	0.1188
317.5724	0.1195
317.7836	0.1216
317.9947	0.114
318.2058	0.1166
318.417	0.1114
318.6281	0.1219
318.8391	0.1176
319.0502	0.121
319.2613	0.117
319.4723	0.1138
319.6834	0.1169
319.8944	0.1162
320.1054	0.1193
320.3164	0.1205
320.5274	0.1114
320.7383	0.1161
320.9493	0.1163
321.1602	0.1148
321.3712	0.1232
321.5821	0.122
321.793	0.1165
322.0039	0.1141
322.2148	0.1194
322.4257	0.1157
322.6365	0.1222
322.8474	0.1161
323.0582	0.1223
323.269	0.117
323.4798	0.1102
323.6906	0.1258
323.9014	0.1129
324.1122	0.1147
324.3229	0.1218
324.5337	0.119
324.7444	0.1139
324.9551	0.1232
325.1658	0.1171
325.3765	0.1187
325.5872	0.1165
325.7979	0.1189
326.0085	0.1178
326.2192	0.1198
326.4298	0.1242
326.6404	0.118
326.851	0.1222
327.0616	0.1211
327.2722	0.1265
327.4828	0.1187
327.6933	0.1177
327.9039	0.1186
328.1144	0.121
328.3249	0.1239
328.5354	0.114
328.7459	0.1199
328.9564	0.1235
329.1669	0.1193
329.3773	0.1233
329.5878	0.1249
329.7982	0.1218
330.0086	0.1209
330.219	0.1206
330.4294	0.1294
330.6398	0.1272
330.8502	0.1232
331.0605	0.12
331.2708	0.1232
331.4812	0.1269
331.6915	0.1237
331.9018	0.1181
332.1121	0.1209
332.3224	0.1234
332.5326	0.1267
332.7429	0.1245
332.9531	0.1297
333.1633	0.1239
333.3735	0.1211
333.5837	0.1264
333.7939	0.1229
334.0041	0.1202
334.2143	0.1265
334.4244	0.1201
334.6346	0.1273
334.8447	0.1263
335.0548	0.1315
335.2649	0.1324
335.475	0.1264
335.685	0.1251
335.8951	0.1303
336.1051	0.1339
336.3152	0.1236
336.5252	0.1314
336.7352	0.1237
336.9452	0.1291
337.1552	0.1279
337.3652	0.1266
337.5751	0.1247
337.7851	0.1229
337.995	0.1344
338.2049	0.135
338.4148	0.1305
338.6247	0.1321
338.8346	0.1286
339.0445	0.1318
339.2543	0.1309
339.4642	0.1351
339.674	0.1371
339.8838	0.1317
340.0936	0.1339
340.3034	0.1319
340.5132	0.1329
340.7229	0.1353
340.9327	0.1406
341.1424	0.1348
341.3522	0.1345
341.5619	0.1354
341.7716	0.1385
341.9813	0.1411
342.1909	0.1389
342.4006	0.1433
342.6102	0.1402
342.8199	0.1365
343.0295	0.142
343.2391	0.1405
343.4487	0.145
343.6583	0.1456
343.8679	0.1379
344.0774	0.1407
344.287	0.1436
344.4965	0.1488
344.706	0.1442
344.9155	0.1421
345.125	0.1461
345.3345	0.1421
345.544	0.1492
345.7534	0.146
345.9629	0.1466
346.1723	0.151
346.3817	0.1479
346.5911	0.1554
346.8005	0.1479
347.0099	0.154
347.2193	0.1506
347.4286	0.1568
347.638	0.1496
347.8473	0.1556
348.0566	0.1583
348.2659	0.1599
348.4752	0.1554
348.6845	0.1582
348.8937	0.165
349.103	0.1573
349.3122	0.1615
349.5214	0.153
349.7306	0.1526
349.9398	0.1608
350.149	0.1618
350.3582	0.1579
350.5674	0.1654
350.7765	0.1643
350.9856	0.1637
351.1948	0.1668
351.4039	0.1656
351.613	0.1797
351.822	0.1686
352.0311	0.1633
352.2402	0.1675
352.4492	0.1659
352.6582	0.1672
352.8672	0.169
353.0762	0.1656
353.2852	0.1731
353.4942	0.1758
353.7032	0.1767
353.9121	0.176
354.1211	0.1736
354.33	0.1841
354.5389	0.1787
354.7478	0.1697
354.9567	0.1815
355.1655	0.1835
355.3744	0.1797
355.5833	0.1782
355.7921	0.1837
356.0009	0.1777
356.2097	0.1922
356.4185	0.1915
356.6273	0.1902
356.8361	0.1924
357.0448	0.1871
357.2536	0.1875
357.4623	0.1848
357.671	0.1867
357.8797	0.1937
358.0884	0.1844
358.2971	0.1973
358.5057	0.1925
358.7144	0.1984
358.923	0.1927
359.1316	0.1929
359.3402	0.1995
359.5488	0.2002
359.7574	0.1967
359.966	0.2041
360.1746	0.2002
360.3831	0.2052
360.5916	0.2053
360.8002	0.2108
361.0087	0.2138
361.2172	0.2143
361.4256	0.1999
361.6341	0.2226
361.8426	0.2174
362.051	0.2115
362.2594	0.2213
362.4678	0.2188
362.6762	0.2202
362.8846	0.2256
363.093	0.2186
363.3014	0.2258
363.5097	0.2155
363.718	0.2232
363.9264	0.2289
364.1347	0.2295
364.343	0.2316
364.5513	0.2264
364.7595	0.2329
364.9678	0.2222
365.176	0.2302
365.3842	0.2371
365.5925	0.2279
365.8007	0.2329
366.0089	0.2395
366.217	0.2431
366.4252	0.2361
366.6333	0.2382
366.8415	0.2372
367.0496	0.2385
367.2577	0.2492
367.4658	0.2467
367.6739	0.2476
367.882	0.2465
368.09	0.2447
368.2981	0.2458
368.5061	0.2459
368.7141	0.2461
368.9221	0.2505
369.1301	0.2579
369.3381	0.2526
369.5461	0.2628
369.754	0.2531
369.962	0.2566
370.1699	0.253
370.3778	0.2632
370.5857	0.2536
370.7936	0.2644
371.0015	0.2586
371.2093	0.2693
371.4172	0.2574
371.625	0.2633
371.8328	0.2701
372.0406	0.2631
372.2484	0.2651
372.4562	0.2611
372.664	0.2741
372.8717	0.2636
373.0795	0.2737
373.2872	0.2716
373.4949	0.2727
373.7026	0.2804
373.9103	0.2659
374.118	0.2744
374.3256	0.289
374.5333	0.27
374.7409	0.2704
374.9485	0.2726
375.1561	0.2788
375.3637	0.272
375.5713	0.2741
375.7789	0.2782
375.9864	0.2839
376.194	0.2838
376.4015	0.2835
376.609	0.2814
376.8165	0.2965
377.024	0.2819
377.2315	0.2937
377.4389	0.2726
377.6464	0.295
377.8538	0.2923
378.0612	0.2806
378.2686	0.3025
378.476	0.2855
378.6834	0.2828
378.8908	0.2898
379.0981	0.2984
379.3055	0.3016
379.5128	0.2988
379.7201	0.285
379.9274	0.2931
380.1347	0.2993
380.342	0.3015
380.5492	0.2875
380.7565	0.3075
380.9637	0.2945
381.1709	0.2936
381.3781	0.3041
381.5853	0.3015
381.7925	0.3041
381.9997	0.3091
382.2068	0.3031
382.4139	0.3014
382.6211	0.3134
382.8282	0.308
383.0353	0.2983
383.2424	0.3094
383.4494	0.3116
383.6565	0.3154
383.8635	0.3275
384.0706	0.3119
384.2776	0.3151
384.4846	0.3156
384.6916	0.3115
384.8986	0.3131
385.1055	0.3204
385.3125	0.3181
385.5194	0.3093
385.7263	0.3143
385.9333	0.3164
386.1402	0.3206
386.347	0.3188
386.5539	0.3229
386.7608	0.316
386.9676	0.3136
387.1744	0.315
387.3813	0.3163
387.5881	0.3237
387.7948	0.3113
388.0016	0.3105
388.2084	0.3174
388.4151	0.3079
388.6219	0.313
388.8286	0.31
389.0353	0.3063
389.242	0.3185
389.4487	0.3103
389.6553	0.31
389.862	0.3129
390.0686	0.3094
390.2753	0.3011
390.4819	0.3093
390.6885	0.3015
390.8951	0.3139
391.1016	0.3099
391.3082	0.2939
391.5147	0.2896
391.7213	0.2994
391.9278	0.3022
392.1343	0.3052
392.3408	0.2951
392.5473	0.2933
392.7537	0.2955
392.9602	0.2974
393.1666	0.2915
393.373	0.2846
393.5794	0.2821
393.7858	0.2866
393.9922	0.2897
394.1986	0.2792
394.4049	0.2902
394.6113	0.2923
394.8176	0.2716
395.0239	0.2817
395.2302	0.2754
395.4365	0.2896
395.6428	0.2814
395.8491	0.2752
396.0553	0.2641
396.2615	0.2789
396.4678	0.2736
396.674	0.2834
396.8802	0.2755
397.0863	0.2721
397.2925	0.2706
397.4987	0.2743
397.7048	0.2822
397.9109	0.2828
398.117	0.2704
398.3231	0.2806
398.5292	0.2734
398.7353	0.2733
398.9413	0.2619
399.1474	0.2681
399.3534	0.2775
399.5594	0.2805
399.7654	0.2705
399.9714	0.2638
400.1774	0.2661
400.3833	0.2778
400.5893	0.2708
400.7952	0.2763
401.0011	0.2601
401.207	0.2731
401.4129	0.2661
401.6188	0.2572
401.8247	0.2651
402.0305	0.2644
402.2364	0.2733
402.4422	0.2614
402.648	0.2677
402.8538	0.272
403.0596	0.2581
403.2654	0.2718
403.4711	0.2636
403.6768	0.2751
403.8826	0.2784
404.0883	0.2575
404.294	0.2692
404.4997	0.2662
404.7054	0.2606
404.911	0.2763
405.1167	0.274
405.3223	0.2749
405.5279	0.2792
405.7335	0.2601
405.9391	0.2733
406.1447	0.2737
406.3502	0.264
406.5558	0.2789
406.7613	0.2662
406.9668	0.2708
407.1724	0.2791
407.3778	0.2709
407.5833	0.2708
407.7888	0.2745
407.9942	0.2691
408.1997	0.2686
408.4051	0.262
408.6105	0.2714
408.8159	0.2743
409.0213	0.272
409.2267	0.2647
409.432	0.271
409.6374	0.2787
409.8427	0.2688
410.048	0.2689
410.2533	0.2739
410.4586	0.2709
410.6639	0.2659
410.8691	0.2674
411.0744	0.2559
411.2796	0.2679
411.4848	0.2533
411.69	0.268
411.8952	0.2696
412.1004	0.268
412.3056	0.2687
412.5107	0.2721
412.7158	0.2731
412.921	0.275
413.1261	0.2733
413.3312	0.2611
413.5362	0.2618
413.7413	0.2651
413.9464	0.267
414.1514	0.2624
414.3564	0.2558
414.5614	0.2645
414.7664	0.2598
414.9714	0.2631
415.1764	0.2641
415.3813	0.2593
415.5863	0.2579
415.7912	0.2567
415.9961	0.2568
416.201	0.2674
416.4059	0.2558
416.6108	0.2583
416.8156	0.2586
417.0205	0.2538
417.2253	0.27
417.4301	0.2682
417.6349	0.257
417.8397	0.2694
418.0445	0.259
418.2492	0.2547
418.454	0.2652
418.6587	0.2608
418.8634	0.2612
419.0681	0.2469
419.2728	0.2488
419.4775	0.2548
419.6822	0.2539
419.8868	0.2536
420.0915	0.2561
420.2961	0.243
420.5007	0.2465
420.7053	0.2557
420.9099	0.238
421.1144	0.2428
421.319	0.2447
421.5235	0.2396
421.728	0.2485
421.9325	0.2496
422.137	0.2359
422.3415	0.2429
422.546	0.2457
422.7504	0.2421
422.9549	0.2377
423.1593	0.2437
423.3637	0.2342
423.5681	0.2358
423.7725	0.2394
423.9769	0.2358
424.1812	0.2433
424.3856	0.2407
424.5899	0.2308
424.7942	0.2243
424.9985	0.2264
425.2028	0.2281
425.4071	0.2268
425.6113	0.2345
425.8156	0.2302
426.0198	0.2211
426.224	0.2302
426.4282	0.2292
426.6324	0.2143
