Data from D4ACN5uM480nmA_Absorbance_12-08-01-060.txt Node
Date: Fri Feb 21 12:08:01 GMT 2025
User: LASERRRRR
Spectrometer: FLMT03099
Trigger mode: 0
Integration Time (sec): 1.500000E-2
Scans to average: 1
Electric dark correction enabled: true
Nonlinearity correction enabled: false
Boxcar width: 0
XAxis mode: Wavelengths
Number of Pixels in Spectrum: 3648
>>>>>Begin Spectral Data<<<<<
179.3399	-0.1331
179.5586	-0.1331
179.7771	-0.1331
179.9957	-0.0693
180.2143	-0.0748
180.4329	0.1039
180.6514	-0
180.8699	-0.2241
181.0885	0.1988
181.307	0.5693
181.5255	-0.015
181.744	0.3917
181.9625	-0.2327
182.181	0.6709
182.3994	-0
182.6179	-0
182.8363	-0
183.0547	-0
183.2732	0.1871
183.4916	0.2873
183.71	0.2814
183.9284	0.2138
184.1467	0.138
184.3651	0.2186
184.5835	0.161
184.8018	0.1721
185.0201	0.1573
185.2385	0.1417
185.4568	0.2223
185.6751	0.1008
185.8934	0.2508
186.1117	0.0875
186.3299	0.2567
186.5482	0.1522
186.7664	0.2531
186.9847	0.4136
187.2029	0.502
187.4211	0.2079
187.6393	0.3286
187.8575	0.0844
188.0757	1.0984
188.2939	0.1564
188.512	0.2119
188.7302	0.1624
188.9483	0.3983
189.1665	0.4001
189.3846	0.6148
189.6027	-0.0291
189.8208	0.2029
190.0389	0.369
190.257	0.2648
190.475	0.0478
190.6931	0.1925
190.9111	0.8272
191.1292	0.5967
191.3472	0.1314
191.5652	0.1699
191.7832	0.8575
192.0012	0.1287
192.2192	0.3866
192.4371	0.2787
192.6551	0.3619
192.873	0.3342
193.091	0.3896
193.3089	0.1944
193.5268	0.531
193.7447	0.2976
193.9626	0.394
194.1805	0.3123
194.3984	0.4761
194.6162	0.414
194.8341	0.5064
195.0519	0.4247
195.2697	0.351
195.4875	0.6372
195.7054	0.5354
195.9231	0.4915
196.1409	0.5371
196.3587	0.4639
196.5765	0.4448
196.7942	0.5339
197.012	0.4756
197.2297	0.578
197.4474	0.6618
197.6651	0.5928
197.8828	0.5966
198.1005	0.663
198.3182	0.5788
198.5358	0.6005
198.7535	0.4666
198.9711	0.5369
199.1888	0.5827
199.4064	0.5761
199.624	0.6379
199.8416	0.5786
200.0592	0.613
200.2767	0.5693
200.4943	0.677
200.7119	0.5396
200.9294	0.6261
201.1469	0.6508
201.3645	0.5706
201.582	0.5971
201.7995	0.6124
202.017	0.5333
202.2344	0.5286
202.4519	0.5439
202.6694	0.5876
202.8868	0.5556
203.1042	0.5455
203.3217	0.505
203.5391	0.5892
203.7565	0.4727
203.9739	0.5276
204.1913	0.4874
204.4086	0.5148
204.626	0.5054
204.8433	0.4874
205.0607	0.4753
205.278	0.5229
205.4953	0.5204
205.7126	0.4885
205.9299	0.4841
206.1472	0.4903
206.3644	0.4481
206.5817	0.4816
206.7989	0.4489
207.0162	0.4189
207.2334	0.45
207.4506	0.4203
207.6678	0.453
207.885	0.4012
208.1022	0.429
208.3194	0.4149
208.5365	0.4636
208.7537	0.4165
208.9708	0.4382
209.1879	0.4191
209.405	0.429
209.6222	0.4138
209.8392	0.4057
210.0563	0.4174
210.2734	0.3783
210.4905	0.4062
210.7075	0.4223
210.9245	0.4195
211.1416	0.3959
211.3586	0.4145
211.5756	0.4053
211.7926	0.4124
212.0096	0.3782
212.2265	0.3806
212.4435	0.4207
212.6604	0.3821
212.8774	0.405
213.0943	0.4028
213.3112	0.4121
213.5281	0.4201
213.745	0.4125
213.9619	0.3844
214.1788	0.3959
214.3956	0.3976
214.6125	0.3942
214.8293	0.3962
215.0461	0.4003
215.2629	0.3768
215.4798	0.3913
215.6965	0.3902
215.9133	0.4081
216.1301	0.4071
216.3469	0.3973
216.5636	0.4011
216.7803	0.42
216.9971	0.4177
217.2138	0.4207
217.4305	0.4346
217.6472	0.426
217.8639	0.4123
218.0805	0.4313
218.2972	0.4159
218.5138	0.4193
218.7305	0.417
218.9471	0.4113
219.1637	0.4117
219.3803	0.4158
219.5969	0.4102
219.8135	0.427
220.0301	0.4112
220.2466	0.4466
220.4632	0.4209
220.6797	0.4362
220.8962	0.4133
221.1127	0.4282
221.3292	0.4395
221.5457	0.4279
221.7622	0.4356
221.9787	0.4361
222.1951	0.4293
222.4116	0.4319
222.628	0.4557
222.8444	0.4458
223.0608	0.4408
223.2772	0.4563
223.4936	0.4387
223.71	0.4428
223.9264	0.4427
224.1427	0.4429
224.3591	0.451
224.5754	0.4649
224.7917	0.4531
225.008	0.4573
225.2243	0.455
225.4406	0.4615
225.6569	0.4542
225.8732	0.4666
226.0894	0.4569
226.3057	0.4728
226.5219	0.4643
226.7381	0.4605
226.9543	0.4691
227.1705	0.4728
227.3867	0.4905
227.6029	0.4801
227.8191	0.4903
228.0352	0.4937
228.2513	0.4979
228.4675	0.4859
228.6836	0.5015
228.8997	0.4863
229.1158	0.4971
229.3319	0.4959
229.548	0.4868
229.764	0.5109
229.9801	0.5018
230.1961	0.4988
230.4121	0.5228
230.6282	0.5124
230.8442	0.5156
231.0602	0.5126
231.2761	0.5338
231.4921	0.5113
231.7081	0.5192
231.924	0.5268
232.14	0.5207
232.3559	0.528
232.5718	0.5429
232.7877	0.5329
233.0036	0.5197
233.2195	0.529
233.4353	0.5408
233.6512	0.5361
233.867	0.5305
234.0829	0.5329
234.2987	0.5158
234.5145	0.5308
234.7303	0.5358
234.9461	0.5303
235.1619	0.5198
235.3776	0.5276
235.5934	0.5266
235.8091	0.5374
236.0249	0.5406
236.2406	0.5364
236.4563	0.5349
236.672	0.5384
236.8877	0.5355
237.1034	0.5273
237.319	0.5373
237.5347	0.5224
237.7503	0.533
237.966	0.5307
238.1816	0.524
238.3972	0.5315
238.6128	0.5422
238.8284	0.5453
239.0439	0.5333
239.2595	0.5447
239.475	0.5375
239.6906	0.531
239.9061	0.5245
240.1216	0.537
240.3371	0.5183
240.5526	0.5203
240.7681	0.5319
240.9836	0.5105
241.199	0.5247
241.4145	0.4993
241.6299	0.4881
241.8453	0.4907
242.0607	0.4808
242.2761	0.4706
242.4915	0.4684
242.7069	0.4637
242.9223	0.4611
243.1376	0.4495
243.353	0.4414
243.5683	0.4468
243.7836	0.4211
243.9989	0.4114
244.2142	0.4167
244.4295	0.4033
244.6448	0.3954
244.86	0.3776
245.0753	0.3814
245.2905	0.3706
245.5057	0.3713
245.721	0.356
245.9362	0.3498
246.1514	0.337
246.3665	0.343
246.5817	0.3262
246.7969	0.324
247.012	0.3246
247.2271	0.3167
247.4423	0.3022
247.6574	0.3057
247.8725	0.2945
248.0876	0.2967
248.3026	0.284
248.5177	0.2724
248.7328	0.2788
248.9478	0.2723
249.1628	0.2623
249.3779	0.2704
249.5929	0.2601
249.8079	0.2517
250.0228	0.2404
250.2378	0.2534
250.4528	0.2505
250.6677	0.2362
250.8827	0.2337
251.0976	0.2402
251.3125	0.2369
251.5274	0.2315
251.7423	0.2214
251.9572	0.2236
252.172	0.221
252.3869	0.222
252.6017	0.2225
252.8166	0.2167
253.0314	0.2241
253.2462	0.2167
253.461	0.2171
253.6758	0.2143
253.8906	0.2067
254.1053	0.2098
254.3201	0.2005
254.5348	0.2024
254.7496	0.2074
254.9643	0.207
255.179	0.1994
255.3937	0.1938
255.6083	0.1947
255.823	0.1948
256.0377	0.1948
256.2523	0.199
256.467	0.195
256.6816	0.203
256.8962	0.1947
257.1108	0.1936
257.3254	0.1908
257.54	0.196
257.7545	0.1941
257.9691	0.1938
258.1836	0.1928
258.3981	0.1843
258.6127	0.1872
258.8272	0.1798
259.0417	0.1816
259.2561	0.1843
259.4706	0.1884
259.6851	0.188
259.8995	0.1825
260.114	0.1877
260.3284	0.1855
260.5428	0.1812
260.7572	0.1889
260.9716	0.183
261.186	0.1834
261.4003	0.1895
261.6147	0.1793
261.829	0.1829
262.0433	0.1804
262.2577	0.1915
262.472	0.1891
262.6863	0.1842
262.9005	0.1897
263.1148	0.181
263.3291	0.1894
263.5433	0.1811
263.7576	0.1787
263.9718	0.1873
264.186	0.1926
264.4002	0.1799
264.6144	0.1824
264.8286	0.1884
265.0427	0.1937
265.2569	0.1844
265.471	0.1879
265.6851	0.1814
265.8993	0.1819
266.1134	0.1881
266.3275	0.1877
266.5415	0.1797
266.7556	0.1841
266.9697	0.1821
267.1837	0.1848
267.3978	0.1875
267.6118	0.1817
267.8258	0.1837
268.0398	0.1877
268.2538	0.1806
268.4677	0.1826
268.6817	0.1807
268.8957	0.178
269.1096	0.1754
269.3235	0.1843
269.5374	0.1771
269.7514	0.1779
269.9652	0.1813
270.1791	0.1753
270.393	0.1822
270.6068	0.1761
270.8207	0.173
271.0345	0.1687
271.2483	0.1765
271.4622	0.1813
271.676	0.1731
271.8897	0.1682
272.1035	0.1719
272.3173	0.1755
272.531	0.1779
272.7448	0.1747
272.9585	0.1751
273.1722	0.177
273.3859	0.1688
273.5996	0.1763
273.8133	0.1664
274.0269	0.1769
274.2406	0.1754
274.4542	0.1673
274.6679	0.1699
274.8815	0.1706
275.0951	0.176
275.3087	0.1827
275.5223	0.1695
275.7358	0.178
275.9494	0.1733
276.1629	0.1764
276.3765	0.1735
276.59	0.175
276.8035	0.1803
277.017	0.1752
277.2305	0.171
277.444	0.1797
277.6574	0.1763
277.8709	0.181
278.0843	0.1781
278.2978	0.1775
278.5112	0.1817
278.7246	0.1816
278.938	0.1802
279.1513	0.1774
279.3647	0.1789
279.5781	0.1742
279.7914	0.188
280.0047	0.181
280.2181	0.1862
280.4314	0.1792
280.6447	0.1869
280.8579	0.1787
281.0712	0.1792
281.2845	0.1842
281.4977	0.1875
281.711	0.1853
281.9242	0.1844
282.1374	0.1865
282.3506	0.1858
282.5638	0.1827
282.7769	0.1864
282.9901	0.1802
283.2033	0.1854
283.4164	0.1829
283.6295	0.184
283.8426	0.1825
284.0557	0.1874
284.2688	0.1942
284.4819	0.1951
284.695	0.1871
284.908	0.192
285.1211	0.1845
285.3341	0.1986
285.5471	0.1924
285.7601	0.1903
285.9731	0.1858
286.1861	0.1923
286.3991	0.1922
286.612	0.1979
286.825	0.1935
287.0379	0.193
287.2508	0.1939
287.4637	0.193
287.6766	0.1993
287.8895	0.1865
288.1024	0.1961
288.3152	0.1917
288.5281	0.1958
288.7409	0.2013
288.9538	0.1966
289.1666	0.196
289.3794	0.2013
289.5922	0.1986
289.8049	0.1985
290.0177	0.2063
290.2304	0.2001
290.4432	0.2009
290.6559	0.1912
290.8686	0.1984
291.0813	0.204
291.294	0.2003
291.5067	0.2
291.7194	0.1954
291.932	0.2038
292.1447	0.2027
292.3573	0.1958
292.5699	0.1978
292.7825	0.2007
292.9951	0.2043
293.2077	0.2029
293.4203	0.1987
293.6328	0.1949
293.8454	0.2009
294.0579	0.1995
294.2704	0.1983
294.4829	0.2005
294.6954	0.1991
294.9079	0.2063
295.1204	0.1966
295.3328	0.1957
295.5453	0.2011
295.7577	0.198
295.9701	0.1989
296.1825	0.1978
296.3949	0.2054
296.6073	0.2025
296.8197	0.1976
297.0321	0.1997
297.2444	0.1984
297.4567	0.1926
297.6691	0.2016
297.8814	0.2048
298.0937	0.2007
298.306	0.1982
298.5182	0.2067
298.7305	0.1983
298.9428	0.1938
299.155	0.1953
299.3672	0.2029
299.5794	0.1988
299.7916	0.2025
300.0038	0.1958
300.216	0.2024
300.4282	0.1986
300.6403	0.191
300.8525	0.202
301.0646	0.1936
301.2767	0.198
301.4888	0.1977
301.7009	0.1958
301.913	0.2022
302.125	0.1981
302.3371	0.1938
302.5491	0.1998
302.7612	0.1934
302.9732	0.195
303.1852	0.1996
303.3972	0.1918
303.6092	0.1938
303.8211	0.1872
304.0331	0.193
304.245	0.1946
304.457	0.1977
304.6689	0.1958
304.8808	0.1858
305.0927	0.1901
305.3046	0.1842
305.5164	0.1865
305.7283	0.1874
305.9401	0.1851
306.152	0.1764
306.3638	0.1791
306.5756	0.1796
306.7874	0.1772
306.9992	0.1753
307.2109	0.1775
307.4227	0.1723
307.6344	0.1753
307.8462	0.1734
308.0579	0.17
308.2696	0.1682
308.4813	0.1603
308.693	0.1662
308.9046	0.1608
309.1163	0.1651
309.328	0.1587
309.5396	0.1552
309.7512	0.157
309.9628	0.1564
310.1744	0.1549
310.386	0.148
310.5976	0.1396
310.8091	0.1439
311.0207	0.1469
311.2322	0.1487
311.4437	0.1453
311.6552	0.1411
311.8667	0.137
312.0782	0.1411
312.2897	0.1411
312.5012	0.1381
312.7126	0.1289
312.924	0.1337
313.1355	0.1339
313.3469	0.1304
313.5583	0.1265
313.7696	0.1216
313.981	0.1317
314.1924	0.1252
314.4037	0.1208
314.6151	0.1234
314.8264	0.1291
315.0377	0.1257
315.249	0.1209
315.4603	0.1248
315.6716	0.1295
315.8828	0.1186
316.0941	0.1175
316.3053	0.1179
316.5165	0.1175
316.7277	0.1248
316.9389	0.1234
317.1501	0.1184
317.3613	0.1153
317.5724	0.1213
317.7836	0.1141
317.9947	0.1139
318.2058	0.1204
318.417	0.1144
318.6281	0.1117
318.8391	0.1215
319.0502	0.1196
319.2613	0.1165
319.4723	0.118
319.6834	0.1182
319.8944	0.1192
320.1054	0.1179
320.3164	0.1119
320.5274	0.1107
320.7383	0.115
320.9493	0.1189
321.1602	0.1187
321.3712	0.1133
321.5821	0.1197
321.793	0.1127
322.0039	0.116
322.2148	0.1149
322.4257	0.1154
322.6365	0.113
322.8474	0.1155
323.0582	0.1116
323.269	0.1126
323.4798	0.1133
323.6906	0.1143
323.9014	0.115
324.1122	0.1203
324.3229	0.1217
324.5337	0.1199
324.7444	0.1153
324.9551	0.1212
325.1658	0.1176
325.3765	0.1167
325.5872	0.1183
325.7979	0.1195
326.0085	0.1179
326.2192	0.1145
326.4298	0.1213
326.6404	0.1201
326.851	0.1256
327.0616	0.1211
327.2722	0.1232
327.4828	0.1182
327.6933	0.1213
327.9039	0.1242
328.1144	0.1224
328.3249	0.1228
328.5354	0.119
328.7459	0.1204
328.9564	0.1272
329.1669	0.1215
329.3773	0.1224
329.5878	0.1234
329.7982	0.1208
330.0086	0.1183
330.219	0.1229
330.4294	0.1232
330.6398	0.1225
330.8502	0.1249
331.0605	0.1207
331.2708	0.1237
331.4812	0.1248
331.6915	0.1176
331.9018	0.1158
332.1121	0.1312
332.3224	0.1285
332.5326	0.1265
332.7429	0.1179
332.9531	0.1225
333.1633	0.1189
333.3735	0.1202
333.5837	0.1287
333.7939	0.1262
334.0041	0.1222
334.2143	0.125
334.4244	0.1175
334.6346	0.1223
334.8447	0.1279
335.0548	0.127
335.2649	0.1304
335.475	0.1271
335.685	0.1249
335.8951	0.1234
336.1051	0.1267
336.3152	0.1294
336.5252	0.1264
336.7352	0.1182
336.9452	0.1324
337.1552	0.1292
337.3652	0.1243
337.5751	0.1319
337.7851	0.1242
337.995	0.1307
338.2049	0.1338
338.4148	0.1303
338.6247	0.124
338.8346	0.1286
339.0445	0.1356
339.2543	0.1336
339.4642	0.1353
339.674	0.1404
339.8838	0.1283
340.0936	0.1318
340.3034	0.1325
340.5132	0.1342
340.7229	0.1344
340.9327	0.1401
341.1424	0.1392
341.3522	0.142
341.5619	0.1361
341.7716	0.1415
341.9813	0.1352
342.1909	0.1365
342.4006	0.1389
342.6102	0.1424
342.8199	0.1375
343.0295	0.1458
343.2391	0.1381
343.4487	0.1436
343.6583	0.1436
343.8679	0.1424
344.0774	0.1451
344.287	0.1468
344.4965	0.1474
344.706	0.148
344.9155	0.1448
345.125	0.1464
345.3345	0.1461
345.544	0.149
345.7534	0.152
345.9629	0.1585
346.1723	0.1509
346.3817	0.1507
346.5911	0.1533
346.8005	0.1579
347.0099	0.154
347.2193	0.1489
347.4286	0.1508
347.638	0.153
347.8473	0.1532
348.0566	0.1582
348.2659	0.1578
348.4752	0.1523
348.6845	0.1613
348.8937	0.1616
349.103	0.1572
349.3122	0.1562
349.5214	0.1591
349.7306	0.1575
349.9398	0.1618
350.149	0.1619
350.3582	0.1611
350.5674	0.1616
350.7765	0.165
350.9856	0.1641
351.1948	0.1621
351.4039	0.167
351.613	0.1765
351.822	0.1703
352.0311	0.1665
352.2402	0.1783
352.4492	0.1665
352.6582	0.1629
352.8672	0.1691
353.0762	0.1794
353.2852	0.1681
353.4942	0.1677
353.7032	0.1671
353.9121	0.1788
354.1211	0.1737
354.33	0.181
354.5389	0.1767
354.7478	0.1742
354.9567	0.1749
355.1655	0.174
355.3744	0.177
355.5833	0.1813
355.7921	0.1814
356.0009	0.1772
356.2097	0.1808
356.4185	0.1883
356.6273	0.1871
356.8361	0.1954
357.0448	0.1922
357.2536	0.1829
357.4623	0.1897
357.671	0.1834
357.8797	0.1949
358.0884	0.1873
358.2971	0.1876
358.5057	0.19
358.7144	0.1935
358.923	0.1952
359.1316	0.1925
359.3402	0.1897
359.5488	0.1964
359.7574	0.2019
359.966	0.2
360.1746	0.1948
360.3831	0.2122
360.5916	0.2048
360.8002	0.213
361.0087	0.215
361.2172	0.2066
361.4256	0.2102
361.6341	0.2203
361.8426	0.206
362.051	0.2067
362.2594	0.2115
362.4678	0.2161
362.6762	0.2166
362.8846	0.2205
363.093	0.2134
363.3014	0.2223
363.5097	0.2124
363.718	0.2306
363.9264	0.2167
364.1347	0.2249
364.343	0.2309
364.5513	0.2297
364.7595	0.2319
364.9678	0.2273
365.176	0.2276
365.3842	0.2373
365.5925	0.2287
365.8007	0.2291
366.0089	0.2325
366.217	0.2348
366.4252	0.2346
366.6333	0.2351
366.8415	0.236
367.0496	0.242
367.2577	0.2432
367.4658	0.2485
367.6739	0.2415
367.882	0.2489
368.09	0.2469
368.2981	0.2421
368.5061	0.2443
368.7141	0.2518
368.9221	0.2532
369.1301	0.248
369.3381	0.2568
369.5461	0.2503
369.754	0.255
369.962	0.2634
370.1699	0.2583
370.3778	0.2532
370.5857	0.2582
370.7936	0.2575
371.0015	0.2542
371.2093	0.2691
371.4172	0.2567
371.625	0.2609
371.8328	0.263
372.0406	0.258
372.2484	0.2564
372.4562	0.2656
372.664	0.2674
372.8717	0.2713
373.0795	0.2788
373.2872	0.2709
373.4949	0.2797
373.7026	0.2769
373.9103	0.256
374.118	0.2664
374.3256	0.2862
374.5333	0.2711
374.7409	0.2761
374.9485	0.2684
375.1561	0.2815
375.3637	0.2681
375.5713	0.2768
375.7789	0.272
375.9864	0.284
376.194	0.2837
376.4015	0.2797
376.609	0.2807
376.8165	0.2822
377.024	0.2854
377.2315	0.2867
377.4389	0.2845
377.6464	0.2871
377.8538	0.2939
378.0612	0.2869
378.2686	0.2883
378.476	0.2955
378.6834	0.2933
378.8908	0.2904
379.0981	0.2897
379.3055	0.3001
379.5128	0.2943
379.7201	0.2951
379.9274	0.2937
380.1347	0.2939
380.342	0.297
380.5492	0.2928
380.7565	0.2984
380.9637	0.2991
381.1709	0.3016
381.3781	0.3001
381.5853	0.3006
381.7925	0.3089
381.9997	0.3093
382.2068	0.2956
382.4139	0.3073
382.6211	0.3061
382.8282	0.311
383.0353	0.3064
383.2424	0.3125
383.4494	0.3097
383.6565	0.3041
383.8635	0.3246
384.0706	0.306
384.2776	0.3219
384.4846	0.321
384.6916	0.3158
384.8986	0.3181
385.1055	0.3146
385.3125	0.3137
385.5194	0.3101
385.7263	0.2981
385.9333	0.311
386.1402	0.3195
386.347	0.3087
386.5539	0.3061
386.7608	0.3158
386.9676	0.3095
387.1744	0.3154
387.3813	0.3119
387.5881	0.3215
387.7948	0.306
388.0016	0.3044
388.2084	0.32
388.4151	0.3118
388.6219	0.3073
388.8286	0.3017
389.0353	0.2992
389.242	0.303
389.4487	0.3093
389.6553	0.2956
389.862	0.3055
390.0686	0.3039
390.2753	0.2979
390.4819	0.2998
390.6885	0.3034
390.8951	0.3055
391.1016	0.3095
391.3082	0.3037
391.5147	0.2974
391.7213	0.2918
391.9278	0.2979
392.1343	0.2953
392.3408	0.2958
392.5473	0.2942
392.7537	0.2967
392.9602	0.2847
393.1666	0.2875
393.373	0.283
393.5794	0.2856
393.7858	0.2915
393.9922	0.2887
394.1986	0.2812
394.4049	0.2793
394.6113	0.285
394.8176	0.2767
395.0239	0.2778
395.2302	0.2601
395.4365	0.2762
395.6428	0.2833
395.8491	0.2712
396.0553	0.2661
396.2615	0.2701
396.4678	0.2723
396.674	0.2716
396.8802	0.2755
397.0863	0.2713
397.2925	0.2682
397.4987	0.2636
397.7048	0.27
397.9109	0.2748
398.117	0.2661
398.3231	0.2728
398.5292	0.2723
398.7353	0.267
398.9413	0.2743
399.1474	0.2714
399.3534	0.271
399.5594	0.2796
399.7654	0.265
399.9714	0.2587
400.1774	0.264
400.3833	0.2756
400.5893	0.2646
400.7952	0.2637
401.0011	0.2603
401.207	0.2654
401.4129	0.2608
401.6188	0.2594
401.8247	0.2711
402.0305	0.2629
402.2364	0.262
402.4422	0.2699
402.648	0.2724
402.8538	0.2806
403.0596	0.2601
403.2654	0.2593
403.4711	0.263
403.6768	0.2721
403.8826	0.2704
404.0883	0.267
404.294	0.2682
404.4997	0.254
404.7054	0.2666
404.911	0.2559
405.1167	0.2669
405.3223	0.2691
405.5279	0.2658
405.7335	0.2596
405.9391	0.2643
406.1447	0.2662
406.3502	0.2693
406.5558	0.2804
406.7613	0.2628
406.9668	0.2606
407.1724	0.2673
407.3778	0.2735
407.5833	0.2677
407.7888	0.2738
407.9942	0.2733
408.1997	0.2745
408.4051	0.2626
408.6105	0.2626
408.8159	0.2723
409.0213	0.2663
409.2267	0.2569
409.432	0.2729
409.6374	0.2721
409.8427	0.2651
410.048	0.264
410.2533	0.266
410.4586	0.2591
410.6639	0.2678
410.8691	0.2731
411.0744	0.2643
411.2796	0.2672
411.4848	0.2555
411.69	0.2643
411.8952	0.2652
412.1004	0.2594
412.3056	0.2626
412.5107	0.263
412.7158	0.2671
412.921	0.2545
413.1261	0.264
413.3312	0.2652
413.5362	0.2616
413.7413	0.275
413.9464	0.2587
414.1514	0.2639
414.3564	0.2586
414.5614	0.2654
414.7664	0.2508
414.9714	0.2732
415.1764	0.2585
415.3813	0.2528
415.5863	0.2615
415.7912	0.2587
415.9961	0.2532
416.201	0.2648
416.4059	0.2664
416.6108	0.2604
416.8156	0.2453
417.0205	0.2541
417.2253	0.2584
417.4301	0.262
417.6349	0.2536
417.8397	0.2553
418.0445	0.2604
418.2492	0.2592
418.454	0.2531
418.6587	0.2515
418.8634	0.2577
419.0681	0.256
419.2728	0.25
419.4775	0.2552
419.6822	0.2428
419.8868	0.255
420.0915	0.2452
420.2961	0.2515
420.5007	0.254
420.7053	0.2542
420.9099	0.2324
421.1144	0.2416
421.319	0.238
421.5235	0.2395
421.728	0.2426
421.9325	0.2514
422.137	0.2499
422.3415	0.2423
422.546	0.2415
422.7504	0.2459
422.9549	0.2472
423.1593	0.2348
423.3637	0.2364
423.5681	0.2392
423.7725	0.239
423.9769	0.2329
424.1812	0.2453
424.3856	0.226
424.5899	0.2246
424.7942	0.2201
424.9985	0.2352
425.2028	0.2291
425.4071	0.22
425.6113	0.2231
425.8156	0.2225
426.0198	0.2188
426.224	0.2284
426.4282	0.2207
426.6324	0.2209
426.8366	0.2185
427.0407	0.2212
