Data from D4ACN5uM480nmA_Absorbance_12-08-01-420.txt Node
Date: Fri Feb 21 12:08:01 GMT 2025
User: LASERRRRR
Spectrometer: FLMT03099
Trigger mode: 0
Integration Time (sec): 1.500000E-2
Scans to average: 1
Electric dark correction enabled: true
Nonlinearity correction enabled: false
Boxcar width: 0
XAxis mode: Wavelengths
Number of Pixels in Spectrum: 3648
>>>>>Begin Spectral Data<<<<<
179.3399	-0.2576
179.5586	-0.2576
179.7771	-0.2576
179.9957	0.3101
180.2143	0.4851
180.4329	-0
180.6514	-0
180.8699	-0.2285
181.0885	-0.3563
181.307	0.731
181.5255	0.2337
181.744	-0
181.9625	-0.3131
182.181	0.3335
182.3994	-0
182.6179	-0.9864
182.8363	-0
183.0547	-0.7782
183.2732	0.1486
183.4916	0.6371
183.71	0.1203
183.9284	0.2954
184.1467	-0.1026
184.3651	0.5413
184.5835	0.0768
184.8018	0.2127
185.0201	0.2036
185.2385	0.2743
185.4568	0.2395
185.6751	0.1512
185.8934	0.3897
186.1117	0.1779
186.3299	0.0843
186.5482	0.2371
186.7664	0.2434
186.9847	0.4294
187.2029	0.271
187.4211	0.1104
187.6393	0.0756
187.8575	0.5746
188.0757	0.2741
188.2939	0.1329
188.512	0.1018
188.7302	0.0254
188.9483	0.8899
189.1665	0.3745
189.3846	0.2063
189.6027	0.01
189.8208	0.4764
190.0389	0.2777
190.257	0.1746
190.475	0.2985
190.6931	0.2335
190.9111	0.4542
191.1292	0.2614
191.3472	0.1224
191.5652	0.4589
191.7832	0.2964
192.0012	0.3892
192.2192	0.3691
192.4371	0.3206
192.6551	0.2782
192.873	0.36
193.091	0.3587
193.3089	0.1097
193.5268	0.3504
193.7447	0.2449
193.9626	0.6475
194.1805	0.4898
194.3984	0.3294
194.6162	0.5954
194.8341	0.5673
195.0519	0.6944
195.2697	0.6222
195.4875	0.6782
195.7054	0.4917
195.9231	0.489
196.1409	0.5675
196.3587	0.619
196.5765	0.6258
196.7942	0.5562
197.012	0.5103
197.2297	0.4777
197.4474	0.6078
197.6651	0.4939
197.8828	0.7225
198.1005	0.6539
198.3182	0.5224
198.5358	0.5414
198.7535	0.6212
198.9711	0.6319
199.1888	0.583
199.4064	0.5115
199.624	0.615
199.8416	0.5809
200.0592	0.6017
200.2767	0.6221
200.4943	0.643
200.7119	0.567
200.9294	0.5509
201.1469	0.6105
201.3645	0.5559
201.582	0.5878
201.7995	0.6161
202.017	0.5335
202.2344	0.5601
202.4519	0.5319
202.6694	0.5363
202.8868	0.5627
203.1042	0.5286
203.3217	0.5261
203.5391	0.5252
203.7565	0.5322
203.9739	0.4857
204.1913	0.4976
204.4086	0.516
204.626	0.5455
204.8433	0.4616
205.0607	0.5231
205.278	0.5492
205.4953	0.488
205.7126	0.4784
205.9299	0.4708
206.1472	0.4999
206.3644	0.4687
206.5817	0.4642
206.7989	0.4595
207.0162	0.4546
207.2334	0.4075
207.4506	0.4379
207.6678	0.4312
207.885	0.4412
208.1022	0.4548
208.3194	0.4415
208.5365	0.4715
208.7537	0.4491
208.9708	0.4407
209.1879	0.4388
209.405	0.4307
209.6222	0.4203
209.8392	0.4253
210.0563	0.4012
210.2734	0.4179
210.4905	0.3853
210.7075	0.4244
210.9245	0.4086
211.1416	0.418
211.3586	0.4082
211.5756	0.4005
211.7926	0.4116
212.0096	0.4148
212.2265	0.4175
212.4435	0.4238
212.6604	0.3723
212.8774	0.3931
213.0943	0.4279
213.3112	0.396
213.5281	0.4118
213.745	0.3945
213.9619	0.4057
214.1788	0.3826
214.3956	0.4275
214.6125	0.4038
214.8293	0.4231
215.0461	0.4183
215.2629	0.4024
215.4798	0.3791
215.6965	0.3996
215.9133	0.4191
216.1301	0.3942
216.3469	0.4061
216.5636	0.4044
216.7803	0.4204
216.9971	0.4398
217.2138	0.4053
217.4305	0.4218
217.6472	0.4203
217.8639	0.4151
218.0805	0.4162
218.2972	0.4142
218.5138	0.4323
218.7305	0.4203
218.9471	0.42
219.1637	0.4216
219.3803	0.423
219.5969	0.4099
219.8135	0.4171
220.0301	0.4184
220.2466	0.4363
220.4632	0.4303
220.6797	0.4365
220.8962	0.4268
221.1127	0.4323
221.3292	0.4241
221.5457	0.4463
221.7622	0.4267
221.9787	0.4233
222.1951	0.4422
222.4116	0.4485
222.628	0.4473
222.8444	0.4456
223.0608	0.4317
223.2772	0.4335
223.4936	0.4381
223.71	0.4523
223.9264	0.44
224.1427	0.4512
224.3591	0.468
224.5754	0.461
224.7917	0.4732
225.008	0.4491
225.2243	0.4573
225.4406	0.4504
225.6569	0.4565
225.8732	0.4614
226.0894	0.4799
226.3057	0.4768
226.5219	0.4639
226.7381	0.467
226.9543	0.4743
227.1705	0.47
227.3867	0.4709
227.6029	0.4731
227.8191	0.4771
228.0352	0.4946
228.2513	0.4791
228.4675	0.4772
228.6836	0.4915
228.8997	0.4869
229.1158	0.4928
229.3319	0.488
229.548	0.5002
229.764	0.4926
229.9801	0.5159
230.1961	0.5076
230.4121	0.5054
230.6282	0.5102
230.8442	0.506
231.0602	0.5235
231.2761	0.5156
231.4921	0.5197
231.7081	0.5257
231.924	0.5133
232.14	0.5196
232.3559	0.5236
232.5718	0.5285
232.7877	0.5264
233.0036	0.511
233.2195	0.5188
233.4353	0.5301
233.6512	0.5295
233.867	0.5391
234.0829	0.5334
234.2987	0.536
234.5145	0.5366
234.7303	0.528
234.9461	0.5258
235.1619	0.5345
235.3776	0.5315
235.5934	0.5256
235.8091	0.5384
236.0249	0.5332
236.2406	0.5411
236.4563	0.5443
236.672	0.5396
236.8877	0.5343
237.1034	0.5222
237.319	0.5331
237.5347	0.5193
237.7503	0.5362
237.966	0.525
238.1816	0.5324
238.3972	0.545
238.6128	0.5464
238.8284	0.54
239.0439	0.5339
239.2595	0.5221
239.475	0.5298
239.6906	0.5245
239.9061	0.5277
240.1216	0.5309
240.3371	0.517
240.5526	0.5282
240.7681	0.5262
240.9836	0.5197
241.199	0.5132
241.4145	0.4983
241.6299	0.4906
241.8453	0.4964
242.0607	0.4818
242.2761	0.4796
242.4915	0.4807
242.7069	0.4664
242.9223	0.4603
243.1376	0.4542
243.353	0.4398
243.5683	0.4503
243.7836	0.4271
243.9989	0.4267
244.2142	0.4169
244.4295	0.4154
244.6448	0.3964
244.86	0.39
245.0753	0.3835
245.2905	0.3748
245.5057	0.368
245.721	0.3587
245.9362	0.3483
246.1514	0.3399
246.3665	0.3438
246.5817	0.3369
246.7969	0.3257
247.012	0.3211
247.2271	0.3106
247.4423	0.3006
247.6574	0.3111
247.8725	0.3058
248.0876	0.2908
248.3026	0.2867
248.5177	0.2858
248.7328	0.2754
248.9478	0.2705
249.1628	0.2691
249.3779	0.2699
249.5929	0.2602
249.8079	0.2565
250.0228	0.2521
250.2378	0.2555
250.4528	0.2548
250.6677	0.247
250.8827	0.2407
251.0976	0.2394
251.3125	0.2376
251.5274	0.229
251.7423	0.2291
251.9572	0.228
252.172	0.2207
252.3869	0.2206
252.6017	0.2138
252.8166	0.2153
253.0314	0.2178
253.2462	0.2171
253.461	0.2146
253.6758	0.2075
253.8906	0.209
254.1053	0.2035
254.3201	0.2081
254.5348	0.1972
254.7496	0.2059
254.9643	0.2024
255.179	0.2068
255.3937	0.1927
255.6083	0.199
255.823	0.1959
256.0377	0.1942
256.2523	0.1969
256.467	0.2054
256.6816	0.2018
256.8962	0.1969
257.1108	0.1969
257.3254	0.192
257.54	0.1935
257.7545	0.191
257.9691	0.188
258.1836	0.1913
258.3981	0.1883
258.6127	0.1832
258.8272	0.1859
259.0417	0.1801
259.2561	0.1872
259.4706	0.1894
259.6851	0.1834
259.8995	0.1773
260.114	0.1816
260.3284	0.1856
260.5428	0.1777
260.7572	0.1918
260.9716	0.1822
261.186	0.1782
261.4003	0.1859
261.6147	0.1795
261.829	0.1826
262.0433	0.1829
262.2577	0.1886
262.472	0.1862
262.6863	0.186
262.9005	0.19
263.1148	0.1786
263.3291	0.1887
263.5433	0.1832
263.7576	0.1836
263.9718	0.1942
264.186	0.1893
264.4002	0.1824
264.6144	0.1868
264.8286	0.1918
265.0427	0.1905
265.2569	0.1853
265.471	0.1851
265.6851	0.1863
265.8993	0.1852
266.1134	0.1861
266.3275	0.1869
266.5415	0.1858
266.7556	0.184
266.9697	0.1793
267.1837	0.1852
267.3978	0.1871
267.6118	0.1835
267.8258	0.1849
268.0398	0.1834
268.2538	0.1914
268.4677	0.18
268.6817	0.1806
268.8957	0.1831
269.1096	0.1784
269.3235	0.1803
269.5374	0.1785
269.7514	0.1791
269.9652	0.1758
270.1791	0.1825
270.393	0.1808
270.6068	0.1733
270.8207	0.175
271.0345	0.1756
271.2483	0.175
271.4622	0.1753
271.676	0.1695
271.8897	0.1751
272.1035	0.1761
272.3173	0.1732
272.531	0.1805
272.7448	0.1717
272.9585	0.1769
273.1722	0.1745
273.3859	0.1697
273.5996	0.1715
273.8133	0.1711
274.0269	0.1794
274.2406	0.1733
274.4542	0.168
274.6679	0.1711
274.8815	0.1725
275.0951	0.1721
275.3087	0.1764
275.5223	0.1762
275.7358	0.1765
275.9494	0.1722
276.1629	0.1744
276.3765	0.1715
276.59	0.1736
276.8035	0.1825
277.017	0.1789
277.2305	0.1748
277.444	0.1768
277.6574	0.1765
277.8709	0.1827
278.0843	0.1727
278.2978	0.1778
278.5112	0.1849
278.7246	0.1787
278.938	0.1775
279.1513	0.1794
279.3647	0.1796
279.5781	0.1785
279.7914	0.1844
280.0047	0.1779
280.2181	0.1827
280.4314	0.1826
280.6447	0.1859
280.8579	0.179
281.0712	0.1777
281.2845	0.1806
281.4977	0.1869
281.711	0.1837
281.9242	0.1868
282.1374	0.1834
282.3506	0.1845
282.5638	0.1859
282.7769	0.1799
282.9901	0.1795
283.2033	0.1864
283.4164	0.1822
283.6295	0.1883
283.8426	0.1841
284.0557	0.192
284.2688	0.189
284.4819	0.1945
284.695	0.1879
284.908	0.191
285.1211	0.1887
285.3341	0.193
285.5471	0.1938
285.7601	0.19
285.9731	0.1916
286.1861	0.2008
286.3991	0.1913
286.612	0.1978
286.825	0.194
287.0379	0.1951
287.2508	0.1966
287.4637	0.1962
287.6766	0.1967
287.8895	0.1868
288.1024	0.1946
288.3152	0.1956
288.5281	0.1965
288.7409	0.1998
288.9538	0.1988
289.1666	0.195
289.3794	0.2045
289.5922	0.1979
289.8049	0.2019
290.0177	0.1958
290.2304	0.2
290.4432	0.2011
290.6559	0.1957
290.8686	0.1985
291.0813	0.2043
291.294	0.2032
291.5067	0.2036
291.7194	0.1985
291.932	0.2066
292.1447	0.2038
292.3573	0.1957
292.5699	0.2033
292.7825	0.1955
292.9951	0.1934
293.2077	0.2038
293.4203	0.2001
293.6328	0.1965
293.8454	0.1962
294.0579	0.2029
294.2704	0.2026
294.4829	0.2064
294.6954	0.1984
294.9079	0.1998
295.1204	0.1968
295.3328	0.1971
295.5453	0.1949
295.7577	0.1964
295.9701	0.204
296.1825	0.1985
296.3949	0.2043
296.6073	0.2016
296.8197	0.2005
297.0321	0.1974
297.2444	0.2003
297.4567	0.1961
297.6691	0.197
297.8814	0.1987
298.0937	0.2013
298.306	0.1953
298.5182	0.2065
298.7305	0.1984
298.9428	0.1982
299.155	0.1934
299.3672	0.2024
299.5794	0.1998
299.7916	0.1965
300.0038	0.1953
300.216	0.1965
300.4282	0.1954
300.6403	0.2029
300.8525	0.196
301.0646	0.1958
301.2767	0.195
301.4888	0.2008
301.7009	0.202
301.913	0.2006
302.125	0.1968
302.3371	0.1969
302.5491	0.1941
302.7612	0.1934
302.9732	0.1923
303.1852	0.1927
303.3972	0.1935
303.6092	0.1897
303.8211	0.1955
304.0331	0.1859
304.245	0.1933
304.457	0.1956
304.6689	0.1924
304.8808	0.1951
305.0927	0.1879
305.3046	0.1851
305.5164	0.1877
305.7283	0.188
305.9401	0.1818
306.152	0.182
306.3638	0.183
306.5756	0.1821
306.7874	0.1811
306.9992	0.1833
307.2109	0.174
307.4227	0.1761
307.6344	0.1725
307.8462	0.1672
308.0579	0.1648
308.2696	0.167
308.4813	0.1641
308.693	0.1672
308.9046	0.1643
309.1163	0.1599
309.328	0.1583
309.5396	0.1624
309.7512	0.1544
309.9628	0.1569
310.1744	0.1538
310.386	0.1443
310.5976	0.1471
310.8091	0.1462
311.0207	0.1502
311.2322	0.1495
311.4437	0.1444
311.6552	0.1447
311.8667	0.1356
312.0782	0.1431
312.2897	0.1448
312.5012	0.1445
312.7126	0.131
312.924	0.1383
313.1355	0.135
313.3469	0.1291
313.5583	0.134
313.7696	0.1301
313.981	0.1289
314.1924	0.1286
314.4037	0.1289
314.6151	0.1251
314.8264	0.1249
315.0377	0.132
315.249	0.1167
315.4603	0.1256
315.6716	0.1272
315.8828	0.1255
316.0941	0.1264
316.3053	0.1176
316.5165	0.1217
316.7277	0.1267
316.9389	0.1217
317.1501	0.1173
317.3613	0.1164
317.5724	0.12
317.7836	0.1163
317.9947	0.1119
318.2058	0.1169
318.417	0.1157
318.6281	0.1174
318.8391	0.1224
319.0502	0.1157
319.2613	0.1165
319.4723	0.1127
319.6834	0.1172
319.8944	0.1198
320.1054	0.1173
320.3164	0.1221
320.5274	0.1126
320.7383	0.1152
320.9493	0.1194
321.1602	0.1131
321.3712	0.1177
321.5821	0.1151
321.793	0.1136
322.0039	0.1193
322.2148	0.1201
322.4257	0.1158
322.6365	0.1162
322.8474	0.117
323.0582	0.1151
323.269	0.1128
323.4798	0.1148
323.6906	0.1179
323.9014	0.1149
324.1122	0.1157
324.3229	0.115
324.5337	0.1265
324.7444	0.1165
324.9551	0.122
325.1658	0.1186
325.3765	0.1191
325.5872	0.1211
325.7979	0.1168
326.0085	0.1205
326.2192	0.1161
326.4298	0.1207
326.6404	0.1189
326.851	0.1199
327.0616	0.1197
327.2722	0.1246
327.4828	0.1172
327.6933	0.1232
327.9039	0.1188
328.1144	0.1192
328.3249	0.1213
328.5354	0.1215
328.7459	0.1238
328.9564	0.1272
329.1669	0.1268
329.3773	0.1234
329.5878	0.1257
329.7982	0.1266
330.0086	0.1285
330.219	0.1288
330.4294	0.126
330.6398	0.1269
330.8502	0.1258
331.0605	0.1214
331.2708	0.125
331.4812	0.1308
331.6915	0.1179
331.9018	0.125
332.1121	0.1256
332.3224	0.1264
332.5326	0.1266
332.7429	0.1196
332.9531	0.1295
333.1633	0.1209
333.3735	0.1237
333.5837	0.1279
333.7939	0.1246
334.0041	0.1237
334.2143	0.1271
334.4244	0.1206
334.6346	0.1193
334.8447	0.1249
335.0548	0.1249
335.2649	0.1257
335.475	0.1196
335.685	0.1232
335.8951	0.1338
336.1051	0.1274
336.3152	0.1261
336.5252	0.1265
336.7352	0.1217
336.9452	0.1323
337.1552	0.1253
337.3652	0.1263
337.5751	0.1242
337.7851	0.1275
337.995	0.1258
338.2049	0.1306
338.4148	0.1273
338.6247	0.1304
338.8346	0.1321
339.0445	0.1322
339.2543	0.1379
339.4642	0.1394
339.674	0.1363
339.8838	0.1261
340.0936	0.1299
340.3034	0.1347
340.5132	0.1362
340.7229	0.1383
340.9327	0.1281
341.1424	0.1357
341.3522	0.1404
341.5619	0.1353
341.7716	0.1323
341.9813	0.1421
342.1909	0.1431
342.4006	0.1439
342.6102	0.1319
342.8199	0.1356
343.0295	0.1415
343.2391	0.1391
343.4487	0.1414
343.6583	0.1487
343.8679	0.1471
344.0774	0.1432
344.287	0.1456
344.4965	0.1405
344.706	0.1493
344.9155	0.1497
345.125	0.147
345.3345	0.1422
345.544	0.1501
345.7534	0.1482
345.9629	0.1514
346.1723	0.1537
346.3817	0.1551
346.5911	0.1526
346.8005	0.148
347.0099	0.156
347.2193	0.1478
347.4286	0.1587
347.638	0.1505
347.8473	0.1541
348.0566	0.1569
348.2659	0.1576
348.4752	0.1618
348.6845	0.1608
348.8937	0.1589
349.103	0.1589
349.3122	0.1644
349.5214	0.1661
349.7306	0.1566
349.9398	0.1602
350.149	0.1687
350.3582	0.1577
350.5674	0.1691
350.7765	0.1676
350.9856	0.1656
351.1948	0.1576
351.4039	0.1711
351.613	0.1762
351.822	0.1717
352.0311	0.167
352.2402	0.1708
352.4492	0.1675
352.6582	0.1643
352.8672	0.1743
353.0762	0.1691
353.2852	0.1703
353.4942	0.1731
353.7032	0.173
353.9121	0.1754
354.1211	0.1681
354.33	0.1756
354.5389	0.1844
354.7478	0.1818
354.9567	0.1749
355.1655	0.1784
355.3744	0.1737
355.5833	0.1902
355.7921	0.1876
356.0009	0.1752
356.2097	0.1926
356.4185	0.1894
356.6273	0.181
356.8361	0.1975
357.0448	0.1904
357.2536	0.1854
357.4623	0.1834
357.671	0.1912
357.8797	0.1993
358.0884	0.1907
358.2971	0.193
358.5057	0.186
358.7144	0.199
358.923	0.1983
359.1316	0.1879
359.3402	0.1975
359.5488	0.2032
359.7574	0.2038
359.966	0.2102
360.1746	0.1977
360.3831	0.204
360.5916	0.2051
360.8002	0.2017
361.0087	0.2072
361.2172	0.2115
361.4256	0.1986
361.6341	0.2158
361.8426	0.2059
362.051	0.2031
362.2594	0.2172
362.4678	0.2204
362.6762	0.2128
362.8846	0.2197
363.093	0.2094
363.3014	0.2299
363.5097	0.2162
363.718	0.2278
363.9264	0.2221
364.1347	0.2256
364.343	0.2292
364.5513	0.2291
364.7595	0.2332
364.9678	0.2311
365.176	0.2255
365.3842	0.2387
365.5925	0.2336
365.8007	0.2408
366.0089	0.2342
366.217	0.2394
366.4252	0.2284
366.6333	0.2367
366.8415	0.2323
367.0496	0.2381
367.2577	0.2422
367.4658	0.2496
367.6739	0.2438
367.882	0.2479
368.09	0.2469
368.2981	0.2417
368.5061	0.2531
368.7141	0.2538
368.9221	0.2481
369.1301	0.2505
369.3381	0.2587
369.5461	0.2519
369.754	0.2446
369.962	0.2582
370.1699	0.2581
370.3778	0.2538
370.5857	0.2606
370.7936	0.258
371.0015	0.2536
371.2093	0.2638
371.4172	0.2695
371.625	0.2739
371.8328	0.2651
372.0406	0.2628
372.2484	0.2597
372.4562	0.2646
372.664	0.2769
372.8717	0.2678
373.0795	0.2737
373.2872	0.2612
373.4949	0.2792
373.7026	0.2753
373.9103	0.2639
374.118	0.2692
374.3256	0.2822
374.5333	0.2751
374.7409	0.2768
374.9485	0.272
375.1561	0.2858
375.3637	0.2742
375.5713	0.2737
375.7789	0.2739
375.9864	0.2858
376.194	0.2766
376.4015	0.2884
376.609	0.2869
376.8165	0.2874
377.024	0.2843
377.2315	0.2879
377.4389	0.2767
377.6464	0.2862
377.8538	0.2912
378.0612	0.2844
378.2686	0.2866
378.476	0.2953
378.6834	0.2828
378.8908	0.2909
379.0981	0.2978
379.3055	0.2981
379.5128	0.2954
379.7201	0.302
379.9274	0.287
380.1347	0.302
380.342	0.3077
380.5492	0.2989
380.7565	0.2978
380.9637	0.2961
381.1709	0.3009
381.3781	0.304
381.5853	0.3006
381.7925	0.3066
381.9997	0.3061
382.2068	0.2986
382.4139	0.3013
382.6211	0.3107
382.8282	0.3107
383.0353	0.3067
383.2424	0.3081
383.4494	0.3092
383.6565	0.3126
383.8635	0.3232
384.0706	0.3177
384.2776	0.3206
384.4846	0.3079
384.6916	0.3076
384.8986	0.3275
385.1055	0.3117
385.3125	0.3159
385.5194	0.3093
385.7263	0.312
385.9333	0.3236
386.1402	0.3147
386.347	0.3167
386.5539	0.3154
386.7608	0.3164
386.9676	0.3115
387.1744	0.3077
387.3813	0.3109
387.5881	0.3215
387.7948	0.3141
388.0016	0.3149
388.2084	0.3146
388.4151	0.3124
388.6219	0.3184
388.8286	0.3144
389.0353	0.2971
389.242	0.3099
389.4487	0.3083
389.6553	0.2973
389.862	0.3039
390.0686	0.3038
390.2753	0.2992
390.4819	0.3037
390.6885	0.2997
390.8951	0.3094
391.1016	0.3127
391.3082	0.2899
391.5147	0.3013
391.7213	0.3058
391.9278	0.3001
392.1343	0.2946
392.3408	0.2834
392.5473	0.2945
392.7537	0.2943
392.9602	0.285
393.1666	0.294
393.373	0.2903
393.5794	0.2884
393.7858	0.2895
393.9922	0.2824
394.1986	0.2833
394.4049	0.2858
394.6113	0.2838
394.8176	0.2648
395.0239	0.2806
395.2302	0.275
395.4365	0.2747
395.6428	0.2777
395.8491	0.276
396.0553	0.2689
396.2615	0.2755
396.4678	0.2697
396.674	0.27
396.8802	0.2695
397.0863	0.2716
397.2925	0.2655
397.4987	0.2718
397.7048	0.2757
397.9109	0.2739
398.117	0.2672
398.3231	0.2771
398.5292	0.2722
398.7353	0.2721
398.9413	0.2767
399.1474	0.2748
399.3534	0.2677
399.5594	0.2717
399.7654	0.2685
399.9714	0.2622
400.1774	0.2664
400.3833	0.2664
400.5893	0.2613
400.7952	0.2755
401.0011	0.2618
401.207	0.267
401.4129	0.2667
401.6188	0.2701
401.8247	0.2678
402.0305	0.2613
402.2364	0.2666
402.4422	0.2723
402.648	0.2716
402.8538	0.2752
403.0596	0.2584
403.2654	0.2715
403.4711	0.265
403.6768	0.265
403.8826	0.2627
404.0883	0.2534
404.294	0.2722
404.4997	0.2672
404.7054	0.2552
404.911	0.2672
405.1167	0.2627
405.3223	0.268
405.5279	0.2644
405.7335	0.261
405.9391	0.2723
406.1447	0.2583
406.3502	0.2717
406.5558	0.2679
406.7613	0.2638
406.9668	0.2645
407.1724	0.2733
407.3778	0.2668
407.5833	0.2696
407.7888	0.2646
407.9942	0.2678
408.1997	0.2745
408.4051	0.2647
408.6105	0.2686
408.8159	0.2718
409.0213	0.26
409.2267	0.2582
409.432	0.2705
409.6374	0.2698
409.8427	0.2655
410.048	0.2553
410.2533	0.2672
410.4586	0.2676
410.6639	0.2697
410.8691	0.2787
411.0744	0.2614
411.2796	0.2725
411.4848	0.2652
411.69	0.2619
411.8952	0.2707
412.1004	0.264
412.3056	0.2528
412.5107	0.2682
412.7158	0.2812
412.921	0.2586
413.1261	0.2851
413.3312	0.2634
413.5362	0.2663
413.7413	0.2686
413.9464	0.2667
414.1514	0.2629
414.3564	0.2696
414.5614	0.2573
414.7664	0.2612
414.9714	0.267
415.1764	0.2612
415.3813	0.2507
415.5863	0.2603
415.7912	0.2692
415.9961	0.2648
416.201	0.26
416.4059	0.263
416.6108	0.2598
416.8156	0.247
417.0205	0.264
417.2253	0.2578
417.4301	0.2713
417.6349	0.2603
417.8397	0.2657
418.0445	0.2514
418.2492	0.2667
418.454	0.259
418.6587	0.2565
418.8634	0.2615
419.0681	0.2635
419.2728	0.2552
419.4775	0.2434
419.6822	0.2491
419.8868	0.254
420.0915	0.2579
420.2961	0.2397
420.5007	0.2451
420.7053	0.2458
420.9099	0.2311
421.1144	0.2376
421.319	0.245
421.5235	0.2348
421.728	0.2444
421.9325	0.2567
422.137	0.2447
422.3415	0.2433
422.546	0.2426
422.7504	0.2411
422.9549	0.2387
423.1593	0.2401
423.3637	0.2362
423.5681	0.2365
423.7725	0.2387
423.9769	0.2366
424.1812	0.2469
424.3856	0.2392
424.5899	0.2351
424.7942	0.2243
424.9985	0.2324
425.2028	0.2333
425.4071	0.2255
425.6113	0.2259
425.8156	0.2255
426.0198	0.2264
426.224	0.2278
426.4282	0.2198
426.6324	0.2174
426.8366	0.232
