Data from D4ACN5uM480nmA_Absorbance_12-08-00-715.txt Node
Date: Fri Feb 21 12:08:00 GMT 2025
User: LASERRRRR
Spectrometer: FLMT03099
Trigger mode: 0
Integration Time (sec): 1.500000E-2
Scans to average: 1
Electric dark correction enabled: true
Nonlinearity correction enabled: false
Boxcar width: 0
XAxis mode: Wavelengths
Number of Pixels in Spectrum: 3648
>>>>>Begin Spectral Data<<<<<
179.3399	0.3193
179.5586	0.3193
179.7771	0.3193
179.9957	0.1406
180.2143	-0
180.4329	-0
180.6514	-0.1856
180.8699	-0
181.0885	-0.3552
181.307	0.2909
181.5255	0.8579
181.744	-0.0476
181.9625	0.7156
182.181	0.0387
182.3994	-0
182.6179	-0.5879
182.8363	-0
183.0547	-0.0711
183.2732	0.1344
183.4916	0.3152
183.71	0.1377
183.9284	0.1034
184.1467	-0.0656
184.3651	0.304
184.5835	-0.0169
184.8018	0.3973
185.0201	0.3324
185.2385	0.0693
185.4568	0.0986
185.6751	0.1961
185.8934	0.3654
186.1117	0.0099
186.3299	0.1032
186.5482	0.0899
186.7664	0.3164
186.9847	0.173
187.2029	0.2372
187.4211	0.1136
187.6393	0.085
187.8575	-0.0113
188.0757	0.2942
188.2939	0.3119
188.512	0.0631
188.7302	0.016
188.9483	0.2298
189.1665	0.543
189.3846	0.1903
189.6027	-0.0322
189.8208	0.1857
190.0389	0.267
190.257	0.3406
190.475	0.2539
190.6931	0.1475
190.9111	0.2502
191.1292	0.1638
191.3472	0.1903
191.5652	0.4098
191.7832	0.206
192.0012	0.2474
192.2192	0.4863
192.4371	0.1596
192.6551	0.5247
192.873	0.2633
193.091	0.3128
193.3089	0.1686
193.5268	0.4987
193.7447	0.3253
193.9626	0.3371
194.1805	0.2207
194.3984	0.2885
194.6162	0.4218
194.8341	0.5013
195.0519	0.5101
195.2697	0.5431
195.4875	0.6235
195.7054	0.4021
195.9231	0.445
196.1409	0.5438
196.3587	0.5824
196.5765	0.4739
196.7942	0.5193
197.012	0.4561
197.2297	0.5466
197.4474	0.6408
197.6651	0.577
197.8828	0.7183
198.1005	0.635
198.3182	0.6568
198.5358	0.4155
198.7535	0.5781
198.9711	0.5047
199.1888	0.6048
199.4064	0.5597
199.624	0.5196
199.8416	0.5472
200.0592	0.565
200.2767	0.5601
200.4943	0.6839
200.7119	0.6364
200.9294	0.6301
201.1469	0.6206
201.3645	0.5988
201.582	0.5211
201.7995	0.5583
202.017	0.5695
202.2344	0.5846
202.4519	0.5477
202.6694	0.5604
202.8868	0.5953
203.1042	0.5684
203.3217	0.4944
203.5391	0.4928
203.7565	0.5354
203.9739	0.4937
204.1913	0.5146
204.4086	0.4929
204.626	0.4999
204.8433	0.5133
205.0607	0.5098
205.278	0.5315
205.4953	0.4811
205.7126	0.4791
205.9299	0.4569
206.1472	0.4896
206.3644	0.478
206.5817	0.4649
206.7989	0.4673
207.0162	0.4575
207.2334	0.4744
207.4506	0.4227
207.6678	0.4644
207.885	0.4562
208.1022	0.4296
208.3194	0.4155
208.5365	0.4422
208.7537	0.4078
208.9708	0.4325
209.1879	0.4423
209.405	0.3989
209.6222	0.4123
209.8392	0.4363
210.0563	0.4206
210.2734	0.4057
210.4905	0.4081
210.7075	0.4094
210.9245	0.4104
211.1416	0.4004
211.3586	0.4046
211.5756	0.3906
211.7926	0.4137
212.0096	0.4047
212.2265	0.4071
212.4435	0.4264
212.6604	0.4056
212.8774	0.4034
213.0943	0.4198
213.3112	0.4101
213.5281	0.3954
213.745	0.3953
213.9619	0.392
214.1788	0.4172
214.3956	0.371
214.6125	0.3975
214.8293	0.4064
215.0461	0.3927
215.2629	0.3915
215.4798	0.3717
215.6965	0.3898
215.9133	0.4134
216.1301	0.4204
216.3469	0.4122
216.5636	0.3933
216.7803	0.3999
216.9971	0.4152
217.2138	0.3982
217.4305	0.3972
217.6472	0.4133
217.8639	0.3958
218.0805	0.4056
218.2972	0.4026
218.5138	0.4236
218.7305	0.4003
218.9471	0.3926
219.1637	0.4109
219.3803	0.4249
219.5969	0.4024
219.8135	0.432
220.0301	0.4151
220.2466	0.4287
220.4632	0.4244
220.6797	0.4394
220.8962	0.42
221.1127	0.4081
221.3292	0.4243
221.5457	0.4395
221.7622	0.4281
221.9787	0.4557
222.1951	0.4355
222.4116	0.4326
222.628	0.4555
222.8444	0.4389
223.0608	0.4224
223.2772	0.4414
223.4936	0.447
223.71	0.4383
223.9264	0.4351
224.1427	0.4453
224.3591	0.4454
224.5754	0.4618
224.7917	0.4521
225.008	0.4512
225.2243	0.4653
225.4406	0.4671
225.6569	0.452
225.8732	0.4542
226.0894	0.4658
226.3057	0.4726
226.5219	0.4731
226.7381	0.4707
226.9543	0.4676
227.1705	0.4681
227.3867	0.4803
227.6029	0.4852
227.8191	0.4843
228.0352	0.493
228.2513	0.4949
228.4675	0.4803
228.6836	0.5182
228.8997	0.498
229.1158	0.4966
229.3319	0.513
229.548	0.4937
229.764	0.5068
229.9801	0.5137
230.1961	0.5064
230.4121	0.5083
230.6282	0.5012
230.8442	0.507
231.0602	0.517
231.2761	0.5137
231.4921	0.5051
231.7081	0.5056
231.924	0.5144
232.14	0.5279
232.3559	0.5298
232.5718	0.5202
232.7877	0.5315
233.0036	0.5181
233.2195	0.5293
233.4353	0.5301
233.6512	0.5211
233.867	0.5443
234.0829	0.51
234.2987	0.5266
234.5145	0.5259
234.7303	0.5255
234.9461	0.5222
235.1619	0.5282
235.3776	0.5258
235.5934	0.5281
235.8091	0.5241
236.0249	0.5495
236.2406	0.5437
236.4563	0.5443
236.672	0.5358
236.8877	0.5193
237.1034	0.5268
237.319	0.5414
237.5347	0.5129
237.7503	0.5437
237.966	0.538
238.1816	0.5353
238.3972	0.5416
238.6128	0.545
238.8284	0.5245
239.0439	0.531
239.2595	0.5281
239.475	0.5304
239.6906	0.5249
239.9061	0.5368
240.1216	0.5293
240.3371	0.5236
240.5526	0.5234
240.7681	0.5223
240.9836	0.5146
241.199	0.5134
241.4145	0.4903
241.6299	0.4835
241.8453	0.4904
242.0607	0.4881
242.2761	0.4857
242.4915	0.4741
242.7069	0.4719
242.9223	0.4613
243.1376	0.4554
243.353	0.4347
243.5683	0.4449
243.7836	0.4166
243.9989	0.412
244.2142	0.4111
244.4295	0.4048
244.6448	0.3853
244.86	0.39
245.0753	0.3773
245.2905	0.3708
245.5057	0.3757
245.721	0.3552
245.9362	0.3492
246.1514	0.3354
246.3665	0.3403
246.5817	0.3338
246.7969	0.3293
247.012	0.322
247.2271	0.3133
247.4423	0.3087
247.6574	0.3031
247.8725	0.3083
248.0876	0.295
248.3026	0.2842
248.5177	0.2795
248.7328	0.2738
248.9478	0.2687
249.1628	0.2672
249.3779	0.265
249.5929	0.2621
249.8079	0.2538
250.0228	0.2527
250.2378	0.2484
250.4528	0.2518
250.6677	0.2433
250.8827	0.2361
251.0976	0.2418
251.3125	0.2308
251.5274	0.2318
251.7423	0.2274
251.9572	0.2226
252.172	0.2253
252.3869	0.2202
252.6017	0.2185
252.8166	0.2183
253.0314	0.2189
253.2462	0.2136
253.461	0.211
253.6758	0.2101
253.8906	0.2036
254.1053	0.2061
254.3201	0.2015
254.5348	0.1992
254.7496	0.2065
254.9643	0.2016
255.179	0.1992
255.3937	0.1928
255.6083	0.201
255.823	0.1985
256.0377	0.2016
256.2523	0.1948
256.467	0.1987
256.6816	0.1979
256.8962	0.1923
257.1108	0.1947
257.3254	0.1933
257.54	0.1912
257.7545	0.1897
257.9691	0.189
258.1836	0.1853
258.3981	0.1845
258.6127	0.1847
258.8272	0.1888
259.0417	0.1835
259.2561	0.185
259.4706	0.1902
259.6851	0.1855
259.8995	0.1776
260.114	0.1856
260.3284	0.1828
260.5428	0.1785
260.7572	0.185
260.9716	0.1844
261.186	0.1797
261.4003	0.188
261.6147	0.1807
261.829	0.1808
262.0433	0.1808
262.2577	0.192
262.472	0.1866
262.6863	0.1874
262.9005	0.1875
263.1148	0.1744
263.3291	0.1894
263.5433	0.1828
263.7576	0.1785
263.9718	0.1869
264.186	0.1834
264.4002	0.1837
264.6144	0.1879
264.8286	0.1864
265.0427	0.1861
265.2569	0.1855
265.471	0.1906
265.6851	0.1787
265.8993	0.1859
266.1134	0.1819
266.3275	0.1853
266.5415	0.1824
266.7556	0.1791
266.9697	0.1841
267.1837	0.1815
267.3978	0.1936
267.6118	0.1827
267.8258	0.1888
268.0398	0.1789
268.2538	0.1845
268.4677	0.1848
268.6817	0.1778
268.8957	0.1795
269.1096	0.1728
269.3235	0.1878
269.5374	0.1798
269.7514	0.1828
269.9652	0.177
270.1791	0.1796
270.393	0.1799
270.6068	0.1686
270.8207	0.1773
271.0345	0.1697
271.2483	0.1778
271.4622	0.1774
271.676	0.1734
271.8897	0.1709
272.1035	0.1709
272.3173	0.1757
272.531	0.1719
272.7448	0.1691
272.9585	0.173
273.1722	0.1737
273.3859	0.1709
273.5996	0.1775
273.8133	0.1697
274.0269	0.1745
274.2406	0.1648
274.4542	0.1627
274.6679	0.1748
274.8815	0.1699
275.0951	0.1799
275.3087	0.1772
275.5223	0.1721
275.7358	0.17
275.9494	0.1743
276.1629	0.176
276.3765	0.1738
276.59	0.1794
276.8035	0.1769
277.017	0.1772
277.2305	0.1785
277.444	0.1739
277.6574	0.1735
277.8709	0.1737
278.0843	0.1824
278.2978	0.174
278.5112	0.1826
278.7246	0.182
278.938	0.1747
279.1513	0.1766
279.3647	0.1752
279.5781	0.1761
279.7914	0.1779
280.0047	0.1802
280.2181	0.1853
280.4314	0.1795
280.6447	0.187
280.8579	0.1816
281.0712	0.182
281.2845	0.1855
281.4977	0.1844
281.711	0.1787
281.9242	0.1817
282.1374	0.1834
282.3506	0.1824
282.5638	0.1842
282.7769	0.1802
282.9901	0.1785
283.2033	0.1874
283.4164	0.1859
283.6295	0.1844
283.8426	0.186
284.0557	0.1872
284.2688	0.1878
284.4819	0.1931
284.695	0.1893
284.908	0.1869
285.1211	0.1873
285.3341	0.1913
285.5471	0.1936
285.7601	0.1911
285.9731	0.1892
286.1861	0.1959
286.3991	0.1915
286.612	0.1996
286.825	0.1981
287.0379	0.1965
287.2508	0.1918
287.4637	0.1962
287.6766	0.1957
287.8895	0.1904
288.1024	0.1909
288.3152	0.1966
288.5281	0.1917
288.7409	0.1984
288.9538	0.1914
289.1666	0.2031
289.3794	0.1966
289.5922	0.1962
289.8049	0.1991
290.0177	0.199
290.2304	0.2001
290.4432	0.1987
290.6559	0.1887
290.8686	0.2
291.0813	0.2016
291.294	0.2046
291.5067	0.2062
291.7194	0.1995
291.932	0.2008
292.1447	0.1976
292.3573	0.1959
292.5699	0.1989
292.7825	0.2027
292.9951	0.1988
293.2077	0.2026
293.4203	0.199
293.6328	0.1959
293.8454	0.196
294.0579	0.2047
294.2704	0.206
294.4829	0.1999
294.6954	0.2022
294.9079	0.196
295.1204	0.1964
295.3328	0.2023
295.5453	0.1947
295.7577	0.1902
295.9701	0.2007
296.1825	0.196
296.3949	0.2025
296.6073	0.2004
296.8197	0.1971
297.0321	0.2018
297.2444	0.2017
297.4567	0.1958
297.6691	0.1961
297.8814	0.1975
298.0937	0.2028
298.306	0.1921
298.5182	0.2006
298.7305	0.1989
298.9428	0.197
299.155	0.197
299.3672	0.2029
299.5794	0.1974
299.7916	0.1993
300.0038	0.1949
300.216	0.2021
300.4282	0.1961
300.6403	0.1964
300.8525	0.2037
301.0646	0.1939
301.2767	0.1956
301.4888	0.1971
301.7009	0.1971
301.913	0.2016
302.125	0.2009
302.3371	0.1999
302.5491	0.197
302.7612	0.1968
302.9732	0.1953
303.1852	0.1976
303.3972	0.1948
303.6092	0.1947
303.8211	0.1906
304.0331	0.1924
304.245	0.1976
304.457	0.1956
304.6689	0.1937
304.8808	0.1897
305.0927	0.1919
305.3046	0.185
305.5164	0.1866
305.7283	0.1863
305.9401	0.1803
306.152	0.182
306.3638	0.1814
306.5756	0.183
306.7874	0.175
306.9992	0.1823
307.2109	0.1676
307.4227	0.1673
307.6344	0.1742
307.8462	0.1723
308.0579	0.1692
308.2696	0.1609
308.4813	0.1592
308.693	0.1653
308.9046	0.1669
309.1163	0.1611
309.328	0.1582
309.5396	0.1623
309.7512	0.1583
309.9628	0.1516
310.1744	0.1532
310.386	0.1466
310.5976	0.1546
310.8091	0.1505
311.0207	0.1472
311.2322	0.1469
311.4437	0.1401
311.6552	0.1523
311.8667	0.1389
312.0782	0.1431
312.2897	0.1412
312.5012	0.14
312.7126	0.1356
312.924	0.1332
313.1355	0.1332
313.3469	0.1329
313.5583	0.1281
313.7696	0.1312
313.981	0.1364
314.1924	0.127
314.4037	0.1233
314.6151	0.1287
314.8264	0.1256
315.0377	0.1283
315.249	0.1183
315.4603	0.1188
315.6716	0.1213
315.8828	0.1266
316.0941	0.1196
316.3053	0.1175
316.5165	0.1206
316.7277	0.1234
316.9389	0.1194
317.1501	0.1198
317.3613	0.1145
317.5724	0.1187
317.7836	0.114
317.9947	0.1115
318.2058	0.1155
318.417	0.1166
318.6281	0.1183
318.8391	0.1194
319.0502	0.1148
319.2613	0.1159
319.4723	0.1159
319.6834	0.1178
319.8944	0.1172
320.1054	0.1174
320.3164	0.1141
320.5274	0.1097
320.7383	0.1186
320.9493	0.1158
321.1602	0.1101
321.3712	0.1184
321.5821	0.1203
321.793	0.1171
322.0039	0.1138
322.2148	0.1187
322.4257	0.1173
322.6365	0.1134
322.8474	0.1145
323.0582	0.12
323.269	0.1174
323.4798	0.119
323.6906	0.1176
323.9014	0.1128
324.1122	0.111
324.3229	0.119
324.5337	0.1202
324.7444	0.1188
324.9551	0.1172
325.1658	0.1195
325.3765	0.1212
325.5872	0.1142
325.7979	0.1187
326.0085	0.1199
326.2192	0.1118
326.4298	0.1226
326.6404	0.1212
326.851	0.1166
327.0616	0.1248
327.2722	0.1285
327.4828	0.1191
327.6933	0.1232
327.9039	0.1172
328.1144	0.1231
328.3249	0.1225
328.5354	0.1141
328.7459	0.114
328.9564	0.1211
329.1669	0.1208
329.3773	0.1179
329.5878	0.1236
329.7982	0.1198
330.0086	0.1233
330.219	0.1236
330.4294	0.1257
330.6398	0.1351
330.8502	0.1217
331.0605	0.1243
331.2708	0.1224
331.4812	0.1237
331.6915	0.1187
331.9018	0.1203
332.1121	0.1326
332.3224	0.1249
332.5326	0.1292
332.7429	0.1232
332.9531	0.121
333.1633	0.1261
333.3735	0.128
333.5837	0.1233
333.7939	0.1253
334.0041	0.1236
334.2143	0.1289
334.4244	0.123
334.6346	0.1254
334.8447	0.1306
335.0548	0.121
335.2649	0.1257
335.475	0.127
335.685	0.1256
335.8951	0.1325
336.1051	0.1316
336.3152	0.1291
336.5252	0.1276
336.7352	0.1177
336.9452	0.1255
337.1552	0.1346
337.3652	0.1327
337.5751	0.1333
337.7851	0.1293
337.995	0.1313
338.2049	0.1317
338.4148	0.1264
338.6247	0.1274
338.8346	0.1316
339.0445	0.1372
339.2543	0.1386
339.4642	0.1344
339.674	0.1378
339.8838	0.1305
340.0936	0.133
340.3034	0.1324
340.5132	0.1305
340.7229	0.1342
340.9327	0.1396
341.1424	0.1359
341.3522	0.1462
341.5619	0.1348
341.7716	0.1316
341.9813	0.1456
342.1909	0.1373
342.4006	0.1401
342.6102	0.139
342.8199	0.1358
343.0295	0.1395
343.2391	0.1431
343.4487	0.1519
343.6583	0.1472
343.8679	0.1474
344.0774	0.1381
344.287	0.1436
344.4965	0.1495
344.706	0.149
344.9155	0.147
345.125	0.144
345.3345	0.1444
345.544	0.1527
345.7534	0.1513
345.9629	0.1543
346.1723	0.1438
346.3817	0.1477
346.5911	0.1507
346.8005	0.1539
347.0099	0.1539
347.2193	0.1467
347.4286	0.1563
347.638	0.1501
347.8473	0.1537
348.0566	0.1584
348.2659	0.1608
348.4752	0.1593
348.6845	0.1621
348.8937	0.1605
349.103	0.1542
349.3122	0.1605
349.5214	0.1592
349.7306	0.168
349.9398	0.1618
350.149	0.1632
350.3582	0.1632
350.5674	0.1645
350.7765	0.1629
350.9856	0.1697
351.1948	0.1653
351.4039	0.1691
351.613	0.1785
351.822	0.1671
352.0311	0.1611
352.2402	0.1694
352.4492	0.1676
352.6582	0.164
352.8672	0.1711
353.0762	0.1713
353.2852	0.1723
353.4942	0.175
353.7032	0.1663
353.9121	0.1752
354.1211	0.1728
354.33	0.179
354.5389	0.1829
354.7478	0.1805
354.9567	0.1744
355.1655	0.1764
355.3744	0.1719
355.5833	0.1791
355.7921	0.1839
356.0009	0.1777
356.2097	0.1833
356.4185	0.1904
356.6273	0.1833
356.8361	0.1909
357.0448	0.1898
357.2536	0.1837
357.4623	0.1819
357.671	0.1875
357.8797	0.193
358.0884	0.1942
358.2971	0.1902
358.5057	0.189
358.7144	0.1991
358.923	0.1967
359.1316	0.1874
359.3402	0.1992
359.5488	0.2017
359.7574	0.2046
359.966	0.1953
360.1746	0.1915
360.3831	0.2088
360.5916	0.1995
360.8002	0.1993
361.0087	0.2107
361.2172	0.2055
361.4256	0.1972
361.6341	0.22
361.8426	0.2069
362.051	0.1991
362.2594	0.2164
362.4678	0.21
362.6762	0.2177
362.8846	0.2183
363.093	0.2151
363.3014	0.2219
363.5097	0.2185
363.718	0.2261
363.9264	0.2198
364.1347	0.221
364.343	0.233
364.5513	0.2218
364.7595	0.225
364.9678	0.2318
365.176	0.2196
365.3842	0.2282
365.5925	0.2286
365.8007	0.2439
366.0089	0.2286
366.217	0.2424
366.4252	0.2404
366.6333	0.2333
366.8415	0.2406
367.0496	0.245
367.2577	0.2382
367.4658	0.2519
367.6739	0.2397
367.882	0.2477
368.09	0.2461
368.2981	0.2393
368.5061	0.2468
368.7141	0.2441
368.9221	0.2469
369.1301	0.2508
369.3381	0.2567
369.5461	0.2542
369.754	0.2538
369.962	0.2569
370.1699	0.253
370.3778	0.2548
370.5857	0.262
370.7936	0.2609
371.0015	0.2523
371.2093	0.2611
371.4172	0.2641
371.625	0.2638
371.8328	0.2677
372.0406	0.2603
372.2484	0.2631
372.4562	0.2671
372.664	0.2612
372.8717	0.2616
373.0795	0.2713
373.2872	0.2711
373.4949	0.2723
373.7026	0.2827
373.9103	0.2736
374.118	0.2707
374.3256	0.2824
374.5333	0.2729
374.7409	0.2795
374.9485	0.2685
375.1561	0.2722
375.3637	0.2722
375.5713	0.2729
375.7789	0.2734
375.9864	0.2877
376.194	0.2875
376.4015	0.2864
376.609	0.2845
376.8165	0.2875
377.024	0.2739
377.2315	0.281
377.4389	0.2767
377.6464	0.2852
377.8538	0.2904
378.0612	0.2829
378.2686	0.2903
378.476	0.2858
378.6834	0.2766
378.8908	0.2944
379.0981	0.2949
379.3055	0.3023
379.5128	0.2872
379.7201	0.2954
379.9274	0.2873
380.1347	0.2968
380.342	0.3102
380.5492	0.2963
380.7565	0.2936
380.9637	0.2975
381.1709	0.3044
381.3781	0.2994
381.5853	0.3019
381.7925	0.3078
381.9997	0.2995
382.2068	0.2979
382.4139	0.3113
382.6211	0.3091
382.8282	0.3078
383.0353	0.3014
383.2424	0.314
383.4494	0.3211
383.6565	0.3099
383.8635	0.3223
384.0706	0.3073
384.2776	0.3189
384.4846	0.3162
384.6916	0.3054
384.8986	0.3235
385.1055	0.3138
385.3125	0.3133
385.5194	0.3099
385.7263	0.302
385.9333	0.3148
386.1402	0.3251
386.347	0.3143
386.5539	0.3148
386.7608	0.3097
386.9676	0.323
387.1744	0.3216
387.3813	0.3156
387.5881	0.3149
387.7948	0.3157
388.0016	0.3146
388.2084	0.3148
388.4151	0.3126
388.6219	0.3038
388.8286	0.3078
389.0353	0.2967
389.242	0.3077
389.4487	0.314
389.6553	0.3112
389.862	0.2995
390.0686	0.3069
390.2753	0.2951
390.4819	0.3077
390.6885	0.3044
390.8951	0.3069
391.1016	0.3031
391.3082	0.2931
391.5147	0.2943
391.7213	0.3052
391.9278	0.3023
392.1343	0.2955
392.3408	0.2921
392.5473	0.2867
392.7537	0.2958
392.9602	0.3011
393.1666	0.2978
393.373	0.2935
393.5794	0.2821
393.7858	0.291
393.9922	0.2817
394.1986	0.276
394.4049	0.28
394.6113	0.2824
394.8176	0.2729
395.0239	0.2743
395.2302	0.2695
395.4365	0.2795
395.6428	0.2762
395.8491	0.2743
396.0553	0.264
396.2615	0.2752
396.4678	0.2724
396.674	0.2654
396.8802	0.2715
397.0863	0.2691
397.2925	0.2713
397.4987	0.2696
397.7048	0.2838
397.9109	0.2751
398.117	0.2678
398.3231	0.2818
398.5292	0.2634
398.7353	0.2704
398.9413	0.2559
399.1474	0.2808
399.3534	0.2675
399.5594	0.2666
399.7654	0.2673
399.9714	0.2647
400.1774	0.2635
400.3833	0.2731
400.5893	0.2564
400.7952	0.2722
401.0011	0.2646
401.207	0.2673
401.4129	0.264
401.6188	0.2699
401.8247	0.2587
402.0305	0.2625
402.2364	0.2636
402.4422	0.2678
402.648	0.2617
402.8538	0.2805
403.0596	0.2593
403.2654	0.2689
403.4711	0.2668
403.6768	0.2681
403.8826	0.2625
404.0883	0.2646
404.294	0.2749
404.4997	0.2554
404.7054	0.2626
404.911	0.2691
405.1167	0.2716
405.3223	0.2727
405.5279	0.2665
405.7335	0.2603
405.9391	0.2637
406.1447	0.2635
406.3502	0.2687
406.5558	0.2726
406.7613	0.2727
406.9668	0.2748
407.1724	0.2757
407.3778	0.264
407.5833	0.2684
407.7888	0.2696
407.9942	0.266
408.1997	0.256
408.4051	0.265
408.6105	0.2616
408.8159	0.2645
409.0213	0.2753
409.2267	0.262
409.432	0.2772
409.6374	0.266
409.8427	0.2666
410.048	0.2582
410.2533	0.2629
410.4586	0.2695
410.6639	0.264
410.8691	0.2683
411.0744	0.2613
411.2796	0.2626
411.4848	0.2547
411.69	0.2725
411.8952	0.2673
412.1004	0.2708
412.3056	0.2632
412.5107	0.2701
412.7158	0.2673
412.921	0.255
413.1261	0.2695
413.3312	0.2552
413.5362	0.2629
413.7413	0.2701
413.9464	0.2625
414.1514	0.2694
414.3564	0.2723
414.5614	0.2529
414.7664	0.2617
414.9714	0.2559
415.1764	0.2704
415.3813	0.2562
415.5863	0.2636
415.7912	0.2525
415.9961	0.2567
416.201	0.2497
416.4059	0.2544
416.6108	0.2525
416.8156	0.2471
417.0205	0.2519
417.2253	0.2618
417.4301	0.2586
417.6349	0.2515
417.8397	0.2603
418.0445	0.2469
418.2492	0.2647
418.454	0.2572
418.6587	0.2467
418.8634	0.2648
419.0681	0.2559
419.2728	0.2428
419.4775	0.254
419.6822	0.2413
419.8868	0.2544
420.0915	0.2639
420.2961	0.2459
420.5007	0.2494
420.7053	0.2585
420.9099	0.2393
421.1144	0.2438
421.319	0.2369
421.5235	0.2404
421.728	0.2391
421.9325	0.242
422.137	0.2434
422.3415	0.2432
422.546	0.2442
422.7504	0.2507
422.9549	0.2349
423.1593	0.23
423.3637	0.2369
423.5681	0.248
423.7725	0.2328
423.9769	0.2354
424.1812	0.2281
424.3856	0.2302
424.5899	0.2269
424.7942	0.2283
424.9985	0.2325
425.2028	0.2283
425.4071	0.2263
425.6113	0.2224
425.8156	0.2304
426.0198	0.2173
426.224	0.2204
426.4282	0.2292
426.6324	0.226
426.8366	0.2231
