Data from D4ACN5uM480nmA_Absorbance_12-08-00-040.txt Node
Date: Fri Feb 21 12:08:00 GMT 2025
User: LASERRRRR
Spectrometer: FLMT03099
Trigger mode: 0
Integration Time (sec): 1.500000E-2
Scans to average: 1
Electric dark correction enabled: true
Nonlinearity correction enabled: false
Boxcar width: 0
XAxis mode: Wavelengths
Number of Pixels in Spectrum: 3648
>>>>>Begin Spectral Data<<<<<
179.3399	0.5071
179.5586	0.5071
179.7771	0.5071
179.9957	0.1654
180.2143	-0.2739
180.4329	-0
180.6514	-0
180.8699	-0
181.0885	-0.1703
181.307	0.363
181.5255	0.0712
181.744	-0.0062
181.9625	0.0496
182.181	-0
182.3994	-0
182.6179	-0
182.8363	1.1492
183.0547	-0
183.2732	0.2686
183.4916	0.4273
183.71	0.2307
183.9284	0.2112
184.1467	-0.0758
184.3651	0.2953
184.5835	-0.0739
184.8018	0.1083
185.0201	0.1845
185.2385	0.1012
185.4568	0.4253
185.6751	0.1143
185.8934	0.4931
186.1117	0.1688
186.3299	0.4552
186.5482	0.1873
186.7664	0.3646
186.9847	0.1429
187.2029	0.0983
187.4211	0.168
187.6393	0.2722
187.8575	-0.0235
188.0757	0.502
188.2939	0.2938
188.512	0.3904
188.7302	0.0224
188.9483	0.2679
189.1665	0.2618
189.3846	0.2089
189.6027	0.0536
189.8208	0.2429
190.0389	0.2443
190.257	0.1675
190.475	0.3008
190.6931	0.3779
190.9111	0.349
191.1292	0.3053
191.3472	0.3056
191.5652	2.8654
191.7832	0.2929
192.0012	0.6805
192.2192	0.1156
192.4371	0.1951
192.6551	0.2759
192.873	0.2717
193.091	0.3826
193.3089	0.2246
193.5268	0.4589
193.7447	0.413
193.9626	0.3839
194.1805	0.4865
194.3984	0.2423
194.6162	0.5861
194.8341	0.6629
195.0519	0.5715
195.2697	0.6395
195.4875	0.6494
195.7054	0.5827
195.9231	0.4271
196.1409	0.5755
196.3587	0.6017
196.5765	0.5272
196.7942	0.6188
197.012	0.5859
197.2297	0.4857
197.4474	0.6493
197.6651	0.5861
197.8828	0.6161
198.1005	0.6242
198.3182	0.5827
198.5358	0.6586
198.7535	0.6048
198.9711	0.5399
199.1888	0.608
199.4064	0.5504
199.624	0.5525
199.8416	0.5119
200.0592	0.5892
200.2767	0.4526
200.4943	0.6196
200.7119	0.622
200.9294	0.5515
201.1469	0.6766
201.3645	0.6415
201.582	0.5523
201.7995	0.6166
202.017	0.5138
202.2344	0.5577
202.4519	0.5713
202.6694	0.5537
202.8868	0.5188
203.1042	0.5081
203.3217	0.5209
203.5391	0.5311
203.7565	0.5091
203.9739	0.5076
204.1913	0.5102
204.4086	0.5621
204.626	0.524
204.8433	0.5183
205.0607	0.4863
205.278	0.5068
205.4953	0.4882
205.7126	0.458
205.9299	0.5206
206.1472	0.5083
206.3644	0.4721
206.5817	0.4585
206.7989	0.4647
207.0162	0.4845
207.2334	0.4329
207.4506	0.4506
207.6678	0.452
207.885	0.4396
208.1022	0.4359
208.3194	0.4259
208.5365	0.4512
208.7537	0.4455
208.9708	0.435
209.1879	0.431
209.405	0.4483
209.6222	0.3863
209.8392	0.4483
210.0563	0.4373
210.2734	0.404
210.4905	0.4166
210.7075	0.427
210.9245	0.393
211.1416	0.4214
211.3586	0.423
211.5756	0.4055
211.7926	0.4056
212.0096	0.3827
212.2265	0.4055
212.4435	0.4179
212.6604	0.37
212.8774	0.4128
213.0943	0.4083
213.3112	0.4111
213.5281	0.4036
213.745	0.4075
213.9619	0.3972
214.1788	0.4198
214.3956	0.4323
214.6125	0.3991
214.8293	0.4018
215.0461	0.4196
215.2629	0.3942
215.4798	0.4063
215.6965	0.3862
215.9133	0.4118
216.1301	0.396
216.3469	0.3958
216.5636	0.4075
216.7803	0.4257
216.9971	0.4299
217.2138	0.4119
217.4305	0.4113
217.6472	0.4149
217.8639	0.423
218.0805	0.433
218.2972	0.416
218.5138	0.4231
218.7305	0.4237
218.9471	0.4047
219.1637	0.4174
219.3803	0.4143
219.5969	0.4211
219.8135	0.4191
220.0301	0.4376
220.2466	0.4353
220.4632	0.4207
220.6797	0.4455
220.8962	0.4354
221.1127	0.4388
221.3292	0.4335
221.5457	0.4303
221.7622	0.4382
221.9787	0.427
222.1951	0.436
222.4116	0.4343
222.628	0.4471
222.8444	0.4423
223.0608	0.4364
223.2772	0.432
223.4936	0.4309
223.71	0.4373
223.9264	0.4403
224.1427	0.4544
224.3591	0.4604
224.5754	0.4713
224.7917	0.4474
225.008	0.4453
225.2243	0.4633
225.4406	0.4557
225.6569	0.4467
225.8732	0.4535
226.0894	0.4706
226.3057	0.4517
226.5219	0.4714
226.7381	0.4681
226.9543	0.4782
227.1705	0.476
227.3867	0.4943
227.6029	0.4747
227.8191	0.4895
228.0352	0.4972
228.2513	0.5006
228.4675	0.4769
228.6836	0.4923
228.8997	0.4901
229.1158	0.4871
229.3319	0.4941
229.548	0.497
229.764	0.5099
229.9801	0.4971
230.1961	0.5041
230.4121	0.5071
230.6282	0.5052
230.8442	0.5106
231.0602	0.5088
231.2761	0.5205
231.4921	0.5065
231.7081	0.5086
231.924	0.5064
232.14	0.5319
232.3559	0.5181
232.5718	0.5237
232.7877	0.5305
233.0036	0.5143
233.2195	0.5239
233.4353	0.5403
233.6512	0.5314
233.867	0.5396
234.0829	0.5397
234.2987	0.5316
234.5145	0.5325
234.7303	0.5292
234.9461	0.5303
235.1619	0.5383
235.3776	0.5213
235.5934	0.5295
235.8091	0.5278
236.0249	0.5259
236.2406	0.5413
236.4563	0.5439
236.672	0.5288
236.8877	0.541
237.1034	0.5364
237.319	0.5373
237.5347	0.5222
237.7503	0.5417
237.966	0.5313
238.1816	0.544
238.3972	0.5347
238.6128	0.5377
238.8284	0.5466
239.0439	0.5458
239.2595	0.534
239.475	0.5264
239.6906	0.5249
239.9061	0.5202
240.1216	0.515
240.3371	0.5189
240.5526	0.522
240.7681	0.518
240.9836	0.5162
241.199	0.5218
241.4145	0.5082
241.6299	0.5012
241.8453	0.4923
242.0607	0.4951
242.2761	0.4788
242.4915	0.4756
242.7069	0.4688
242.9223	0.4606
243.1376	0.4489
243.353	0.4453
243.5683	0.4372
243.7836	0.4176
243.9989	0.4245
244.2142	0.4194
244.4295	0.4075
244.6448	0.394
244.86	0.3885
245.0753	0.3837
245.2905	0.3785
245.5057	0.3738
245.721	0.3547
245.9362	0.3496
246.1514	0.3347
246.3665	0.3405
246.5817	0.3261
246.7969	0.3213
247.012	0.3271
247.2271	0.3125
247.4423	0.3045
247.6574	0.3063
247.8725	0.2938
248.0876	0.2897
248.3026	0.2849
248.5177	0.2784
248.7328	0.2783
248.9478	0.2684
249.1628	0.2741
249.3779	0.2651
249.5929	0.2565
249.8079	0.2554
250.0228	0.2491
250.2378	0.2475
250.4528	0.251
250.6677	0.2431
250.8827	0.2332
251.0976	0.2397
251.3125	0.2329
251.5274	0.2301
251.7423	0.227
251.9572	0.2193
252.172	0.222
252.3869	0.2188
252.6017	0.2185
252.8166	0.222
253.0314	0.2137
253.2462	0.2134
253.461	0.207
253.6758	0.2084
253.8906	0.21
254.1053	0.2041
254.3201	0.2062
254.5348	0.2003
254.7496	0.2056
254.9643	0.2053
255.179	0.2027
255.3937	0.1988
255.6083	0.1965
255.823	0.1998
256.0377	0.1973
256.2523	0.1966
256.467	0.2004
256.6816	0.1976
256.8962	0.1919
257.1108	0.1934
257.3254	0.1885
257.54	0.1931
257.7545	0.1967
257.9691	0.1929
258.1836	0.1951
258.3981	0.1895
258.6127	0.1865
258.8272	0.1836
259.0417	0.1822
259.2561	0.192
259.4706	0.1866
259.6851	0.1834
259.8995	0.1803
260.114	0.179
260.3284	0.1846
260.5428	0.1787
260.7572	0.1908
260.9716	0.1824
261.186	0.1802
261.4003	0.1855
261.6147	0.1785
261.829	0.1849
262.0433	0.1869
262.2577	0.1847
262.472	0.1837
262.6863	0.1868
262.9005	0.1873
263.1148	0.1829
263.3291	0.1877
263.5433	0.1811
263.7576	0.1829
263.9718	0.185
264.186	0.1867
264.4002	0.1839
264.6144	0.1901
264.8286	0.1938
265.0427	0.1939
265.2569	0.1856
265.471	0.1894
265.6851	0.1845
265.8993	0.1836
266.1134	0.1865
266.3275	0.1838
266.5415	0.1802
266.7556	0.1822
266.9697	0.1838
267.1837	0.1841
267.3978	0.186
267.6118	0.184
267.8258	0.1836
268.0398	0.1823
268.2538	0.1837
268.4677	0.1769
268.6817	0.1784
268.8957	0.1789
269.1096	0.1776
269.3235	0.1823
269.5374	0.1839
269.7514	0.1828
269.9652	0.1835
270.1791	0.1764
270.393	0.1792
270.6068	0.1761
270.8207	0.1741
271.0345	0.1741
271.2483	0.1773
271.4622	0.1713
271.676	0.1689
271.8897	0.1706
272.1035	0.1715
272.3173	0.173
272.531	0.1744
272.7448	0.1714
272.9585	0.1743
273.1722	0.1706
273.3859	0.1689
273.5996	0.1662
273.8133	0.1723
274.0269	0.1757
274.2406	0.1704
274.4542	0.1609
274.6679	0.1708
274.8815	0.17
275.0951	0.1753
275.3087	0.1785
275.5223	0.1731
275.7358	0.1752
275.9494	0.175
276.1629	0.1759
276.3765	0.1712
276.59	0.1775
276.8035	0.178
277.017	0.1742
277.2305	0.1765
277.444	0.1756
277.6574	0.1782
277.8709	0.1791
278.0843	0.173
278.2978	0.183
278.5112	0.1765
278.7246	0.1782
278.938	0.1758
279.1513	0.1816
279.3647	0.1834
279.5781	0.1841
279.7914	0.1824
280.0047	0.1794
280.2181	0.1843
280.4314	0.1825
280.6447	0.1836
280.8579	0.1741
281.0712	0.1797
281.2845	0.1842
281.4977	0.1874
281.711	0.1824
281.9242	0.1828
282.1374	0.1803
282.3506	0.185
282.5638	0.1827
282.7769	0.1787
282.9901	0.1888
283.2033	0.1865
283.4164	0.1808
283.6295	0.1822
283.8426	0.1836
284.0557	0.1844
284.2688	0.1894
284.4819	0.1903
284.695	0.1966
284.908	0.1914
285.1211	0.1875
285.3341	0.1935
285.5471	0.1906
285.7601	0.1951
285.9731	0.1933
286.1861	0.1941
286.3991	0.1911
286.612	0.2002
286.825	0.1917
287.0379	0.1977
287.2508	0.1935
287.4637	0.1957
287.6766	0.1964
287.8895	0.1927
288.1024	0.1933
288.3152	0.1935
288.5281	0.191
288.7409	0.1989
288.9538	0.1907
289.1666	0.1984
289.3794	0.2022
289.5922	0.1967
289.8049	0.2036
290.0177	0.2008
290.2304	0.198
290.4432	0.2018
290.6559	0.1978
290.8686	0.197
291.0813	0.2036
291.294	0.2054
291.5067	0.2012
291.7194	0.1989
291.932	0.1976
292.1447	0.1996
292.3573	0.1961
292.5699	0.2036
292.7825	0.1943
292.9951	0.203
293.2077	0.2002
293.4203	0.2055
293.6328	0.1932
293.8454	0.2014
294.0579	0.2044
294.2704	0.2074
294.4829	0.2034
294.6954	0.2004
294.9079	0.1993
295.1204	0.1963
295.3328	0.2022
295.5453	0.1981
295.7577	0.1977
295.9701	0.2009
296.1825	0.1964
296.3949	0.2072
296.6073	0.2001
296.8197	0.2055
297.0321	0.2062
297.2444	0.2018
297.4567	0.2001
297.6691	0.1978
297.8814	0.1994
298.0937	0.2007
298.306	0.1978
298.5182	0.1971
298.7305	0.2002
298.9428	0.1985
299.155	0.1958
299.3672	0.1983
299.5794	0.1946
299.7916	0.2015
300.0038	0.1875
300.216	0.2006
300.4282	0.1956
300.6403	0.1962
300.8525	0.2047
301.0646	0.1954
301.2767	0.2013
301.4888	0.1987
301.7009	0.1987
301.913	0.2002
302.125	0.1956
302.3371	0.1934
302.5491	0.1927
302.7612	0.1962
302.9732	0.1925
303.1852	0.1949
303.3972	0.1898
303.6092	0.1964
303.8211	0.1889
304.0331	0.1864
304.245	0.1947
304.457	0.1933
304.6689	0.1954
304.8808	0.1913
305.0927	0.194
305.3046	0.1833
305.5164	0.1892
305.7283	0.1836
305.9401	0.1847
306.152	0.1783
306.3638	0.179
306.5756	0.1792
306.7874	0.1822
306.9992	0.1739
307.2109	0.1734
307.4227	0.1745
307.6344	0.1769
307.8462	0.166
308.0579	0.1712
308.2696	0.1694
308.4813	0.1588
308.693	0.1665
308.9046	0.1582
309.1163	0.1594
309.328	0.1554
309.5396	0.1576
309.7512	0.1512
309.9628	0.1544
310.1744	0.156
310.386	0.1505
310.5976	0.1482
310.8091	0.146
311.0207	0.145
311.2322	0.1494
311.4437	0.1437
311.6552	0.1472
311.8667	0.1362
312.0782	0.1387
312.2897	0.1432
312.5012	0.1443
312.7126	0.1308
312.924	0.1379
313.1355	0.1333
313.3469	0.1303
313.5583	0.1288
313.7696	0.1259
313.981	0.1286
314.1924	0.1276
314.4037	0.1246
314.6151	0.1271
314.8264	0.1288
315.0377	0.1275
315.249	0.1235
315.4603	0.1217
315.6716	0.1294
315.8828	0.1217
316.0941	0.1183
316.3053	0.121
316.5165	0.1214
316.7277	0.1243
316.9389	0.122
317.1501	0.1216
317.3613	0.1169
317.5724	0.1223
317.7836	0.1208
317.9947	0.1125
318.2058	0.1158
318.417	0.1114
318.6281	0.1186
318.8391	0.118
319.0502	0.1178
319.2613	0.1149
319.4723	0.1162
319.6834	0.1177
319.8944	0.1172
320.1054	0.1154
320.3164	0.1169
320.5274	0.108
320.7383	0.1097
320.9493	0.1153
321.1602	0.1157
321.3712	0.1183
321.5821	0.1174
321.793	0.1167
322.0039	0.1163
322.2148	0.1171
322.4257	0.1208
322.6365	0.1128
322.8474	0.1151
323.0582	0.1201
323.269	0.1136
323.4798	0.119
323.6906	0.1163
323.9014	0.1096
324.1122	0.1113
324.3229	0.1209
324.5337	0.1191
324.7444	0.1179
324.9551	0.115
325.1658	0.1158
325.3765	0.1172
325.5872	0.1157
325.7979	0.1164
326.0085	0.1171
326.2192	0.1133
326.4298	0.1208
326.6404	0.1187
326.851	0.1187
327.0616	0.1217
327.2722	0.1217
327.4828	0.118
327.6933	0.1156
327.9039	0.1176
328.1144	0.1181
328.3249	0.12
328.5354	0.1181
328.7459	0.1223
328.9564	0.1294
329.1669	0.1241
329.3773	0.1185
329.5878	0.1216
329.7982	0.1216
330.0086	0.1212
330.219	0.1232
330.4294	0.1242
330.6398	0.1225
330.8502	0.1241
331.0605	0.1216
331.2708	0.1247
331.4812	0.123
331.6915	0.1203
331.9018	0.1181
332.1121	0.1281
332.3224	0.1238
332.5326	0.127
332.7429	0.1213
332.9531	0.1286
333.1633	0.1302
333.3735	0.1215
333.5837	0.1272
333.7939	0.1248
334.0041	0.1237
334.2143	0.124
334.4244	0.1203
334.6346	0.1256
334.8447	0.1273
335.0548	0.1288
335.2649	0.1268
335.475	0.1226
335.685	0.1231
335.8951	0.1272
336.1051	0.1282
336.3152	0.1269
336.5252	0.1272
336.7352	0.1201
336.9452	0.1273
337.1552	0.1307
337.3652	0.1309
337.5751	0.1295
337.7851	0.1253
337.995	0.1273
338.2049	0.1288
338.4148	0.1278
338.6247	0.1318
338.8346	0.1291
339.0445	0.1301
339.2543	0.1347
339.4642	0.1407
339.674	0.1359
339.8838	0.1331
340.0936	0.1292
340.3034	0.1304
340.5132	0.1322
340.7229	0.1324
340.9327	0.1371
341.1424	0.1364
341.3522	0.1328
341.5619	0.1381
341.7716	0.1338
341.9813	0.1314
342.1909	0.1433
342.4006	0.1446
342.6102	0.1336
342.8199	0.1377
343.0295	0.1423
343.2391	0.1329
343.4487	0.1442
343.6583	0.1484
343.8679	0.1488
344.0774	0.1442
344.287	0.1486
344.4965	0.1472
344.706	0.1419
344.9155	0.1447
345.125	0.1471
345.3345	0.1525
345.544	0.1505
345.7534	0.1486
345.9629	0.1507
346.1723	0.1528
346.3817	0.1479
346.5911	0.1475
346.8005	0.1487
347.0099	0.1542
347.2193	0.1508
347.4286	0.159
347.638	0.1523
347.8473	0.158
348.0566	0.1578
348.2659	0.1532
348.4752	0.1528
348.6845	0.1613
348.8937	0.1602
349.103	0.1544
349.3122	0.1606
349.5214	0.1572
349.7306	0.1595
349.9398	0.166
350.149	0.1611
350.3582	0.1587
350.5674	0.1619
350.7765	0.1643
350.9856	0.1637
351.1948	0.1664
351.4039	0.1644
351.613	0.1708
351.822	0.1675
352.0311	0.1666
352.2402	0.1639
352.4492	0.1679
352.6582	0.1718
352.8672	0.1721
353.0762	0.1725
353.2852	0.169
353.4942	0.1711
353.7032	0.1708
353.9121	0.1729
354.1211	0.1743
354.33	0.1793
354.5389	0.1839
354.7478	0.1804
354.9567	0.1789
355.1655	0.1815
355.3744	0.179
355.5833	0.1818
355.7921	0.1815
356.0009	0.179
356.2097	0.186
356.4185	0.1897
356.6273	0.1861
356.8361	0.1936
357.0448	0.1869
357.2536	0.1927
357.4623	0.1818
357.671	0.1866
357.8797	0.1931
358.0884	0.1859
358.2971	0.1908
358.5057	0.1921
358.7144	0.1965
358.923	0.1927
359.1316	0.1945
359.3402	0.2018
359.5488	0.1972
359.7574	0.1979
359.966	0.2017
360.1746	0.1977
360.3831	0.2016
360.5916	0.2065
360.8002	0.2101
361.0087	0.2135
361.2172	0.2108
361.4256	0.2068
361.6341	0.2165
361.8426	0.2061
362.051	0.2124
362.2594	0.2157
362.4678	0.2238
362.6762	0.2168
362.8846	0.2182
363.093	0.2216
363.3014	0.2291
363.5097	0.219
363.718	0.2298
363.9264	0.2232
364.1347	0.2275
364.343	0.2267
364.5513	0.2334
364.7595	0.222
364.9678	0.2288
365.176	0.2331
365.3842	0.2281
365.5925	0.2262
365.8007	0.2288
366.0089	0.2357
366.217	0.2359
366.4252	0.2354
366.6333	0.2285
366.8415	0.2337
367.0496	0.2327
367.2577	0.2467
367.4658	0.2478
367.6739	0.2343
367.882	0.2374
368.09	0.2393
368.2981	0.2407
368.5061	0.2488
368.7141	0.251
368.9221	0.2474
369.1301	0.2442
369.3381	0.2504
369.5461	0.2571
369.754	0.2502
369.962	0.2561
370.1699	0.2609
370.3778	0.2599
370.5857	0.2594
370.7936	0.2589
371.0015	0.254
371.2093	0.2603
371.4172	0.2539
371.625	0.2641
371.8328	0.2685
372.0406	0.2605
372.2484	0.2565
372.4562	0.258
372.664	0.2701
372.8717	0.2651
373.0795	0.2762
373.2872	0.2744
373.4949	0.2738
373.7026	0.2818
373.9103	0.2738
374.118	0.2744
374.3256	0.2907
374.5333	0.2762
374.7409	0.2664
374.9485	0.275
375.1561	0.2775
375.3637	0.2726
375.5713	0.2726
375.7789	0.2814
375.9864	0.288
376.194	0.2901
376.4015	0.2873
376.609	0.2921
376.8165	0.2831
377.024	0.2819
377.2315	0.291
377.4389	0.2775
377.6464	0.2923
377.8538	0.2889
378.0612	0.2842
378.2686	0.2837
378.476	0.287
378.6834	0.291
378.8908	0.2923
379.0981	0.294
379.3055	0.293
379.5128	0.2988
379.7201	0.2896
379.9274	0.2968
380.1347	0.2943
380.342	0.3044
380.5492	0.2917
380.7565	0.3023
380.9637	0.3013
381.1709	0.2965
381.3781	0.3008
381.5853	0.2998
381.7925	0.3138
381.9997	0.3053
382.2068	0.2903
382.4139	0.3003
382.6211	0.3071
382.8282	0.3067
383.0353	0.3056
383.2424	0.3112
383.4494	0.3188
383.6565	0.2992
383.8635	0.3184
384.0706	0.3077
384.2776	0.3213
384.4846	0.3112
384.6916	0.302
384.8986	0.3152
385.1055	0.3167
385.3125	0.3117
385.5194	0.3136
385.7263	0.3092
385.9333	0.3188
386.1402	0.3174
386.347	0.3152
386.5539	0.3232
386.7608	0.315
386.9676	0.3036
387.1744	0.3163
387.3813	0.3217
387.5881	0.3158
387.7948	0.3142
388.0016	0.3131
388.2084	0.3148
388.4151	0.3136
388.6219	0.3071
388.8286	0.3072
389.0353	0.3091
389.242	0.3056
389.4487	0.3106
389.6553	0.3037
389.862	0.308
390.0686	0.3081
390.2753	0.2998
390.4819	0.3127
390.6885	0.2997
390.8951	0.3092
391.1016	0.3005
391.3082	0.2945
391.5147	0.3002
391.7213	0.3032
391.9278	0.2929
392.1343	0.2892
392.3408	0.2937
392.5473	0.282
392.7537	0.3032
392.9602	0.2852
393.1666	0.2893
393.373	0.282
393.5794	0.2997
393.7858	0.2927
393.9922	0.2936
394.1986	0.2853
394.4049	0.2846
394.6113	0.2905
394.8176	0.2781
395.0239	0.2785
395.2302	0.2746
395.4365	0.277
395.6428	0.2802
395.8491	0.2829
396.0553	0.26
396.2615	0.2704
396.4678	0.2782
396.674	0.2758
396.8802	0.2693
397.0863	0.2663
397.2925	0.2675
397.4987	0.2722
397.7048	0.2722
397.9109	0.2747
398.117	0.274
398.3231	0.2768
398.5292	0.2802
398.7353	0.2633
398.9413	0.2586
399.1474	0.2747
399.3534	0.2732
399.5594	0.2707
399.7654	0.2759
399.9714	0.262
400.1774	0.255
400.3833	0.269
400.5893	0.2673
400.7952	0.2684
401.0011	0.255
401.207	0.2646
401.4129	0.2669
401.6188	0.259
401.8247	0.2624
402.0305	0.2533
402.2364	0.27
402.4422	0.2753
402.648	0.2704
402.8538	0.2751
403.0596	0.2581
403.2654	0.2615
403.4711	0.2738
403.6768	0.278
403.8826	0.2737
404.0883	0.2545
404.294	0.2709
404.4997	0.2595
404.7054	0.2616
404.911	0.2617
405.1167	0.2664
405.3223	0.2653
405.5279	0.2658
405.7335	0.2604
405.9391	0.2584
406.1447	0.2661
406.3502	0.2702
406.5558	0.2754
406.7613	0.265
406.9668	0.2662
407.1724	0.2735
407.3778	0.2633
407.5833	0.2551
407.7888	0.2654
407.9942	0.2644
408.1997	0.2671
408.4051	0.262
408.6105	0.2725
408.8159	0.2635
409.0213	0.2786
409.2267	0.2612
409.432	0.2658
409.6374	0.2633
409.8427	0.2609
410.048	0.2562
410.2533	0.2638
410.4586	0.2705
410.6639	0.2549
410.8691	0.2738
411.0744	0.261
411.2796	0.2713
411.4848	0.2543
411.69	0.2627
411.8952	0.2664
412.1004	0.2596
412.3056	0.2628
412.5107	0.269
412.7158	0.2678
412.921	0.262
413.1261	0.27
413.3312	0.2634
413.5362	0.2623
413.7413	0.2735
413.9464	0.2582
414.1514	0.2652
414.3564	0.2578
414.5614	0.2626
414.7664	0.2627
414.9714	0.2639
415.1764	0.2545
415.3813	0.2414
415.5863	0.2607
415.7912	0.2696
415.9961	0.2567
416.201	0.2527
416.4059	0.2582
416.6108	0.2517
416.8156	0.2488
417.0205	0.2692
417.2253	0.2589
417.4301	0.2704
417.6349	0.2578
417.8397	0.2633
418.0445	0.2566
418.2492	0.2603
418.454	0.254
418.6587	0.2442
418.8634	0.2627
419.0681	0.2456
419.2728	0.2481
419.4775	0.2561
419.6822	0.2452
419.8868	0.2554
420.0915	0.254
420.2961	0.2506
420.5007	0.2546
420.7053	0.2543
420.9099	0.2376
421.1144	0.2378
421.319	0.2402
421.5235	0.2377
421.728	0.2397
421.9325	0.2506
422.137	0.2391
422.3415	0.2346
422.546	0.252
422.7504	0.2418
422.9549	0.2352
423.1593	0.2418
423.3637	0.2293
423.5681	0.2492
423.7725	0.2383
423.9769	0.2392
424.1812	0.2492
424.3856	0.238
424.5899	0.2414
424.7942	0.2237
424.9985	0.2261
425.2028	0.2345
425.4071	0.2093
425.6113	0.2268
425.8156	0.2303
426.0198	0.2184
426.224	0.2294
426.4282	0.229
426.6324	0.2275
426.8366	0.2199
