Data from D4ACN5uM480nmA_Absorbance_12-08-00-299.txt Node
Date: Fri Feb 21 12:08:00 GMT 2025
User: LASERRRRR
Spectrometer: FLMT03099
Trigger mode: 0
Integration Time (sec): 1.500000E-2
Scans to average: 1
Electric dark correction enabled: true
Nonlinearity correction enabled: false
Boxcar width: 0
XAxis mode: Wavelengths
Number of Pixels in Spectrum: 3648
>>>>>Begin Spectral Data<<<<<
179.3399	-0.0983
179.5586	-0.0983
179.7771	-0.0983
179.9957	0.0247
180.2143	-0.4068
180.4329	0.1659
180.6514	-0
180.8699	-0.2436
181.0885	-0
181.307	0.2971
181.5255	-0.0279
181.744	0.1487
181.9625	-0.2833
182.181	-0
182.3994	-0
182.6179	-0.7414
182.8363	-0.1625
183.0547	-0
183.2732	0.1858
183.4916	0.1703
183.71	0.0615
183.9284	0.1315
184.1467	-0.0612
184.3651	0.1954
184.5835	0.0869
184.8018	0.157
185.0201	0.2014
185.2385	-0.1005
185.4568	0.074
185.6751	0.1666
185.8934	0.184
186.1117	0.1756
186.3299	0.1788
186.5482	0.1208
186.7664	0.079
186.9847	0.1324
187.2029	0.1423
187.4211	0.294
187.6393	0.1744
187.8575	0.1401
188.0757	0.4825
188.2939	0.1453
188.512	0.3839
188.7302	-0.0196
188.9483	1.3577
189.1665	0.6232
189.3846	-0.1098
189.6027	0.1921
189.8208	0.1551
190.0389	0.2504
190.257	0.2478
190.475	0.0582
190.6931	0.5174
190.9111	0.5301
191.1292	0.1758
191.3472	0.3526
191.5652	0.9437
191.7832	0.4353
192.0012	0.3364
192.2192	0.1984
192.4371	0.2124
192.6551	0.2183
192.873	0.1922
193.091	0.3746
193.3089	0.0936
193.5268	0.4966
193.7447	0.397
193.9626	0.5774
194.1805	0.3248
194.3984	0.4968
194.6162	0.4807
194.8341	0.478
195.0519	0.4475
195.2697	0.5768
195.4875	0.6975
195.7054	0.4238
195.9231	0.4095
196.1409	0.5943
196.3587	0.4739
196.5765	0.4219
196.7942	0.6309
197.012	0.5676
197.2297	0.5267
197.4474	0.687
197.6651	0.5107
197.8828	0.6456
198.1005	0.5197
198.3182	0.5355
198.5358	0.5071
198.7535	0.6177
198.9711	0.7028
199.1888	0.6392
199.4064	0.5332
199.624	0.6773
199.8416	0.458
200.0592	0.5258
200.2767	0.5539
200.4943	0.579
200.7119	0.5797
200.9294	0.5996
201.1469	0.6485
201.3645	0.5753
201.582	0.5413
201.7995	0.5986
202.017	0.5993
202.2344	0.5456
202.4519	0.5548
202.6694	0.5703
202.8868	0.589
203.1042	0.5293
203.3217	0.492
203.5391	0.4985
203.7565	0.5167
203.9739	0.5006
204.1913	0.5676
204.4086	0.5136
204.626	0.5628
204.8433	0.4728
205.0607	0.4493
205.278	0.4884
205.4953	0.4693
205.7126	0.4956
205.9299	0.4345
206.1472	0.5101
206.3644	0.4645
206.5817	0.4767
206.7989	0.4699
207.0162	0.3694
207.2334	0.4565
207.4506	0.4407
207.6678	0.4089
207.885	0.4294
208.1022	0.4348
208.3194	0.402
208.5365	0.4819
208.7537	0.432
208.9708	0.4416
209.1879	0.4289
209.405	0.4377
209.6222	0.4058
209.8392	0.4439
210.0563	0.4157
210.2734	0.4123
210.4905	0.4182
210.7075	0.4212
210.9245	0.4018
211.1416	0.4012
211.3586	0.4063
211.5756	0.4132
211.7926	0.4265
212.0096	0.3888
212.2265	0.4016
212.4435	0.4154
212.6604	0.399
212.8774	0.4181
213.0943	0.4426
213.3112	0.4063
213.5281	0.4076
213.745	0.4197
213.9619	0.3824
214.1788	0.3969
214.3956	0.4297
214.6125	0.3883
214.8293	0.4196
215.0461	0.4318
215.2629	0.4085
215.4798	0.3947
215.6965	0.3715
215.9133	0.4101
216.1301	0.4025
216.3469	0.4121
216.5636	0.4046
216.7803	0.4345
216.9971	0.4448
217.2138	0.4176
217.4305	0.4149
217.6472	0.4451
217.8639	0.4156
218.0805	0.422
218.2972	0.4173
218.5138	0.4381
218.7305	0.4253
218.9471	0.4223
219.1637	0.4242
219.3803	0.4324
219.5969	0.4175
219.8135	0.4176
220.0301	0.4112
220.2466	0.4346
220.4632	0.4013
220.6797	0.4255
220.8962	0.4287
221.1127	0.4373
221.3292	0.4464
221.5457	0.4324
221.7622	0.4195
221.9787	0.4368
222.1951	0.4328
222.4116	0.424
222.628	0.4554
222.8444	0.453
223.0608	0.453
223.2772	0.4352
223.4936	0.4511
223.71	0.4563
223.9264	0.4584
224.1427	0.4465
224.3591	0.4613
224.5754	0.4513
224.7917	0.4652
225.008	0.4523
225.2243	0.464
225.4406	0.4657
225.6569	0.4657
225.8732	0.4585
226.0894	0.4821
226.3057	0.4572
226.5219	0.4627
226.7381	0.4685
226.9543	0.4698
227.1705	0.4743
227.3867	0.4857
227.6029	0.4748
227.8191	0.4797
228.0352	0.504
228.2513	0.4987
228.4675	0.4992
228.6836	0.4915
228.8997	0.4919
229.1158	0.4856
229.3319	0.5019
229.548	0.4927
229.764	0.5078
229.9801	0.52
230.1961	0.5129
230.4121	0.5063
230.6282	0.5091
230.8442	0.5214
231.0602	0.5132
231.2761	0.5114
231.4921	0.5059
231.7081	0.5121
231.924	0.5133
232.14	0.5244
232.3559	0.5381
232.5718	0.5283
232.7877	0.5207
233.0036	0.5143
233.2195	0.5314
233.4353	0.5409
233.6512	0.5305
233.867	0.5328
234.0829	0.5317
234.2987	0.5235
234.5145	0.5344
234.7303	0.5335
234.9461	0.529
235.1619	0.5328
235.3776	0.5279
235.5934	0.5197
235.8091	0.5196
236.0249	0.5407
236.2406	0.5358
236.4563	0.5479
236.672	0.5327
236.8877	0.5431
237.1034	0.5288
237.319	0.5315
237.5347	0.54
237.7503	0.5397
237.966	0.541
238.1816	0.5292
238.3972	0.5453
238.6128	0.5452
238.8284	0.5387
239.0439	0.5427
239.2595	0.5233
239.475	0.5342
239.6906	0.531
239.9061	0.5367
240.1216	0.5368
240.3371	0.5177
240.5526	0.5221
240.7681	0.5218
240.9836	0.5221
241.199	0.5145
241.4145	0.4967
241.6299	0.4842
241.8453	0.4994
242.0607	0.4841
242.2761	0.4881
242.4915	0.47
242.7069	0.4669
242.9223	0.4664
243.1376	0.4432
243.353	0.4412
243.5683	0.4348
243.7836	0.4228
243.9989	0.4243
244.2142	0.4089
244.4295	0.4024
244.6448	0.3997
244.86	0.3814
245.0753	0.383
245.2905	0.3752
245.5057	0.3676
245.721	0.3629
245.9362	0.3471
246.1514	0.339
246.3665	0.3472
246.5817	0.3416
246.7969	0.3298
247.012	0.3245
247.2271	0.3157
247.4423	0.3016
247.6574	0.3125
247.8725	0.2995
248.0876	0.2931
248.3026	0.2779
248.5177	0.2831
248.7328	0.2726
248.9478	0.2782
249.1628	0.2675
249.3779	0.2721
249.5929	0.2644
249.8079	0.2535
250.0228	0.2466
250.2378	0.2556
250.4528	0.247
250.6677	0.249
250.8827	0.2431
251.0976	0.2401
251.3125	0.2374
251.5274	0.2299
251.7423	0.2276
251.9572	0.2159
252.172	0.2193
252.3869	0.2182
252.6017	0.2144
252.8166	0.2178
253.0314	0.2181
253.2462	0.211
253.461	0.2061
253.6758	0.2098
253.8906	0.2095
254.1053	0.2077
254.3201	0.2058
254.5348	0.2026
254.7496	0.2071
254.9643	0.2008
255.179	0.1991
255.3937	0.1998
255.6083	0.2023
255.823	0.1959
256.0377	0.1961
256.2523	0.1977
256.467	0.1969
256.6816	0.1989
256.8962	0.1938
257.1108	0.1951
257.3254	0.1954
257.54	0.1995
257.7545	0.1934
257.9691	0.1935
258.1836	0.1834
258.3981	0.1876
258.6127	0.1826
258.8272	0.1835
259.0417	0.1821
259.2561	0.1894
259.4706	0.1876
259.6851	0.1871
259.8995	0.1836
260.114	0.1832
260.3284	0.1818
260.5428	0.1834
260.7572	0.1896
260.9716	0.1852
261.186	0.1819
261.4003	0.1896
261.6147	0.1859
261.829	0.1808
262.0433	0.1794
262.2577	0.1913
262.472	0.1893
262.6863	0.1837
262.9005	0.1915
263.1148	0.1809
263.3291	0.1874
263.5433	0.1816
263.7576	0.1819
263.9718	0.1911
264.186	0.1862
264.4002	0.1818
264.6144	0.1895
264.8286	0.1943
265.0427	0.1902
265.2569	0.1894
265.471	0.1833
265.6851	0.18
265.8993	0.1868
266.1134	0.1827
266.3275	0.1887
266.5415	0.179
266.7556	0.1842
266.9697	0.1852
267.1837	0.187
267.3978	0.1885
267.6118	0.1827
267.8258	0.1859
268.0398	0.181
268.2538	0.1877
268.4677	0.1863
268.6817	0.1708
268.8957	0.1819
269.1096	0.1815
269.3235	0.1857
269.5374	0.1834
269.7514	0.1834
269.9652	0.1851
270.1791	0.1787
270.393	0.185
270.6068	0.1661
270.8207	0.1764
271.0345	0.1733
271.2483	0.177
271.4622	0.1728
271.676	0.1744
271.8897	0.1723
272.1035	0.1744
272.3173	0.1722
272.531	0.1742
272.7448	0.168
272.9585	0.1775
273.1722	0.1768
273.3859	0.1667
273.5996	0.1751
273.8133	0.1688
274.0269	0.1808
274.2406	0.1725
274.4542	0.1668
274.6679	0.1714
274.8815	0.1726
275.0951	0.1734
275.3087	0.1751
275.5223	0.1705
275.7358	0.1748
275.9494	0.1712
276.1629	0.1747
276.3765	0.1706
276.59	0.1821
276.8035	0.1737
277.017	0.1759
277.2305	0.1767
277.444	0.1708
277.6574	0.1737
277.8709	0.1779
278.0843	0.1753
278.2978	0.1821
278.5112	0.1836
278.7246	0.1846
278.938	0.1774
279.1513	0.18
279.3647	0.1848
279.5781	0.1833
279.7914	0.1852
280.0047	0.1764
280.2181	0.1823
280.4314	0.1864
280.6447	0.1839
280.8579	0.1796
281.0712	0.1814
281.2845	0.1886
281.4977	0.1871
281.711	0.1782
281.9242	0.1816
282.1374	0.1827
282.3506	0.189
282.5638	0.1849
282.7769	0.1777
282.9901	0.1826
283.2033	0.1855
283.4164	0.1825
283.6295	0.182
283.8426	0.1886
284.0557	0.188
284.2688	0.1865
284.4819	0.1911
284.695	0.1942
284.908	0.1921
285.1211	0.1896
285.3341	0.1894
285.5471	0.1959
285.7601	0.1936
285.9731	0.1883
286.1861	0.1946
286.3991	0.1903
286.612	0.1936
286.825	0.1936
287.0379	0.1988
287.2508	0.195
287.4637	0.1959
287.6766	0.1923
287.8895	0.1896
288.1024	0.197
288.3152	0.1972
288.5281	0.1978
288.7409	0.1951
288.9538	0.192
289.1666	0.1962
289.3794	0.1951
289.5922	0.1953
289.8049	0.2001
290.0177	0.1928
290.2304	0.2022
290.4432	0.2035
290.6559	0.1931
290.8686	0.2011
291.0813	0.2022
291.294	0.2068
291.5067	0.2063
291.7194	0.1986
291.932	0.2
292.1447	0.1982
292.3573	0.1976
292.5699	0.2081
292.7825	0.1972
292.9951	0.201
293.2077	0.2046
293.4203	0.2004
293.6328	0.1993
293.8454	0.1981
294.0579	0.1983
294.2704	0.204
294.4829	0.1996
294.6954	0.201
294.9079	0.1978
295.1204	0.1918
295.3328	0.204
295.5453	0.1975
295.7577	0.196
295.9701	0.2
296.1825	0.1956
296.3949	0.2016
296.6073	0.2016
296.8197	0.2023
297.0321	0.1992
297.2444	0.2016
297.4567	0.1956
297.6691	0.1975
297.8814	0.202
298.0937	0.1963
298.306	0.1995
298.5182	0.2064
298.7305	0.1992
298.9428	0.1963
299.155	0.197
299.3672	0.2062
299.5794	0.1921
299.7916	0.1979
300.0038	0.1951
300.216	0.2034
300.4282	0.1914
300.6403	0.1975
300.8525	0.2063
301.0646	0.1933
301.2767	0.1981
301.4888	0.1972
301.7009	0.202
301.913	0.2033
302.125	0.1985
302.3371	0.1994
302.5491	0.1967
302.7612	0.2003
302.9732	0.1907
303.1852	0.1982
303.3972	0.1977
303.6092	0.1932
303.8211	0.1891
304.0331	0.1872
304.245	0.1998
304.457	0.1985
304.6689	0.194
304.8808	0.1887
305.0927	0.195
305.3046	0.1856
305.5164	0.1816
305.7283	0.1916
305.9401	0.1852
306.152	0.1838
306.3638	0.1837
306.5756	0.1891
306.7874	0.179
306.9992	0.1774
307.2109	0.1753
307.4227	0.1694
307.6344	0.1786
307.8462	0.1689
308.0579	0.1738
308.2696	0.1648
308.4813	0.1637
308.693	0.1603
308.9046	0.1645
309.1163	0.1606
309.328	0.1586
309.5396	0.1619
309.7512	0.1552
309.9628	0.1544
310.1744	0.1549
310.386	0.1461
310.5976	0.1487
310.8091	0.1467
311.0207	0.1455
311.2322	0.1476
311.4437	0.1424
311.6552	0.1424
311.8667	0.141
312.0782	0.1455
312.2897	0.1411
312.5012	0.1383
312.7126	0.1291
312.924	0.1345
313.1355	0.1292
313.3469	0.1285
313.5583	0.1231
313.7696	0.1259
313.981	0.1279
314.1924	0.1262
314.4037	0.126
314.6151	0.1256
314.8264	0.1278
315.0377	0.1305
315.249	0.1206
315.4603	0.1248
315.6716	0.1261
315.8828	0.1241
316.0941	0.1181
316.3053	0.1201
316.5165	0.1216
316.7277	0.1225
316.9389	0.1286
317.1501	0.1239
317.3613	0.1166
317.5724	0.1164
317.7836	0.1156
317.9947	0.1139
318.2058	0.1189
318.417	0.1155
318.6281	0.112
318.8391	0.1192
319.0502	0.118
319.2613	0.1148
319.4723	0.1175
319.6834	0.1163
319.8944	0.1226
320.1054	0.1176
320.3164	0.1118
320.5274	0.1143
320.7383	0.1119
320.9493	0.1164
321.1602	0.1119
321.3712	0.1183
321.5821	0.1274
321.793	0.1145
322.0039	0.1159
322.2148	0.1182
322.4257	0.1181
322.6365	0.1133
322.8474	0.1179
323.0582	0.115
323.269	0.1169
323.4798	0.111
323.6906	0.1172
323.9014	0.1116
324.1122	0.1148
324.3229	0.1238
324.5337	0.1205
324.7444	0.1196
324.9551	0.1161
325.1658	0.1213
325.3765	0.1186
325.5872	0.1255
325.7979	0.1196
326.0085	0.1202
326.2192	0.1123
326.4298	0.1211
326.6404	0.1245
326.851	0.1231
327.0616	0.1187
327.2722	0.1208
327.4828	0.1124
327.6933	0.1244
327.9039	0.1206
328.1144	0.1179
328.3249	0.1244
328.5354	0.1204
328.7459	0.125
328.9564	0.1251
329.1669	0.123
329.3773	0.1212
329.5878	0.1252
329.7982	0.1165
330.0086	0.1244
330.219	0.1308
330.4294	0.1288
330.6398	0.1289
330.8502	0.1268
331.0605	0.1218
331.2708	0.1227
331.4812	0.1201
331.6915	0.1242
331.9018	0.1227
332.1121	0.1269
332.3224	0.1242
332.5326	0.1228
332.7429	0.123
332.9531	0.1317
333.1633	0.1214
333.3735	0.1281
333.5837	0.1271
333.7939	0.1257
334.0041	0.1295
334.2143	0.1257
334.4244	0.1223
334.6346	0.1226
334.8447	0.1266
335.0548	0.1254
335.2649	0.125
335.475	0.1248
335.685	0.1303
335.8951	0.1303
336.1051	0.1326
336.3152	0.1271
336.5252	0.13
336.7352	0.1271
336.9452	0.1343
337.1552	0.1243
337.3652	0.1302
337.5751	0.1246
337.7851	0.1284
337.995	0.1291
338.2049	0.1311
338.4148	0.1301
338.6247	0.1322
338.8346	0.1292
339.0445	0.1314
339.2543	0.1322
339.4642	0.1332
339.674	0.1331
339.8838	0.1289
340.0936	0.1364
340.3034	0.1359
340.5132	0.131
340.7229	0.1347
340.9327	0.1445
341.1424	0.1354
341.3522	0.1406
341.5619	0.1415
341.7716	0.1368
341.9813	0.1421
342.1909	0.141
342.4006	0.1392
342.6102	0.1388
342.8199	0.1399
343.0295	0.1417
343.2391	0.1402
343.4487	0.1493
343.6583	0.1504
343.8679	0.1409
344.0774	0.139
344.287	0.1477
344.4965	0.1501
344.706	0.1421
344.9155	0.1406
345.125	0.155
345.3345	0.1481
345.544	0.1471
345.7534	0.1485
345.9629	0.1494
346.1723	0.1508
346.3817	0.1504
346.5911	0.1564
346.8005	0.1551
347.0099	0.152
347.2193	0.1513
347.4286	0.1563
347.638	0.1575
347.8473	0.155
348.0566	0.1589
348.2659	0.1578
348.4752	0.1549
348.6845	0.16
348.8937	0.1595
349.103	0.153
349.3122	0.1661
349.5214	0.1548
349.7306	0.159
349.9398	0.1613
350.149	0.1649
350.3582	0.1616
350.5674	0.163
350.7765	0.1688
350.9856	0.1625
351.1948	0.1595
351.4039	0.1672
351.613	0.1712
351.822	0.1633
352.0311	0.1633
352.2402	0.1704
352.4492	0.1643
352.6582	0.1699
352.8672	0.1728
353.0762	0.1759
353.2852	0.1727
353.4942	0.1718
353.7032	0.1694
353.9121	0.1731
354.1211	0.1766
354.33	0.1758
354.5389	0.1773
354.7478	0.1859
354.9567	0.1734
355.1655	0.1758
355.3744	0.1785
355.5833	0.1803
355.7921	0.1737
356.0009	0.1721
356.2097	0.1846
356.4185	0.1828
356.6273	0.1843
356.8361	0.1916
357.0448	0.1882
357.2536	0.1924
357.4623	0.1881
357.671	0.185
357.8797	0.194
358.0884	0.1895
358.2971	0.1957
358.5057	0.1876
358.7144	0.1938
358.923	0.1922
359.1316	0.1959
359.3402	0.1955
359.5488	0.1978
359.7574	0.1955
359.966	0.2012
360.1746	0.2062
360.3831	0.212
360.5916	0.2008
360.8002	0.2081
361.0087	0.2136
361.2172	0.2168
361.4256	0.2026
361.6341	0.2154
361.8426	0.2109
362.051	0.2151
362.2594	0.2074
362.4678	0.2203
362.6762	0.2164
362.8846	0.2175
363.093	0.2273
363.3014	0.2218
363.5097	0.2219
363.718	0.2237
363.9264	0.2267
364.1347	0.2282
364.343	0.2339
364.5513	0.2363
364.7595	0.2298
364.9678	0.2278
365.176	0.2283
365.3842	0.2411
365.5925	0.2264
365.8007	0.2315
366.0089	0.2271
366.217	0.2357
366.4252	0.2361
366.6333	0.2353
366.8415	0.2362
367.0496	0.2408
367.2577	0.2394
367.4658	0.2446
367.6739	0.2412
367.882	0.2475
368.09	0.245
368.2981	0.2395
368.5061	0.2499
368.7141	0.2438
368.9221	0.2525
369.1301	0.2589
369.3381	0.2563
369.5461	0.2584
369.754	0.2545
369.962	0.2528
370.1699	0.2541
370.3778	0.2527
370.5857	0.2622
370.7936	0.2619
371.0015	0.2486
371.2093	0.263
371.4172	0.2672
371.625	0.2662
371.8328	0.2604
372.0406	0.2593
372.2484	0.2563
372.4562	0.2645
372.664	0.2631
372.8717	0.2728
373.0795	0.2681
373.2872	0.2694
373.4949	0.2792
373.7026	0.2779
373.9103	0.2603
374.118	0.2696
374.3256	0.291
374.5333	0.2765
374.7409	0.2702
374.9485	0.2658
375.1561	0.2764
375.3637	0.2757
375.5713	0.2753
375.7789	0.2728
375.9864	0.278
376.194	0.2831
376.4015	0.2925
376.609	0.2894
376.8165	0.2833
377.024	0.2796
377.2315	0.2985
377.4389	0.2765
377.6464	0.2865
377.8538	0.285
378.0612	0.2837
378.2686	0.2923
378.476	0.2811
378.6834	0.2915
378.8908	0.3001
379.0981	0.2948
379.3055	0.3004
379.5128	0.2906
379.7201	0.2985
379.9274	0.2968
380.1347	0.2983
380.342	0.301
380.5492	0.2916
380.7565	0.2975
380.9637	0.2898
381.1709	0.2998
381.3781	0.2981
381.5853	0.3018
381.7925	0.3085
381.9997	0.3082
382.2068	0.2936
382.4139	0.2958
382.6211	0.3075
382.8282	0.299
383.0353	0.309
383.2424	0.3129
383.4494	0.309
383.6565	0.3115
383.8635	0.3153
384.0706	0.3101
384.2776	0.3105
384.4846	0.3204
384.6916	0.3102
384.8986	0.3191
385.1055	0.3221
385.3125	0.3082
385.5194	0.3046
385.7263	0.3046
385.9333	0.3103
386.1402	0.3056
386.347	0.3232
386.5539	0.3172
386.7608	0.3129
386.9676	0.3072
387.1744	0.3162
387.3813	0.3082
387.5881	0.3072
387.7948	0.316
388.0016	0.3081
388.2084	0.3072
388.4151	0.308
388.6219	0.302
388.8286	0.3117
389.0353	0.3021
389.242	0.3093
389.4487	0.3095
389.6553	0.3086
389.862	0.3144
390.0686	0.3125
390.2753	0.3043
390.4819	0.3089
390.6885	0.3064
390.8951	0.3066
391.1016	0.3076
391.3082	0.298
391.5147	0.3122
391.7213	0.2935
391.9278	0.2979
392.1343	0.304
392.3408	0.2833
392.5473	0.2972
392.7537	0.291
392.9602	0.2866
393.1666	0.294
393.373	0.2932
393.5794	0.2845
393.7858	0.284
393.9922	0.2826
394.1986	0.2825
394.4049	0.2789
394.6113	0.2883
394.8176	0.273
395.0239	0.2843
395.2302	0.2717
395.4365	0.2736
395.6428	0.2746
395.8491	0.2812
396.0553	0.2698
396.2615	0.2696
396.4678	0.2675
396.674	0.2785
396.8802	0.2745
397.0863	0.2652
397.2925	0.2768
397.4987	0.273
397.7048	0.2813
397.9109	0.266
398.117	0.2762
398.3231	0.2693
398.5292	0.2729
398.7353	0.2689
398.9413	0.2703
399.1474	0.2752
399.3534	0.27
399.5594	0.2616
399.7654	0.2785
399.9714	0.2585
400.1774	0.2665
400.3833	0.2708
400.5893	0.2667
400.7952	0.2717
401.0011	0.2615
401.207	0.2705
401.4129	0.2674
401.6188	0.2609
401.8247	0.273
402.0305	0.2658
402.2364	0.2699
402.4422	0.2589
402.648	0.2717
402.8538	0.2767
403.0596	0.2599
403.2654	0.2588
403.4711	0.257
403.6768	0.2717
403.8826	0.2658
404.0883	0.2658
404.294	0.2733
404.4997	0.266
404.7054	0.2636
404.911	0.2546
405.1167	0.2717
405.3223	0.2782
405.5279	0.2721
405.7335	0.2602
405.9391	0.2604
406.1447	0.2764
406.3502	0.2695
406.5558	0.265
406.7613	0.2666
406.9668	0.2663
407.1724	0.2667
407.3778	0.2641
407.5833	0.2684
407.7888	0.2665
407.9942	0.2645
408.1997	0.2734
408.4051	0.2643
408.6105	0.2776
408.8159	0.2664
409.0213	0.2709
409.2267	0.2646
409.432	0.2729
409.6374	0.2706
409.8427	0.2715
410.048	0.2633
410.2533	0.2607
410.4586	0.2686
410.6639	0.2605
410.8691	0.2722
411.0744	0.2557
411.2796	0.2683
411.4848	0.2602
411.69	0.2682
411.8952	0.2657
412.1004	0.2553
412.3056	0.258
412.5107	0.2725
412.7158	0.266
412.921	0.2573
413.1261	0.2721
413.3312	0.2649
413.5362	0.2632
413.7413	0.2705
413.9464	0.2554
414.1514	0.2689
414.3564	0.2532
414.5614	0.2619
414.7664	0.2662
414.9714	0.2662
415.1764	0.2605
415.3813	0.2463
415.5863	0.2591
415.7912	0.2695
415.9961	0.2617
416.201	0.2652
416.4059	0.2551
416.6108	0.2578
416.8156	0.2435
417.0205	0.2726
417.2253	0.2579
417.4301	0.2596
417.6349	0.2561
417.8397	0.2714
418.0445	0.254
418.2492	0.2682
418.454	0.2589
418.6587	0.2612
418.8634	0.2585
419.0681	0.2447
419.2728	0.2595
419.4775	0.2567
419.6822	0.2484
419.8868	0.2637
420.0915	0.2482
420.2961	0.239
420.5007	0.2496
420.7053	0.2525
420.9099	0.2373
421.1144	0.2476
421.319	0.2367
421.5235	0.2361
421.728	0.2445
421.9325	0.2439
422.137	0.2483
422.3415	0.233
422.546	0.2417
422.7504	0.242
422.9549	0.2386
423.1593	0.2442
423.3637	0.2317
423.5681	0.24
423.7725	0.2381
423.9769	0.2374
424.1812	0.2426
424.3856	0.2446
424.5899	0.2381
424.7942	0.2287
424.9985	0.2356
425.2028	0.2291
425.4071	0.2145
425.6113	0.2302
425.8156	0.2187
426.0198	0.226
426.224	0.232
426.4282	0.225
426.6324	0.2189
426.8366	0.2159
