Data from D4ACN5uM480nmA_Absorbance_12-08-01-705.txt Node
Date: Fri Feb 21 12:08:01 GMT 2025
User: LASERRRRR
Spectrometer: FLMT03099
Trigger mode: 0
Integration Time (sec): 1.500000E-2
Scans to average: 1
Electric dark correction enabled: true
Nonlinearity correction enabled: false
Boxcar width: 0
XAxis mode: Wavelengths
Number of Pixels in Spectrum: 3648
>>>>>Begin Spectral Data<<<<<
179.3399	-0.1838
179.5586	-0.1838
179.7771	-0.1838
179.9957	-0.0531
180.2143	-0.3921
180.4329	-0
180.6514	-0
180.8699	-0
181.0885	0.0253
181.307	-0
181.5255	0.7545
181.744	-0.7443
181.9625	-0.05
182.181	0.2142
182.3994	-0
182.6179	0.1931
182.8363	-0
183.0547	-0
183.2732	0.1849
183.4916	0.4064
183.71	0.0966
183.9284	0.1717
184.1467	-0.1292
184.3651	0.3181
184.5835	-0.0791
184.8018	0.2418
185.0201	0.2167
185.2385	0.0303
185.4568	0.1702
185.6751	0.3352
185.8934	0.573
186.1117	0.221
186.3299	0.1688
186.5482	0.0803
186.7664	0.5514
186.9847	0.351
187.2029	0.1744
187.4211	0.2286
187.6393	0.139
187.8575	0.4006
188.0757	0.4917
188.2939	0.1301
188.512	0.3049
188.7302	0.1128
188.9483	1.1004
189.1665	0.524
189.3846	0.5342
189.6027	0.0006
189.8208	0.5746
190.0389	0.3537
190.257	0.3312
190.475	0.1016
190.6931	0.1953
190.9111	0.5097
191.1292	0.441
191.3472	0.2647
191.5652	0.3706
191.7832	0.3862
192.0012	0.3356
192.2192	0.5151
192.4371	0.5368
192.6551	0.3999
192.873	0.3088
193.091	0.3031
193.3089	0.255
193.5268	0.3303
193.7447	0.4356
193.9626	0.3498
194.1805	0.5071
194.3984	0.2899
194.6162	0.6149
194.8341	0.5388
195.0519	0.5225
195.2697	0.7086
195.4875	0.5299
195.7054	0.4183
195.9231	0.4872
196.1409	0.479
196.3587	0.4929
196.5765	0.4726
196.7942	0.5976
197.012	0.4525
197.2297	0.4859
197.4474	0.6639
197.6651	0.614
197.8828	0.7923
198.1005	0.5687
198.3182	0.6133
198.5358	0.522
198.7535	0.4765
198.9711	0.5501
199.1888	0.5609
199.4064	0.6222
199.624	0.6137
199.8416	0.5915
200.0592	0.5571
200.2767	0.5629
200.4943	0.6694
200.7119	0.5727
200.9294	0.614
201.1469	0.6373
201.3645	0.5665
201.582	0.5854
201.7995	0.5342
202.017	0.5315
202.2344	0.5678
202.4519	0.6381
202.6694	0.5996
202.8868	0.573
203.1042	0.5339
203.3217	0.4897
203.5391	0.5572
203.7565	0.5229
203.9739	0.5162
204.1913	0.5141
204.4086	0.4924
204.626	0.5329
204.8433	0.5147
205.0607	0.4872
205.278	0.4882
205.4953	0.4841
205.7126	0.4506
205.9299	0.4711
206.1472	0.4664
206.3644	0.5038
206.5817	0.4883
206.7989	0.5132
207.0162	0.4444
207.2334	0.4611
207.4506	0.4171
207.6678	0.4397
207.885	0.4753
208.1022	0.4396
208.3194	0.46
208.5365	0.4462
208.7537	0.4506
208.9708	0.4529
209.1879	0.4362
209.405	0.4271
209.6222	0.3969
209.8392	0.4288
210.0563	0.4401
210.2734	0.4012
210.4905	0.406
210.7075	0.435
210.9245	0.4022
211.1416	0.4196
211.3586	0.4184
211.5756	0.4131
211.7926	0.4333
212.0096	0.384
212.2265	0.3967
212.4435	0.4051
212.6604	0.4019
212.8774	0.4036
213.0943	0.4179
213.3112	0.4115
213.5281	0.4457
213.745	0.3997
213.9619	0.4075
214.1788	0.4154
214.3956	0.4163
214.6125	0.4107
214.8293	0.4135
215.0461	0.4083
215.2629	0.4036
215.4798	0.3915
215.6965	0.3825
215.9133	0.3997
216.1301	0.4163
216.3469	0.4197
216.5636	0.3814
216.7803	0.4229
216.9971	0.4228
217.2138	0.3893
217.4305	0.4249
217.6472	0.4477
217.8639	0.4125
218.0805	0.4217
218.2972	0.4231
218.5138	0.4195
218.7305	0.4056
218.9471	0.4074
219.1637	0.4194
219.3803	0.4143
219.5969	0.4115
219.8135	0.4183
220.0301	0.4044
220.2466	0.4157
220.4632	0.4082
220.6797	0.4455
220.8962	0.4406
221.1127	0.425
221.3292	0.4286
221.5457	0.4433
221.7622	0.4234
221.9787	0.4301
222.1951	0.4377
222.4116	0.4419
222.628	0.4369
222.8444	0.463
223.0608	0.4379
223.2772	0.4314
223.4936	0.4471
223.71	0.451
223.9264	0.4435
224.1427	0.4608
224.3591	0.4522
224.5754	0.4635
224.7917	0.472
225.008	0.4635
225.2243	0.465
225.4406	0.4665
225.6569	0.4693
225.8732	0.4831
226.0894	0.4714
226.3057	0.4646
226.5219	0.4722
226.7381	0.4602
226.9543	0.4698
227.1705	0.4721
227.3867	0.4905
227.6029	0.481
227.8191	0.4871
228.0352	0.4979
228.2513	0.4963
228.4675	0.4795
228.6836	0.4965
228.8997	0.4966
229.1158	0.496
229.3319	0.5091
229.548	0.4905
229.764	0.5059
229.9801	0.5168
230.1961	0.5174
230.4121	0.5156
230.6282	0.5066
230.8442	0.5126
231.0602	0.5173
231.2761	0.5245
231.4921	0.5189
231.7081	0.5108
231.924	0.523
232.14	0.5271
232.3559	0.5262
232.5718	0.5322
232.7877	0.526
233.0036	0.5141
233.2195	0.5352
233.4353	0.5297
233.6512	0.5361
233.867	0.5448
234.0829	0.5256
234.2987	0.531
234.5145	0.5384
234.7303	0.5322
234.9461	0.5335
235.1619	0.5428
235.3776	0.5384
235.5934	0.534
235.8091	0.5199
236.0249	0.528
236.2406	0.5479
236.4563	0.5473
236.672	0.543
236.8877	0.5461
237.1034	0.5384
237.319	0.5392
237.5347	0.5306
237.7503	0.536
237.966	0.5488
238.1816	0.5313
238.3972	0.5391
238.6128	0.541
238.8284	0.543
239.0439	0.5452
239.2595	0.529
239.475	0.5293
239.6906	0.5253
239.9061	0.5317
240.1216	0.5383
240.3371	0.5218
240.5526	0.515
240.7681	0.5227
240.9836	0.5249
241.199	0.5148
241.4145	0.4986
241.6299	0.4969
241.8453	0.4984
242.0607	0.4936
242.2761	0.479
242.4915	0.4728
242.7069	0.4607
242.9223	0.4666
243.1376	0.4486
243.353	0.4557
243.5683	0.4439
243.7836	0.4204
243.9989	0.4133
244.2142	0.4086
244.4295	0.412
244.6448	0.401
244.86	0.3896
245.0753	0.381
245.2905	0.3747
245.5057	0.3666
245.721	0.3605
245.9362	0.359
246.1514	0.3341
246.3665	0.3473
246.5817	0.3307
246.7969	0.3257
247.012	0.3168
247.2271	0.3088
247.4423	0.3055
247.6574	0.3104
247.8725	0.2974
248.0876	0.2911
248.3026	0.2868
248.5177	0.2851
248.7328	0.286
248.9478	0.2734
249.1628	0.2689
249.3779	0.2706
249.5929	0.2536
249.8079	0.2578
250.0228	0.2486
250.2378	0.2524
250.4528	0.2483
250.6677	0.2431
250.8827	0.2453
251.0976	0.2378
251.3125	0.2359
251.5274	0.2357
251.7423	0.231
251.9572	0.2228
252.172	0.2173
252.3869	0.2146
252.6017	0.2164
252.8166	0.2089
253.0314	0.2172
253.2462	0.2148
253.461	0.2104
253.6758	0.2112
253.8906	0.2074
254.1053	0.2048
254.3201	0.2037
254.5348	0.2031
254.7496	0.2008
254.9643	0.2087
255.179	0.2034
255.3937	0.2025
255.6083	0.1987
255.823	0.1947
256.0377	0.2006
256.2523	0.2002
256.467	0.2003
256.6816	0.1994
256.8962	0.193
257.1108	0.1947
257.3254	0.1937
257.54	0.1912
257.7545	0.1969
257.9691	0.1909
258.1836	0.1882
258.3981	0.1896
258.6127	0.1893
258.8272	0.1855
259.0417	0.1876
259.2561	0.1867
259.4706	0.1886
259.6851	0.1883
259.8995	0.1853
260.114	0.1796
260.3284	0.1856
260.5428	0.1824
260.7572	0.1911
260.9716	0.1875
261.186	0.1836
261.4003	0.1842
261.6147	0.1838
261.829	0.186
262.0433	0.1834
262.2577	0.1913
262.472	0.1845
262.6863	0.1857
262.9005	0.1843
263.1148	0.1822
263.3291	0.1861
263.5433	0.1842
263.7576	0.1837
263.9718	0.1916
264.186	0.1882
264.4002	0.1851
264.6144	0.1886
264.8286	0.1852
265.0427	0.1879
265.2569	0.1894
265.471	0.1884
265.6851	0.1856
265.8993	0.185
266.1134	0.1876
266.3275	0.188
266.5415	0.1833
266.7556	0.178
266.9697	0.1863
267.1837	0.1794
267.3978	0.192
267.6118	0.1886
267.8258	0.1865
268.0398	0.1861
268.2538	0.1784
268.4677	0.1791
268.6817	0.1706
268.8957	0.1842
269.1096	0.1753
269.3235	0.1827
269.5374	0.179
269.7514	0.186
269.9652	0.1795
270.1791	0.1817
270.393	0.1846
270.6068	0.1672
270.8207	0.1751
271.0345	0.1771
271.2483	0.1778
271.4622	0.1776
271.676	0.1755
271.8897	0.1732
272.1035	0.1752
272.3173	0.1734
272.531	0.1703
272.7448	0.1728
272.9585	0.1789
273.1722	0.1765
273.3859	0.1695
273.5996	0.1703
273.8133	0.1684
274.0269	0.1797
274.2406	0.1693
274.4542	0.1712
274.6679	0.1685
274.8815	0.1724
275.0951	0.1713
275.3087	0.1815
275.5223	0.1699
275.7358	0.1797
275.9494	0.1741
276.1629	0.1807
276.3765	0.1741
276.59	0.1731
276.8035	0.1747
277.017	0.1764
277.2305	0.1769
277.444	0.1747
277.6574	0.1771
277.8709	0.1801
278.0843	0.1766
278.2978	0.1778
278.5112	0.1824
278.7246	0.1761
278.938	0.178
279.1513	0.179
279.3647	0.1766
279.5781	0.178
279.7914	0.1801
280.0047	0.174
280.2181	0.1834
280.4314	0.1777
280.6447	0.1839
280.8579	0.1754
281.0712	0.1839
281.2845	0.1821
281.4977	0.1923
281.711	0.1865
281.9242	0.1855
282.1374	0.1839
282.3506	0.1865
282.5638	0.1871
282.7769	0.1854
282.9901	0.1874
283.2033	0.1866
283.4164	0.1826
283.6295	0.1825
283.8426	0.189
284.0557	0.1846
284.2688	0.1912
284.4819	0.1919
284.695	0.1936
284.908	0.1901
285.1211	0.1915
285.3341	0.1926
285.5471	0.1985
285.7601	0.1929
285.9731	0.1921
286.1861	0.1921
286.3991	0.1991
286.612	0.1936
286.825	0.1916
287.0379	0.1998
287.2508	0.196
287.4637	0.1963
287.6766	0.1937
287.8895	0.1884
288.1024	0.195
288.3152	0.1937
288.5281	0.1994
288.7409	0.1959
288.9538	0.1977
289.1666	0.1975
289.3794	0.202
289.5922	0.1962
289.8049	0.2013
290.0177	0.1958
290.2304	0.1986
290.4432	0.1994
290.6559	0.1882
290.8686	0.2008
291.0813	0.2037
291.294	0.2035
291.5067	0.2016
291.7194	0.196
291.932	0.1978
292.1447	0.1976
292.3573	0.1987
292.5699	0.2052
292.7825	0.1944
292.9951	0.1976
293.2077	0.1995
293.4203	0.2014
293.6328	0.1981
293.8454	0.2014
294.0579	0.2038
294.2704	0.204
294.4829	0.2034
294.6954	0.1982
294.9079	0.1986
295.1204	0.1997
295.3328	0.1973
295.5453	0.1977
295.7577	0.1946
295.9701	0.203
296.1825	0.2031
296.3949	0.2013
296.6073	0.2018
296.8197	0.1968
297.0321	0.1984
297.2444	0.2014
297.4567	0.1926
297.6691	0.198
297.8814	0.1979
298.0937	0.2033
298.306	0.1995
298.5182	0.2065
298.7305	0.1977
298.9428	0.1973
299.155	0.1931
299.3672	0.198
299.5794	0.1944
299.7916	0.2062
300.0038	0.1974
300.216	0.2014
300.4282	0.1989
300.6403	0.1998
300.8525	0.2009
301.0646	0.1966
301.2767	0.1928
301.4888	0.1966
301.7009	0.1961
301.913	0.2042
302.125	0.2002
302.3371	0.1919
302.5491	0.1993
302.7612	0.1937
302.9732	0.1964
303.1852	0.1994
303.3972	0.1951
303.6092	0.1883
303.8211	0.1876
304.0331	0.1858
304.245	0.1922
304.457	0.1959
304.6689	0.1934
304.8808	0.1938
305.0927	0.1948
305.3046	0.1909
305.5164	0.1844
305.7283	0.1916
305.9401	0.183
306.152	0.18
306.3638	0.1792
306.5756	0.181
306.7874	0.1789
306.9992	0.1806
307.2109	0.1733
307.4227	0.1674
307.6344	0.1788
307.8462	0.1652
308.0579	0.1654
308.2696	0.1647
308.4813	0.1568
308.693	0.1608
308.9046	0.1616
309.1163	0.161
309.328	0.1567
309.5396	0.1588
309.7512	0.1582
309.9628	0.1608
310.1744	0.1549
310.386	0.1453
310.5976	0.1478
310.8091	0.1453
311.0207	0.1448
311.2322	0.1499
311.4437	0.1427
311.6552	0.1461
311.8667	0.1381
312.0782	0.1444
312.2897	0.1385
312.5012	0.1393
312.7126	0.1303
312.924	0.1351
313.1355	0.1339
313.3469	0.1356
313.5583	0.1258
313.7696	0.1313
313.981	0.1316
314.1924	0.1299
314.4037	0.125
314.6151	0.1342
314.8264	0.1284
315.0377	0.128
315.249	0.1241
315.4603	0.1182
315.6716	0.1282
315.8828	0.1198
316.0941	0.1217
316.3053	0.1199
316.5165	0.1141
316.7277	0.1245
316.9389	0.119
317.1501	0.1209
317.3613	0.1142
317.5724	0.1192
317.7836	0.1181
317.9947	0.1144
318.2058	0.1135
318.417	0.1183
318.6281	0.1208
318.8391	0.1173
319.0502	0.1151
319.2613	0.1184
319.4723	0.1167
319.6834	0.1241
319.8944	0.1205
320.1054	0.1176
320.3164	0.1175
320.5274	0.1146
320.7383	0.1173
320.9493	0.1182
321.1602	0.1149
321.3712	0.1176
321.5821	0.1148
321.793	0.1173
322.0039	0.117
322.2148	0.1179
322.4257	0.1203
322.6365	0.119
322.8474	0.1204
323.0582	0.1162
323.269	0.1136
323.4798	0.1205
323.6906	0.1205
323.9014	0.1143
324.1122	0.1151
324.3229	0.1223
324.5337	0.1194
324.7444	0.1169
324.9551	0.1224
325.1658	0.1208
325.3765	0.1191
325.5872	0.1173
325.7979	0.1206
326.0085	0.1174
326.2192	0.1176
326.4298	0.1214
326.6404	0.1233
326.851	0.12
327.0616	0.1219
327.2722	0.1248
327.4828	0.1162
327.6933	0.1222
327.9039	0.1248
328.1144	0.1183
328.3249	0.1231
328.5354	0.1248
328.7459	0.1291
328.9564	0.1286
329.1669	0.1215
329.3773	0.1189
329.5878	0.1247
329.7982	0.1251
330.0086	0.1232
330.219	0.1288
330.4294	0.1258
330.6398	0.1313
330.8502	0.1278
331.0605	0.1257
331.2708	0.1211
331.4812	0.1234
331.6915	0.1208
331.9018	0.1233
332.1121	0.1292
332.3224	0.127
332.5326	0.1306
332.7429	0.1295
332.9531	0.1296
333.1633	0.1303
333.3735	0.1244
333.5837	0.1318
333.7939	0.1242
334.0041	0.1288
334.2143	0.1268
334.4244	0.1213
334.6346	0.1292
334.8447	0.1296
335.0548	0.1283
335.2649	0.1232
335.475	0.1254
335.685	0.1319
335.8951	0.1408
336.1051	0.1232
336.3152	0.1272
336.5252	0.129
336.7352	0.122
336.9452	0.1357
337.1552	0.1269
337.3652	0.1248
337.5751	0.126
337.7851	0.1285
337.995	0.1327
338.2049	0.1354
338.4148	0.1254
338.6247	0.133
338.8346	0.1257
339.0445	0.1298
339.2543	0.1322
339.4642	0.1394
339.674	0.1358
339.8838	0.133
340.0936	0.1349
340.3034	0.1317
340.5132	0.1348
340.7229	0.1409
340.9327	0.1356
341.1424	0.1421
341.3522	0.1432
341.5619	0.1357
341.7716	0.1384
341.9813	0.1512
342.1909	0.1444
342.4006	0.1419
342.6102	0.1418
342.8199	0.1422
343.0295	0.1428
343.2391	0.1414
343.4487	0.1406
343.6583	0.1485
343.8679	0.1411
344.0774	0.1477
344.287	0.1445
344.4965	0.1493
344.706	0.145
344.9155	0.1485
345.125	0.1538
345.3345	0.1468
345.544	0.1566
345.7534	0.1476
345.9629	0.1545
346.1723	0.1448
346.3817	0.1525
346.5911	0.1553
346.8005	0.1515
347.0099	0.1535
347.2193	0.1503
347.4286	0.1535
347.638	0.1526
347.8473	0.1545
348.0566	0.159
348.2659	0.1624
348.4752	0.1508
348.6845	0.1614
348.8937	0.1617
349.103	0.1546
349.3122	0.1619
349.5214	0.1552
349.7306	0.1608
349.9398	0.166
350.149	0.1668
350.3582	0.161
350.5674	0.1642
350.7765	0.1642
350.9856	0.1648
351.1948	0.1632
351.4039	0.1718
351.613	0.1748
351.822	0.1703
352.0311	0.1643
352.2402	0.1711
352.4492	0.1721
352.6582	0.1666
352.8672	0.167
353.0762	0.1751
353.2852	0.1736
353.4942	0.1767
353.7032	0.1705
353.9121	0.1728
354.1211	0.1732
354.33	0.1741
354.5389	0.1751
354.7478	0.1768
354.9567	0.1815
355.1655	0.1799
355.3744	0.1764
355.5833	0.1846
355.7921	0.1828
356.0009	0.1813
356.2097	0.1847
356.4185	0.1885
356.6273	0.1776
356.8361	0.1922
357.0448	0.1839
357.2536	0.1906
357.4623	0.1901
357.671	0.1776
357.8797	0.1903
358.0884	0.1941
358.2971	0.1905
358.5057	0.1888
358.7144	0.2008
358.923	0.1904
359.1316	0.1978
359.3402	0.1964
359.5488	0.2016
359.7574	0.2069
359.966	0.2008
360.1746	0.1977
360.3831	0.2027
360.5916	0.1968
360.8002	0.2166
361.0087	0.2169
361.2172	0.2069
361.4256	0.2109
361.6341	0.214
361.8426	0.2059
362.051	0.2102
362.2594	0.209
362.4678	0.2178
362.6762	0.2254
362.8846	0.219
363.093	0.2151
363.3014	0.2219
363.5097	0.213
363.718	0.2242
363.9264	0.225
364.1347	0.2248
364.343	0.2278
364.5513	0.2263
364.7595	0.2283
364.9678	0.2327
365.176	0.2349
365.3842	0.2336
365.5925	0.225
365.8007	0.2376
366.0089	0.2295
366.217	0.2351
366.4252	0.2407
366.6333	0.2403
366.8415	0.2405
367.0496	0.24
367.2577	0.2446
367.4658	0.2425
367.6739	0.2487
367.882	0.2465
368.09	0.2531
368.2981	0.2399
368.5061	0.2475
368.7141	0.2507
368.9221	0.2499
369.1301	0.2531
369.3381	0.2608
369.5461	0.2495
369.754	0.2494
369.962	0.2594
370.1699	0.2638
370.3778	0.2536
370.5857	0.2543
370.7936	0.2637
371.0015	0.2488
371.2093	0.2633
371.4172	0.2661
371.625	0.2677
371.8328	0.2662
372.0406	0.262
372.2484	0.2607
372.4562	0.2662
372.664	0.2678
372.8717	0.2657
373.0795	0.2694
373.2872	0.2691
373.4949	0.2826
373.7026	0.2671
373.9103	0.2617
374.118	0.2706
374.3256	0.2809
374.5333	0.2784
374.7409	0.2762
374.9485	0.2713
375.1561	0.2822
375.3637	0.277
375.5713	0.2721
375.7789	0.2722
375.9864	0.2804
376.194	0.2816
376.4015	0.2881
376.609	0.2929
376.8165	0.2825
377.024	0.2904
377.2315	0.2859
377.4389	0.2813
377.6464	0.2894
377.8538	0.2944
378.0612	0.2805
378.2686	0.2926
378.476	0.2946
378.6834	0.2835
378.8908	0.2977
379.0981	0.2914
379.3055	0.2982
379.5128	0.2961
379.7201	0.2972
379.9274	0.288
380.1347	0.3041
380.342	0.3038
380.5492	0.293
380.7565	0.3009
380.9637	0.2971
381.1709	0.2979
381.3781	0.3153
381.5853	0.2985
381.7925	0.3024
381.9997	0.3007
382.2068	0.2991
382.4139	0.304
382.6211	0.3112
382.8282	0.3133
383.0353	0.3064
383.2424	0.3107
383.4494	0.3196
383.6565	0.3088
383.8635	0.3233
384.0706	0.3093
384.2776	0.3151
384.4846	0.3124
384.6916	0.3165
384.8986	0.3176
385.1055	0.3255
385.3125	0.3185
385.5194	0.3084
385.7263	0.3107
385.9333	0.3039
386.1402	0.3223
386.347	0.3109
386.5539	0.3136
386.7608	0.3129
386.9676	0.3112
387.1744	0.3104
387.3813	0.3064
387.5881	0.3181
387.7948	0.3158
388.0016	0.3157
388.2084	0.3122
388.4151	0.3104
388.6219	0.3145
388.8286	0.3099
389.0353	0.2944
389.242	0.3139
389.4487	0.3119
389.6553	0.3095
389.862	0.3039
390.0686	0.3079
390.2753	0.3141
390.4819	0.3101
390.6885	0.2974
390.8951	0.3105
391.1016	0.3128
391.3082	0.2927
391.5147	0.3128
391.7213	0.3028
391.9278	0.2947
392.1343	0.3007
392.3408	0.2937
392.5473	0.3009
392.7537	0.2963
392.9602	0.2776
393.1666	0.2888
393.373	0.293
393.5794	0.2842
393.7858	0.301
393.9922	0.2837
394.1986	0.2871
394.4049	0.2777
394.6113	0.2848
394.8176	0.2784
395.0239	0.2811
395.2302	0.2669
395.4365	0.2757
395.6428	0.2824
395.8491	0.2779
396.0553	0.272
396.2615	0.2755
396.4678	0.2792
396.674	0.268
396.8802	0.2665
397.0863	0.2701
397.2925	0.2664
397.4987	0.2675
397.7048	0.2825
397.9109	0.2803
398.117	0.2667
398.3231	0.2714
398.5292	0.2703
398.7353	0.2657
398.9413	0.2674
399.1474	0.274
399.3534	0.2797
399.5594	0.2709
399.7654	0.2741
399.9714	0.2683
400.1774	0.2588
400.3833	0.2686
400.5893	0.2594
400.7952	0.2681
401.0011	0.2551
401.207	0.2669
401.4129	0.2695
401.6188	0.2666
401.8247	0.267
402.0305	0.2563
402.2364	0.2632
402.4422	0.27
402.648	0.2802
402.8538	0.2749
403.0596	0.2649
403.2654	0.2636
403.4711	0.2696
403.6768	0.2656
403.8826	0.2657
404.0883	0.263
404.294	0.2668
404.4997	0.2624
404.7054	0.2645
404.911	0.26
405.1167	0.2658
405.3223	0.2759
405.5279	0.277
405.7335	0.2715
405.9391	0.2761
406.1447	0.2695
406.3502	0.2763
406.5558	0.2692
406.7613	0.2648
406.9668	0.2648
407.1724	0.2692
407.3778	0.276
407.5833	0.269
407.7888	0.2774
407.9942	0.267
408.1997	0.2731
408.4051	0.2537
408.6105	0.275
408.8159	0.2629
409.0213	0.266
409.2267	0.2655
409.432	0.286
409.6374	0.2823
409.8427	0.2626
410.048	0.2644
410.2533	0.2576
410.4586	0.2742
410.6639	0.2608
410.8691	0.2797
411.0744	0.2669
411.2796	0.2651
411.4848	0.2548
411.69	0.2572
411.8952	0.26
412.1004	0.2628
412.3056	0.2579
412.5107	0.2762
412.7158	0.2638
412.921	0.2606
413.1261	0.2698
413.3312	0.2596
413.5362	0.2643
413.7413	0.2646
413.9464	0.2557
414.1514	0.2581
414.3564	0.2669
414.5614	0.2631
414.7664	0.2671
414.9714	0.2657
415.1764	0.2508
415.3813	0.2476
415.5863	0.2622
415.7912	0.2638
415.9961	0.259
416.201	0.2657
416.4059	0.2653
416.6108	0.26
416.8156	0.246
417.0205	0.2659
417.2253	0.2633
417.4301	0.2672
417.6349	0.2617
417.8397	0.261
418.0445	0.2632
418.2492	0.2613
418.454	0.2612
418.6587	0.2572
418.8634	0.2571
419.0681	0.2584
419.2728	0.2537
419.4775	0.2522
419.6822	0.2456
419.8868	0.2518
420.0915	0.259
420.2961	0.2567
420.5007	0.2532
420.7053	0.2667
420.9099	0.242
421.1144	0.2354
421.319	0.2479
421.5235	0.248
421.728	0.2303
421.9325	0.2432
422.137	0.2468
422.3415	0.2471
422.546	0.2388
422.7504	0.2463
422.9549	0.2453
423.1593	0.2399
423.3637	0.2347
423.5681	0.2397
423.7725	0.2343
423.9769	0.2246
424.1812	0.2341
424.3856	0.2308
424.5899	0.2391
424.7942	0.2269
424.9985	0.231
425.2028	0.2332
425.4071	0.2261
425.6113	0.2251
425.8156	0.2284
426.0198	0.2229
426.224	0.238
426.4282	0.2214
426.6324	0.2251
426.8366	0.2295
427.0407	0.22
