Data from D4ACN5uM480nmA_Absorbance_12-08-02-020.txt Node
Date: Fri Feb 21 12:08:02 GMT 2025
User: LASERRRRR
Spectrometer: FLMT03099
Trigger mode: 0
Integration Time (sec): 1.500000E-2
Scans to average: 1
Electric dark correction enabled: true
Nonlinearity correction enabled: false
Boxcar width: 0
XAxis mode: Wavelengths
Number of Pixels in Spectrum: 3648
>>>>>Begin Spectral Data<<<<<
179.3399	0.027
179.5586	0.027
179.7771	0.027
179.9957	0.1815
180.2143	-0
180.4329	-0
180.6514	-0
180.8699	-0
181.0885	-0
181.307	0.4748
181.5255	-0.1782
181.744	-0
181.9625	-0.2468
182.181	0.7415
182.3994	-0
182.6179	-0
182.8363	-0
183.0547	-0
183.2732	0.2245
183.4916	0.446
183.71	0.1559
183.9284	0.1113
184.1467	0.8199
184.3651	0.382
184.5835	0.1382
184.8018	0.1491
185.0201	0.339
185.2385	0.1833
185.4568	0.2118
185.6751	0.1376
185.8934	0.2877
186.1117	0.0448
186.3299	0.1484
186.5482	0.0974
186.7664	0.4274
186.9847	0.2538
187.2029	0.0168
187.4211	0.162
187.6393	0.2747
187.8575	0.0726
188.0757	-0
188.2939	0.2576
188.512	0.1529
188.7302	0.0726
188.9483	0.0333
189.1665	0.7538
189.3846	0.291
189.6027	0.0557
189.8208	0.1364
190.0389	0.1879
190.257	0.1612
190.475	0.4101
190.6931	0.1738
190.9111	0.4865
191.1292	0.2899
191.3472	0.3875
191.5652	0.4572
191.7832	0.2851
192.0012	0.383
192.2192	0.1994
192.4371	0.3375
192.6551	0.2314
192.873	0.3301
193.091	0.3943
193.3089	0.0504
193.5268	0.4337
193.7447	0.4108
193.9626	0.6687
194.1805	0.5144
194.3984	0.5454
194.6162	0.3685
194.8341	0.6669
195.0519	0.5499
195.2697	0.5689
195.4875	0.5666
195.7054	0.5159
195.9231	0.4025
196.1409	0.6101
196.3587	0.5999
196.5765	0.4656
196.7942	0.5339
197.012	0.6043
197.2297	0.5092
197.4474	0.8172
197.6651	0.5742
197.8828	0.653
198.1005	0.6347
198.3182	0.6927
198.5358	0.5364
198.7535	0.6439
198.9711	0.5613
199.1888	0.6624
199.4064	0.64
199.624	0.6995
199.8416	0.5983
200.0592	0.5919
200.2767	0.5868
200.4943	0.6167
200.7119	0.5818
200.9294	0.6338
201.1469	0.6239
201.3645	0.7119
201.582	0.5319
201.7995	0.6315
202.017	0.6306
202.2344	0.5299
202.4519	0.5991
202.6694	0.5907
202.8868	0.5982
203.1042	0.5075
203.3217	0.5061
203.5391	0.5427
203.7565	0.5556
203.9739	0.5354
204.1913	0.5021
204.4086	0.5139
204.626	0.5771
204.8433	0.4909
205.0607	0.5451
205.278	0.4886
205.4953	0.4575
205.7126	0.479
205.9299	0.4523
206.1472	0.4764
206.3644	0.4609
206.5817	0.4509
206.7989	0.4804
207.0162	0.4359
207.2334	0.4461
207.4506	0.4415
207.6678	0.4845
207.885	0.438
208.1022	0.4624
208.3194	0.4402
208.5365	0.43
208.7537	0.4502
208.9708	0.4815
209.1879	0.4285
209.405	0.4317
209.6222	0.424
209.8392	0.4119
210.0563	0.4354
210.2734	0.4262
210.4905	0.4144
210.7075	0.4243
210.9245	0.4347
211.1416	0.4031
211.3586	0.4168
211.5756	0.4265
211.7926	0.423
212.0096	0.432
212.2265	0.4093
212.4435	0.4273
212.6604	0.4203
212.8774	0.4221
213.0943	0.4147
213.3112	0.396
213.5281	0.4177
213.745	0.3949
213.9619	0.3966
214.1788	0.4031
214.3956	0.4252
214.6125	0.4037
214.8293	0.4085
215.0461	0.4043
215.2629	0.4023
215.4798	0.3848
215.6965	0.3749
215.9133	0.4026
216.1301	0.3975
216.3469	0.4016
216.5636	0.4161
216.7803	0.4368
216.9971	0.4203
217.2138	0.4056
217.4305	0.435
217.6472	0.4313
217.8639	0.4096
218.0805	0.4073
218.2972	0.4233
218.5138	0.435
218.7305	0.4227
218.9471	0.4095
219.1637	0.421
219.3803	0.4161
219.5969	0.4338
219.8135	0.4236
220.0301	0.4348
220.2466	0.4322
220.4632	0.4243
220.6797	0.4412
220.8962	0.4454
221.1127	0.4124
221.3292	0.4514
221.5457	0.4636
221.7622	0.4197
221.9787	0.4445
222.1951	0.4388
222.4116	0.4351
222.628	0.4572
222.8444	0.437
223.0608	0.4307
223.2772	0.4584
223.4936	0.4344
223.71	0.4474
223.9264	0.4454
224.1427	0.4684
224.3591	0.4651
224.5754	0.4511
224.7917	0.4619
225.008	0.463
225.2243	0.4657
225.4406	0.4712
225.6569	0.4693
225.8732	0.4664
226.0894	0.482
226.3057	0.4603
226.5219	0.4746
226.7381	0.4735
226.9543	0.4752
227.1705	0.4647
227.3867	0.4835
227.6029	0.4832
227.8191	0.4691
228.0352	0.5065
228.2513	0.4947
228.4675	0.4994
228.6836	0.4994
228.8997	0.4946
229.1158	0.4901
229.3319	0.5153
229.548	0.4975
229.764	0.5107
229.9801	0.5199
230.1961	0.5061
230.4121	0.4967
230.6282	0.5245
230.8442	0.4985
231.0602	0.5381
231.2761	0.5093
231.4921	0.5213
231.7081	0.5216
231.924	0.5084
232.14	0.5183
232.3559	0.5391
232.5718	0.531
232.7877	0.5252
233.0036	0.5126
233.2195	0.5268
233.4353	0.5432
233.6512	0.5307
233.867	0.5335
234.0829	0.5407
234.2987	0.5198
234.5145	0.5396
234.7303	0.5437
234.9461	0.5418
235.1619	0.5431
235.3776	0.5341
235.5934	0.5345
235.8091	0.5285
236.0249	0.5335
236.2406	0.5397
236.4563	0.5399
236.672	0.5447
236.8877	0.5313
237.1034	0.5272
237.319	0.5356
237.5347	0.5229
237.7503	0.5361
237.966	0.5505
238.1816	0.523
238.3972	0.5407
238.6128	0.5483
238.8284	0.5291
239.0439	0.5414
239.2595	0.5307
239.475	0.5344
239.6906	0.532
239.9061	0.5227
240.1216	0.539
240.3371	0.5147
240.5526	0.5256
240.7681	0.5304
240.9836	0.5158
241.199	0.5151
241.4145	0.5058
241.6299	0.4981
241.8453	0.4864
242.0607	0.4829
242.2761	0.4797
242.4915	0.4712
242.7069	0.4742
242.9223	0.4624
243.1376	0.4563
243.353	0.4464
243.5683	0.4415
243.7836	0.4195
243.9989	0.4168
244.2142	0.4091
244.4295	0.4118
244.6448	0.3995
244.86	0.3945
245.0753	0.3789
245.2905	0.374
245.5057	0.3683
245.721	0.3606
245.9362	0.3485
246.1514	0.3429
246.3665	0.3435
246.5817	0.3332
246.7969	0.3287
247.012	0.3246
247.2271	0.3121
247.4423	0.3035
247.6574	0.3141
247.8725	0.3019
248.0876	0.2915
248.3026	0.292
248.5177	0.2771
248.7328	0.2809
248.9478	0.2734
249.1628	0.264
249.3779	0.2725
249.5929	0.2616
249.8079	0.2582
250.0228	0.259
250.2378	0.2559
250.4528	0.2507
250.6677	0.2428
250.8827	0.2344
251.0976	0.2419
251.3125	0.2309
251.5274	0.2301
251.7423	0.2258
251.9572	0.2271
252.172	0.2171
252.3869	0.2192
252.6017	0.2135
252.8166	0.2123
253.0314	0.2172
253.2462	0.2182
253.461	0.2111
253.6758	0.2095
253.8906	0.2078
254.1053	0.2082
254.3201	0.2025
254.5348	0.205
254.7496	0.1973
254.9643	0.21
255.179	0.201
255.3937	0.1942
255.6083	0.1992
255.823	0.1998
256.0377	0.2006
256.2523	0.1987
256.467	0.1989
256.6816	0.2047
256.8962	0.191
257.1108	0.1858
257.3254	0.1946
257.54	0.1979
257.7545	0.1944
257.9691	0.1901
258.1836	0.195
258.3981	0.1913
258.6127	0.1876
258.8272	0.1888
259.0417	0.1832
259.2561	0.1884
259.4706	0.1868
259.6851	0.183
259.8995	0.1766
260.114	0.1845
260.3284	0.1855
260.5428	0.1831
260.7572	0.1853
260.9716	0.187
261.186	0.1805
261.4003	0.1857
261.6147	0.1837
261.829	0.1778
262.0433	0.1802
262.2577	0.1871
262.472	0.1868
262.6863	0.1847
262.9005	0.1854
263.1148	0.1788
263.3291	0.1878
263.5433	0.1862
263.7576	0.1839
263.9718	0.1909
264.186	0.1877
264.4002	0.1731
264.6144	0.195
264.8286	0.1889
265.0427	0.1965
265.2569	0.1879
265.471	0.1824
265.6851	0.1767
265.8993	0.1887
266.1134	0.1867
266.3275	0.1868
266.5415	0.1836
266.7556	0.1781
266.9697	0.1858
267.1837	0.1874
267.3978	0.1927
267.6118	0.1854
267.8258	0.1819
268.0398	0.1849
268.2538	0.1901
268.4677	0.1783
268.6817	0.1785
268.8957	0.1877
269.1096	0.1747
269.3235	0.1853
269.5374	0.1773
269.7514	0.1792
269.9652	0.1798
270.1791	0.1819
270.393	0.185
270.6068	0.17
270.8207	0.1783
271.0345	0.1784
271.2483	0.177
271.4622	0.1771
271.676	0.1775
271.8897	0.1664
272.1035	0.1696
272.3173	0.1717
272.531	0.1777
272.7448	0.1723
272.9585	0.1718
273.1722	0.1755
273.3859	0.1738
273.5996	0.1754
273.8133	0.1694
274.0269	0.1767
274.2406	0.1746
274.4542	0.1687
274.6679	0.1725
274.8815	0.1753
275.0951	0.1796
275.3087	0.1766
275.5223	0.1705
275.7358	0.1789
275.9494	0.1741
276.1629	0.1719
276.3765	0.1727
276.59	0.1761
276.8035	0.1788
277.017	0.1726
277.2305	0.1783
277.444	0.1771
277.6574	0.1786
277.8709	0.1763
278.0843	0.177
278.2978	0.1826
278.5112	0.1845
278.7246	0.1792
278.938	0.1753
279.1513	0.1841
279.3647	0.1804
279.5781	0.1814
279.7914	0.1789
280.0047	0.175
280.2181	0.1796
280.4314	0.1776
280.6447	0.182
280.8579	0.181
281.0712	0.182
281.2845	0.1849
281.4977	0.1906
281.711	0.1831
281.9242	0.1855
282.1374	0.1836
282.3506	0.1876
282.5638	0.1853
282.7769	0.1874
282.9901	0.1825
283.2033	0.1878
283.4164	0.1868
283.6295	0.1885
283.8426	0.1888
284.0557	0.1848
284.2688	0.1849
284.4819	0.1858
284.695	0.1902
284.908	0.1848
285.1211	0.187
285.3341	0.1952
285.5471	0.191
285.7601	0.1901
285.9731	0.1894
286.1861	0.1847
286.3991	0.1932
286.612	0.1935
286.825	0.1975
287.0379	0.1985
287.2508	0.196
287.4637	0.1965
287.6766	0.1976
287.8895	0.1908
288.1024	0.1944
288.3152	0.194
288.5281	0.2004
288.7409	0.1962
288.9538	0.1963
289.1666	0.1966
289.3794	0.1954
289.5922	0.1931
289.8049	0.2023
290.0177	0.196
290.2304	0.1998
290.4432	0.2015
290.6559	0.188
290.8686	0.2025
291.0813	0.2042
291.294	0.2063
291.5067	0.1998
291.7194	0.1994
291.932	0.2004
292.1447	0.2022
292.3573	0.1958
292.5699	0.2025
292.7825	0.2005
292.9951	0.2023
293.2077	0.2016
293.4203	0.2008
293.6328	0.2009
293.8454	0.1957
294.0579	0.1976
294.2704	0.2047
294.4829	0.2011
294.6954	0.1997
294.9079	0.2012
295.1204	0.1956
295.3328	0.198
295.5453	0.1991
295.7577	0.1948
295.9701	0.201
296.1825	0.2013
296.3949	0.2094
296.6073	0.2016
296.8197	0.1996
297.0321	0.2004
297.2444	0.2004
297.4567	0.1949
297.6691	0.2011
297.8814	0.1986
298.0937	0.1988
298.306	0.1978
298.5182	0.2056
298.7305	0.197
298.9428	0.1977
299.155	0.1984
299.3672	0.2047
299.5794	0.191
299.7916	0.1994
300.0038	0.1937
300.216	0.1998
300.4282	0.2007
300.6403	0.197
300.8525	0.2049
301.0646	0.1939
301.2767	0.2014
301.4888	0.198
301.7009	0.2019
301.913	0.1974
302.125	0.1941
302.3371	0.197
302.5491	0.196
302.7612	0.1967
302.9732	0.1966
303.1852	0.1942
303.3972	0.1979
303.6092	0.1958
303.8211	0.1891
304.0331	0.1893
304.245	0.1917
304.457	0.1951
304.6689	0.1941
304.8808	0.1913
305.0927	0.1945
305.3046	0.185
305.5164	0.1863
305.7283	0.19
305.9401	0.1796
306.152	0.1793
306.3638	0.183
306.5756	0.1819
306.7874	0.1809
306.9992	0.179
307.2109	0.1732
307.4227	0.1708
307.6344	0.1751
307.8462	0.1714
308.0579	0.1706
308.2696	0.1678
308.4813	0.1618
308.693	0.1654
308.9046	0.1636
309.1163	0.1642
309.328	0.1579
309.5396	0.1639
309.7512	0.1555
309.9628	0.1553
310.1744	0.1553
310.386	0.1456
310.5976	0.1486
310.8091	0.1472
311.0207	0.1438
311.2322	0.1448
311.4437	0.1403
311.6552	0.1414
311.8667	0.1406
312.0782	0.1394
312.2897	0.1408
312.5012	0.1361
312.7126	0.1329
312.924	0.1338
313.1355	0.1305
313.3469	0.1289
313.5583	0.1345
313.7696	0.1265
313.981	0.1247
314.1924	0.1271
314.4037	0.1239
314.6151	0.1278
314.8264	0.1283
315.0377	0.1302
315.249	0.1204
315.4603	0.1257
315.6716	0.1304
315.8828	0.1221
316.0941	0.1254
316.3053	0.1199
316.5165	0.1178
316.7277	0.1233
316.9389	0.1243
317.1501	0.1229
317.3613	0.1171
317.5724	0.1223
317.7836	0.1184
317.9947	0.113
318.2058	0.1217
318.417	0.1217
318.6281	0.1158
318.8391	0.1231
319.0502	0.1221
319.2613	0.1176
319.4723	0.1197
319.6834	0.1203
319.8944	0.122
320.1054	0.1162
320.3164	0.1189
320.5274	0.1159
320.7383	0.1131
320.9493	0.1163
321.1602	0.1164
321.3712	0.1218
321.5821	0.1183
321.793	0.1183
322.0039	0.1199
322.2148	0.1177
322.4257	0.1147
322.6365	0.1136
322.8474	0.1164
323.0582	0.1191
323.269	0.1162
323.4798	0.1168
323.6906	0.1192
323.9014	0.116
324.1122	0.1205
324.3229	0.1205
324.5337	0.1215
324.7444	0.1155
324.9551	0.1213
325.1658	0.1184
325.3765	0.1206
325.5872	0.1149
325.7979	0.1215
326.0085	0.1218
326.2192	0.1187
326.4298	0.1228
326.6404	0.1195
326.851	0.1151
327.0616	0.1259
327.2722	0.1241
327.4828	0.1181
327.6933	0.1276
327.9039	0.1226
328.1144	0.1209
328.3249	0.1232
328.5354	0.1273
328.7459	0.1227
328.9564	0.1254
329.1669	0.1215
329.3773	0.1169
329.5878	0.1237
329.7982	0.1257
330.0086	0.1251
330.219	0.1259
330.4294	0.1219
330.6398	0.1294
330.8502	0.1237
331.0605	0.1242
331.2708	0.1309
331.4812	0.1232
331.6915	0.1214
331.9018	0.1217
332.1121	0.1292
332.3224	0.1329
332.5326	0.1217
332.7429	0.1207
332.9531	0.1239
333.1633	0.1295
333.3735	0.118
333.5837	0.1296
333.7939	0.1225
334.0041	0.1211
334.2143	0.1223
334.4244	0.1227
334.6346	0.1229
334.8447	0.1298
335.0548	0.1245
335.2649	0.1299
335.475	0.1267
335.685	0.1246
335.8951	0.1297
336.1051	0.1312
336.3152	0.1277
336.5252	0.126
336.7352	0.1249
336.9452	0.1349
337.1552	0.126
337.3652	0.1313
337.5751	0.1242
337.7851	0.1293
337.995	0.1291
338.2049	0.1313
338.4148	0.1269
338.6247	0.131
338.8346	0.1295
339.0445	0.1307
339.2543	0.1317
339.4642	0.1409
339.674	0.1376
339.8838	0.1368
340.0936	0.139
340.3034	0.1343
340.5132	0.1363
340.7229	0.1355
340.9327	0.1359
341.1424	0.1392
341.3522	0.1368
341.5619	0.1422
341.7716	0.1387
341.9813	0.1455
342.1909	0.1426
342.4006	0.1466
342.6102	0.1418
342.8199	0.1319
343.0295	0.1411
343.2391	0.1396
343.4487	0.1471
343.6583	0.1467
343.8679	0.1489
344.0774	0.1454
344.287	0.1469
344.4965	0.1425
344.706	0.1511
344.9155	0.1443
345.125	0.1478
345.3345	0.1472
345.544	0.1464
345.7534	0.1514
345.9629	0.15
346.1723	0.1454
346.3817	0.1517
346.5911	0.1497
346.8005	0.152
347.0099	0.1608
347.2193	0.1481
347.4286	0.1534
347.638	0.1526
347.8473	0.162
348.0566	0.1583
348.2659	0.1522
348.4752	0.1559
348.6845	0.1645
348.8937	0.1633
349.103	0.1562
349.3122	0.1648
349.5214	0.1594
349.7306	0.1609
349.9398	0.1627
350.149	0.1655
350.3582	0.1569
350.5674	0.1669
350.7765	0.1625
350.9856	0.1682
351.1948	0.1616
351.4039	0.1671
351.613	0.1784
351.822	0.1714
352.0311	0.1668
352.2402	0.1765
352.4492	0.171
352.6582	0.1722
352.8672	0.1726
353.0762	0.1745
353.2852	0.1745
353.4942	0.1696
353.7032	0.1704
353.9121	0.1801
354.1211	0.1785
354.33	0.1784
354.5389	0.1832
354.7478	0.1843
354.9567	0.1745
355.1655	0.1777
355.3744	0.178
355.5833	0.1872
355.7921	0.1814
356.0009	0.1807
356.2097	0.1919
356.4185	0.1938
356.6273	0.1863
356.8361	0.1906
357.0448	0.1923
357.2536	0.1886
357.4623	0.1852
357.671	0.182
357.8797	0.1994
358.0884	0.1869
358.2971	0.1957
358.5057	0.1899
358.7144	0.1999
358.923	0.194
359.1316	0.1902
359.3402	0.201
359.5488	0.1961
359.7574	0.1982
359.966	0.2006
360.1746	0.1991
360.3831	0.2116
360.5916	0.2067
360.8002	0.21
361.0087	0.2084
361.2172	0.2113
361.4256	0.2063
361.6341	0.2127
361.8426	0.2047
362.051	0.2094
362.2594	0.2089
362.4678	0.2217
362.6762	0.2213
362.8846	0.2226
363.093	0.216
363.3014	0.2259
363.5097	0.2137
363.718	0.2312
363.9264	0.2224
364.1347	0.2308
364.343	0.2334
364.5513	0.2282
364.7595	0.2358
364.9678	0.2318
365.176	0.2283
365.3842	0.23
365.5925	0.2287
365.8007	0.2369
366.0089	0.2384
366.217	0.236
366.4252	0.238
366.6333	0.2332
366.8415	0.237
367.0496	0.2341
367.2577	0.2402
367.4658	0.2427
367.6739	0.2413
367.882	0.2482
368.09	0.2466
368.2981	0.2436
368.5061	0.2501
368.7141	0.2412
368.9221	0.2498
369.1301	0.2476
369.3381	0.2536
369.5461	0.2478
369.754	0.2519
369.962	0.2524
370.1699	0.2593
370.3778	0.2516
370.5857	0.2637
370.7936	0.2613
371.0015	0.2537
371.2093	0.2659
371.4172	0.2615
371.625	0.2612
371.8328	0.2718
372.0406	0.2561
372.2484	0.2582
372.4562	0.2689
372.664	0.2688
372.8717	0.2724
373.0795	0.2736
373.2872	0.2777
373.4949	0.2793
373.7026	0.2798
373.9103	0.2662
374.118	0.2685
374.3256	0.2873
374.5333	0.2689
374.7409	0.2685
374.9485	0.2701
375.1561	0.2837
375.3637	0.2801
375.5713	0.2704
375.7789	0.274
375.9864	0.2841
376.194	0.2863
376.4015	0.2893
376.609	0.2856
376.8165	0.2862
377.024	0.2755
377.2315	0.2909
377.4389	0.2797
377.6464	0.2938
377.8538	0.2924
378.0612	0.2818
378.2686	0.2897
378.476	0.2757
378.6834	0.287
378.8908	0.2977
379.0981	0.2999
379.3055	0.3055
379.5128	0.2931
379.7201	0.2949
379.9274	0.2823
380.1347	0.2938
380.342	0.3086
380.5492	0.301
380.7565	0.295
380.9637	0.2989
381.1709	0.2975
381.3781	0.3081
381.5853	0.303
381.7925	0.3108
381.9997	0.3107
382.2068	0.2983
382.4139	0.3188
382.6211	0.3166
382.8282	0.3044
383.0353	0.3013
383.2424	0.3021
383.4494	0.3097
383.6565	0.3084
383.8635	0.3172
384.0706	0.3157
384.2776	0.3232
384.4846	0.3172
384.6916	0.3152
384.8986	0.3298
385.1055	0.3169
385.3125	0.3137
385.5194	0.3112
385.7263	0.3145
385.9333	0.314
386.1402	0.3156
386.347	0.3106
386.5539	0.3164
386.7608	0.317
386.9676	0.311
387.1744	0.3142
387.3813	0.3103
387.5881	0.3141
387.7948	0.3108
388.0016	0.3141
388.2084	0.3088
388.4151	0.3066
388.6219	0.3084
388.8286	0.3164
389.0353	0.2982
389.242	0.3053
389.4487	0.307
389.6553	0.3081
389.862	0.3088
390.0686	0.309
390.2753	0.3078
390.4819	0.3129
390.6885	0.2997
390.8951	0.3187
391.1016	0.297
391.3082	0.2934
391.5147	0.2996
391.7213	0.2979
391.9278	0.3059
392.1343	0.2983
392.3408	0.291
392.5473	0.2856
392.7537	0.2996
392.9602	0.2938
393.1666	0.2928
393.373	0.2884
393.5794	0.2895
393.7858	0.2959
393.9922	0.2904
394.1986	0.2804
394.4049	0.2926
394.6113	0.2852
394.8176	0.2693
395.0239	0.2787
395.2302	0.2735
395.4365	0.277
395.6428	0.289
395.8491	0.276
396.0553	0.279
396.2615	0.2765
396.4678	0.2706
396.674	0.2714
396.8802	0.2659
397.0863	0.2781
397.2925	0.2798
397.4987	0.2608
397.7048	0.272
397.9109	0.2638
398.117	0.2665
398.3231	0.2776
398.5292	0.2751
398.7353	0.2655
398.9413	0.2683
399.1474	0.2745
399.3534	0.2739
399.5594	0.2732
399.7654	0.2808
399.9714	0.2663
400.1774	0.2665
400.3833	0.2828
400.5893	0.2574
400.7952	0.2669
401.0011	0.2571
401.207	0.2671
401.4129	0.2684
401.6188	0.2559
401.8247	0.2603
402.0305	0.2674
402.2364	0.2708
402.4422	0.2662
402.648	0.2776
402.8538	0.2694
403.0596	0.2654
403.2654	0.2723
403.4711	0.2672
403.6768	0.2739
403.8826	0.2669
404.0883	0.2693
404.294	0.2664
404.4997	0.266
404.7054	0.2673
404.911	0.2596
405.1167	0.2748
405.3223	0.2624
405.5279	0.2747
405.7335	0.2605
405.9391	0.2594
406.1447	0.2628
406.3502	0.2737
406.5558	0.2813
406.7613	0.2732
406.9668	0.2684
407.1724	0.2751
407.3778	0.265
407.5833	0.2759
407.7888	0.2734
407.9942	0.2672
408.1997	0.2691
408.4051	0.278
408.6105	0.2649
408.8159	0.2704
409.0213	0.2722
409.2267	0.2649
409.432	0.2716
409.6374	0.263
409.8427	0.2734
410.048	0.2645
410.2533	0.2687
410.4586	0.2674
410.6639	0.2651
410.8691	0.2712
411.0744	0.265
411.2796	0.2638
411.4848	0.2622
411.69	0.275
411.8952	0.268
412.1004	0.2719
412.3056	0.2653
412.5107	0.2637
412.7158	0.2732
412.921	0.2693
413.1261	0.2621
413.3312	0.2632
413.5362	0.2702
413.7413	0.278
413.9464	0.2657
414.1514	0.2583
414.3564	0.265
414.5614	0.2629
414.7664	0.2619
414.9714	0.2627
415.1764	0.2624
415.3813	0.2595
415.5863	0.2603
415.7912	0.2642
415.9961	0.2558
416.201	0.2601
416.4059	0.2522
416.6108	0.2652
416.8156	0.2479
417.0205	0.2702
417.2253	0.2642
417.4301	0.2634
417.6349	0.2527
417.8397	0.2593
418.0445	0.2688
418.2492	0.2693
418.454	0.2638
418.6587	0.2665
418.8634	0.2565
419.0681	0.2572
419.2728	0.248
419.4775	0.2595
419.6822	0.2458
419.8868	0.2556
420.0915	0.2483
420.2961	0.2459
420.5007	0.2478
420.7053	0.2601
420.9099	0.2395
421.1144	0.2404
421.319	0.2411
421.5235	0.2491
421.728	0.2438
421.9325	0.2497
422.137	0.2483
422.3415	0.2378
422.546	0.2441
422.7504	0.2404
422.9549	0.2346
423.1593	0.2362
423.3637	0.2388
423.5681	0.2359
423.7725	0.2405
423.9769	0.245
424.1812	0.2404
424.3856	0.2313
424.5899	0.2343
424.7942	0.2146
424.9985	0.2283
425.2028	0.2331
425.4071	0.2149
425.6113	0.2263
425.8156	0.2265
426.0198	0.2306
426.224	0.2233
426.4282	0.2291
426.6324	0.2362
426.8366	0.2169
427.0407	0.2294
427.2449	0.22
