Data from D4ACN5uM480nmA_Absorbance_12-07-59-815.txt Node
Date: Fri Feb 21 12:07:59 GMT 2025
User: LASERRRRR
Spectrometer: FLMT03099
Trigger mode: 0
Integration Time (sec): 1.500000E-2
Scans to average: 1
Electric dark correction enabled: true
Nonlinearity correction enabled: false
Boxcar width: 0
XAxis mode: Wavelengths
Number of Pixels in Spectrum: 3648
>>>>>Begin Spectral Data<<<<<
179.3399	0.3553
179.5586	0.3553
179.7771	0.3553
179.9957	-0.0234
180.2143	-0
180.4329	-0
180.6514	-0
180.8699	-0
181.0885	-0.1818
181.307	0.1773
181.5255	0.3356
181.744	-0
181.9625	-0
182.181	-0
182.3994	-0
182.6179	0.3123
182.8363	-0
183.0547	-0.8946
183.2732	0.1824
183.4916	0.7587
183.71	0.1611
183.9284	0.0608
184.1467	0.0713
184.3651	0.2423
184.5835	0.1855
184.8018	0.0752
185.0201	0.1577
185.2385	0.2586
185.4568	0.2981
185.6751	0.2633
185.8934	0.4499
186.1117	0.212
186.3299	0.1804
186.5482	0.1264
186.7664	0.2482
186.9847	0.4215
187.2029	0.1709
187.4211	0.1584
187.6393	0.241
187.8575	0.2504
188.0757	0.4862
188.2939	0.1935
188.512	0.236
188.7302	0.0072
188.9483	0.3423
189.1665	0.7772
189.3846	0.0608
189.6027	0.1829
189.8208	0.2264
190.0389	0.0514
190.257	0.2984
190.475	0.2194
190.6931	0.2602
190.9111	0.0977
191.1292	0.2413
191.3472	0.2209
191.5652	0.4897
191.7832	0.237
192.0012	0.4986
192.2192	0.3012
192.4371	0.3657
192.6551	0.3336
192.873	0.3264
193.091	0.4503
193.3089	0.3129
193.5268	0.2721
193.7447	0.5775
193.9626	0.3162
194.1805	0.615
194.3984	0.5458
194.6162	0.5625
194.8341	0.8102
195.0519	0.7048
195.2697	0.5431
195.4875	0.6281
195.7054	0.4431
195.9231	0.3953
196.1409	0.5247
196.3587	0.6225
196.5765	0.4794
196.7942	0.6029
197.012	0.4561
197.2297	0.5223
197.4474	0.5181
197.6651	0.5692
197.8828	0.804
198.1005	0.5971
198.3182	0.5534
198.5358	0.5014
198.7535	0.5736
198.9711	0.6009
199.1888	0.6352
199.4064	0.663
199.624	0.5458
199.8416	0.6342
200.0592	0.5597
200.2767	0.5791
200.4943	0.6053
200.7119	0.6212
200.9294	0.5655
201.1469	0.6491
201.3645	0.6328
201.582	0.5389
201.7995	0.6159
202.017	0.5425
202.2344	0.5235
202.4519	0.5502
202.6694	0.6135
202.8868	0.5385
203.1042	0.6024
203.3217	0.5576
203.5391	0.4828
203.7565	0.5477
203.9739	0.5266
204.1913	0.5384
204.4086	0.512
204.626	0.5036
204.8433	0.5235
205.0607	0.4852
205.278	0.5211
205.4953	0.4745
205.7126	0.5108
205.9299	0.4516
206.1472	0.4645
206.3644	0.5179
206.5817	0.4808
206.7989	0.4594
207.0162	0.4281
207.2334	0.4614
207.4506	0.4221
207.6678	0.4497
207.885	0.4207
208.1022	0.4302
208.3194	0.4529
208.5365	0.4331
208.7537	0.4102
208.9708	0.452
209.1879	0.4219
209.405	0.3809
209.6222	0.3846
209.8392	0.4275
210.0563	0.4258
210.2734	0.4066
210.4905	0.4253
210.7075	0.4302
210.9245	0.4095
211.1416	0.4068
211.3586	0.4132
211.5756	0.4138
211.7926	0.4133
212.0096	0.4007
212.2265	0.3935
212.4435	0.4251
212.6604	0.4021
212.8774	0.4139
213.0943	0.4211
213.3112	0.431
213.5281	0.4213
213.745	0.3854
213.9619	0.3951
214.1788	0.3796
214.3956	0.4153
214.6125	0.415
214.8293	0.3938
215.0461	0.407
215.2629	0.3951
215.4798	0.3697
215.6965	0.3936
215.9133	0.3995
216.1301	0.3939
216.3469	0.39
216.5636	0.4192
216.7803	0.4035
216.9971	0.4162
217.2138	0.3985
217.4305	0.4027
217.6472	0.4313
217.8639	0.4292
218.0805	0.4175
218.2972	0.4206
218.5138	0.4475
218.7305	0.4133
218.9471	0.4164
219.1637	0.4078
219.3803	0.4401
219.5969	0.419
219.8135	0.4399
220.0301	0.3974
220.2466	0.4407
220.4632	0.422
220.6797	0.4345
220.8962	0.421
221.1127	0.4209
221.3292	0.4241
221.5457	0.4403
221.7622	0.4393
221.9787	0.4476
222.1951	0.4495
222.4116	0.4465
222.628	0.4502
222.8444	0.4399
223.0608	0.434
223.2772	0.4507
223.4936	0.4538
223.71	0.4649
223.9264	0.4382
224.1427	0.4661
224.3591	0.4609
224.5754	0.4596
224.7917	0.4617
225.008	0.4541
225.2243	0.4745
225.4406	0.4721
225.6569	0.4654
225.8732	0.4682
226.0894	0.4636
226.3057	0.4649
226.5219	0.4637
226.7381	0.4719
226.9543	0.4768
227.1705	0.4822
227.3867	0.4883
227.6029	0.4668
227.8191	0.4965
228.0352	0.4948
228.2513	0.4877
228.4675	0.4948
228.6836	0.4994
228.8997	0.5026
229.1158	0.4903
229.3319	0.5066
229.548	0.4999
229.764	0.5098
229.9801	0.5083
230.1961	0.5116
230.4121	0.5141
230.6282	0.5059
230.8442	0.5155
231.0602	0.52
231.2761	0.5161
231.4921	0.5092
231.7081	0.5054
231.924	0.5379
232.14	0.531
232.3559	0.5398
232.5718	0.5225
232.7877	0.532
233.0036	0.525
233.2195	0.528
233.4353	0.5443
233.6512	0.5251
233.867	0.5347
234.0829	0.5353
234.2987	0.5159
234.5145	0.5415
234.7303	0.527
234.9461	0.5289
235.1619	0.5355
235.3776	0.5292
235.5934	0.5446
235.8091	0.5336
236.0249	0.5478
236.2406	0.5433
236.4563	0.5525
236.672	0.5469
236.8877	0.5427
237.1034	0.5309
237.319	0.5401
237.5347	0.5268
237.7503	0.5371
237.966	0.5279
238.1816	0.5314
238.3972	0.5549
238.6128	0.5429
238.8284	0.5397
239.0439	0.5459
239.2595	0.5375
239.475	0.5334
239.6906	0.5291
239.9061	0.5269
240.1216	0.5326
240.3371	0.5224
240.5526	0.5139
240.7681	0.5258
240.9836	0.5199
241.199	0.5065
241.4145	0.5042
241.6299	0.4946
241.8453	0.4843
242.0607	0.4919
242.2761	0.4773
242.4915	0.481
242.7069	0.4674
242.9223	0.4545
243.1376	0.4515
243.353	0.4467
243.5683	0.4382
243.7836	0.4257
243.9989	0.4267
244.2142	0.4109
244.4295	0.4097
244.6448	0.3975
244.86	0.3862
245.0753	0.3815
245.2905	0.3821
245.5057	0.3691
245.721	0.3554
245.9362	0.3542
246.1514	0.338
246.3665	0.3405
246.5817	0.3358
246.7969	0.3283
247.012	0.3267
247.2271	0.3118
247.4423	0.3082
247.6574	0.3122
247.8725	0.3081
248.0876	0.3009
248.3026	0.2828
248.5177	0.2805
248.7328	0.2792
248.9478	0.2768
249.1628	0.2626
249.3779	0.2706
249.5929	0.2609
249.8079	0.2589
250.0228	0.2543
250.2378	0.2496
250.4528	0.2528
250.6677	0.243
250.8827	0.2366
251.0976	0.2385
251.3125	0.2409
251.5274	0.2322
251.7423	0.2323
251.9572	0.2221
252.172	0.2253
252.3869	0.2134
252.6017	0.2199
252.8166	0.2161
253.0314	0.2215
253.2462	0.2136
253.461	0.2149
253.6758	0.2107
253.8906	0.2037
254.1053	0.2027
254.3201	0.2044
254.5348	0.2064
254.7496	0.1968
254.9643	0.2051
255.179	0.2039
255.3937	0.1996
255.6083	0.1986
255.823	0.2025
256.0377	0.2015
256.2523	0.1995
256.467	0.1975
256.6816	0.1968
256.8962	0.1921
257.1108	0.1943
257.3254	0.1888
257.54	0.1951
257.7545	0.1976
257.9691	0.1951
258.1836	0.1934
258.3981	0.1844
258.6127	0.1811
258.8272	0.193
259.0417	0.1814
259.2561	0.1893
259.4706	0.1885
259.6851	0.1846
259.8995	0.186
260.114	0.1827
260.3284	0.1805
260.5428	0.179
260.7572	0.1883
260.9716	0.1872
261.186	0.1796
261.4003	0.1873
261.6147	0.1823
261.829	0.1826
262.0433	0.1845
262.2577	0.1862
262.472	0.1875
262.6863	0.1868
262.9005	0.1835
263.1148	0.1812
263.3291	0.1906
263.5433	0.1863
263.7576	0.182
263.9718	0.19
264.186	0.1846
264.4002	0.1827
264.6144	0.193
264.8286	0.19
265.0427	0.186
265.2569	0.1831
265.471	0.188
265.6851	0.1865
265.8993	0.1886
266.1134	0.188
266.3275	0.1896
266.5415	0.1871
266.7556	0.1822
266.9697	0.1843
267.1837	0.1805
267.3978	0.195
267.6118	0.1783
267.8258	0.1869
268.0398	0.1805
268.2538	0.1889
268.4677	0.1841
268.6817	0.1772
268.8957	0.1828
269.1096	0.176
269.3235	0.1874
269.5374	0.1795
269.7514	0.182
269.9652	0.1814
270.1791	0.1795
270.393	0.1829
270.6068	0.1739
270.8207	0.1736
271.0345	0.1779
271.2483	0.1794
271.4622	0.177
271.676	0.1725
271.8897	0.1735
272.1035	0.1723
272.3173	0.1715
272.531	0.1699
272.7448	0.1684
272.9585	0.1736
273.1722	0.1712
273.3859	0.1647
273.5996	0.169
273.8133	0.1723
274.0269	0.1736
274.2406	0.167
274.4542	0.167
274.6679	0.1693
274.8815	0.1704
275.0951	0.1768
275.3087	0.1743
275.5223	0.1689
275.7358	0.1799
275.9494	0.1711
276.1629	0.1743
276.3765	0.1693
276.59	0.1755
276.8035	0.1774
277.017	0.181
277.2305	0.1727
277.444	0.1727
277.6574	0.1808
277.8709	0.1769
278.0843	0.1825
278.2978	0.183
278.5112	0.1801
278.7246	0.1816
278.938	0.181
279.1513	0.1797
279.3647	0.1795
279.5781	0.176
279.7914	0.1845
280.0047	0.176
280.2181	0.1821
280.4314	0.1849
280.6447	0.186
280.8579	0.1798
281.0712	0.1802
281.2845	0.1868
281.4977	0.1867
281.711	0.1825
281.9242	0.1839
282.1374	0.1853
282.3506	0.1887
282.5638	0.1852
282.7769	0.1834
282.9901	0.1843
283.2033	0.1846
283.4164	0.1852
283.6295	0.1865
283.8426	0.1885
284.0557	0.1825
284.2688	0.194
284.4819	0.1949
284.695	0.1937
284.908	0.1901
285.1211	0.1837
285.3341	0.195
285.5471	0.197
285.7601	0.1929
285.9731	0.1875
286.1861	0.1916
286.3991	0.1937
286.612	0.2
286.825	0.1999
287.0379	0.1944
287.2508	0.1961
287.4637	0.2022
287.6766	0.1956
287.8895	0.1913
288.1024	0.1983
288.3152	0.1961
288.5281	0.1969
288.7409	0.1994
288.9538	0.1983
289.1666	0.1962
289.3794	0.1989
289.5922	0.2004
289.8049	0.2024
290.0177	0.1962
290.2304	0.2007
290.4432	0.2011
290.6559	0.1916
290.8686	0.2017
291.0813	0.203
291.294	0.2035
291.5067	0.2069
291.7194	0.2019
291.932	0.2045
292.1447	0.206
292.3573	0.202
292.5699	0.1998
292.7825	0.2032
292.9951	0.1985
293.2077	0.2006
293.4203	0.2029
293.6328	0.1979
293.8454	0.1985
294.0579	0.2047
294.2704	0.1997
294.4829	0.2028
294.6954	0.2028
294.9079	0.2024
295.1204	0.1961
295.3328	0.1989
295.5453	0.2039
295.7577	0.1891
295.9701	0.2083
296.1825	0.1953
296.3949	0.2038
296.6073	0.2034
296.8197	0.2033
297.0321	0.2014
297.2444	0.2036
297.4567	0.2016
297.6691	0.2008
297.8814	0.2012
298.0937	0.2035
298.306	0.197
298.5182	0.2031
298.7305	0.1946
298.9428	0.2001
299.155	0.1937
299.3672	0.206
299.5794	0.1943
299.7916	0.2045
300.0038	0.2002
300.216	0.2025
300.4282	0.19
300.6403	0.1985
300.8525	0.2023
301.0646	0.1939
301.2767	0.1994
301.4888	0.2017
301.7009	0.1979
301.913	0.2039
302.125	0.1971
302.3371	0.2021
302.5491	0.1996
302.7612	0.1912
302.9732	0.199
303.1852	0.2009
303.3972	0.1947
303.6092	0.1967
303.8211	0.1954
304.0331	0.1907
304.245	0.1941
304.457	0.1914
304.6689	0.1937
304.8808	0.1935
305.0927	0.197
305.3046	0.1856
305.5164	0.1882
305.7283	0.1871
305.9401	0.1817
306.152	0.1784
306.3638	0.1787
306.5756	0.1838
306.7874	0.1847
306.9992	0.1787
307.2109	0.1786
307.4227	0.1782
307.6344	0.173
307.8462	0.17
308.0579	0.1678
308.2696	0.166
308.4813	0.1646
308.693	0.1607
308.9046	0.1643
309.1163	0.1625
309.328	0.1556
309.5396	0.1522
309.7512	0.1571
309.9628	0.1565
310.1744	0.1524
310.386	0.1472
310.5976	0.1473
310.8091	0.1464
311.0207	0.1468
311.2322	0.1473
311.4437	0.1471
311.6552	0.1456
311.8667	0.1374
312.0782	0.1456
312.2897	0.1451
312.5012	0.1357
312.7126	0.1339
312.924	0.1359
313.1355	0.1304
313.3469	0.1298
313.5583	0.1339
313.7696	0.1289
313.981	0.1322
314.1924	0.1294
314.4037	0.1259
314.6151	0.1284
314.8264	0.126
315.0377	0.128
315.249	0.1216
315.4603	0.1224
315.6716	0.1252
315.8828	0.1219
316.0941	0.1229
316.3053	0.1188
316.5165	0.1213
316.7277	0.1193
316.9389	0.1225
317.1501	0.1214
317.3613	0.1179
317.5724	0.119
317.7836	0.1187
317.9947	0.1173
318.2058	0.1229
318.417	0.1134
318.6281	0.119
318.8391	0.1213
319.0502	0.1205
319.2613	0.1183
319.4723	0.1166
319.6834	0.1203
319.8944	0.1208
320.1054	0.1135
320.3164	0.1154
320.5274	0.1106
320.7383	0.1141
320.9493	0.1167
321.1602	0.1128
321.3712	0.1173
321.5821	0.1226
321.793	0.1153
322.0039	0.12
322.2148	0.1193
322.4257	0.1188
322.6365	0.1104
322.8474	0.1148
323.0582	0.1183
323.269	0.1142
323.4798	0.1116
323.6906	0.115
323.9014	0.1135
324.1122	0.1185
324.3229	0.124
324.5337	0.1248
324.7444	0.1161
324.9551	0.1182
325.1658	0.1212
325.3765	0.1169
325.5872	0.1214
325.7979	0.1229
326.0085	0.119
326.2192	0.1136
326.4298	0.1261
326.6404	0.1159
326.851	0.1201
327.0616	0.1248
327.2722	0.1253
327.4828	0.1179
327.6933	0.1239
327.9039	0.1216
328.1144	0.1244
328.3249	0.1249
328.5354	0.1205
328.7459	0.1223
328.9564	0.1243
329.1669	0.1166
329.3773	0.1227
329.5878	0.1202
329.7982	0.1281
330.0086	0.125
330.219	0.1251
330.4294	0.1254
330.6398	0.1295
330.8502	0.1239
331.0605	0.1266
331.2708	0.1199
331.4812	0.1213
331.6915	0.1235
331.9018	0.1188
332.1121	0.1279
332.3224	0.1261
332.5326	0.1294
332.7429	0.124
332.9531	0.1223
333.1633	0.1185
333.3735	0.1168
333.5837	0.1281
333.7939	0.1269
334.0041	0.1237
334.2143	0.124
334.4244	0.1246
334.6346	0.1202
334.8447	0.1317
335.0548	0.1243
335.2649	0.1227
335.475	0.1304
335.685	0.1253
335.8951	0.1283
336.1051	0.1262
336.3152	0.1314
336.5252	0.1332
336.7352	0.1201
336.9452	0.1305
337.1552	0.1293
337.3652	0.1291
337.5751	0.1216
337.7851	0.1305
337.995	0.1281
338.2049	0.1339
338.4148	0.1255
338.6247	0.1315
338.8346	0.1282
339.0445	0.13
339.2543	0.1399
339.4642	0.1391
339.674	0.1351
339.8838	0.1332
340.0936	0.1381
340.3034	0.1425
340.5132	0.1309
340.7229	0.1377
340.9327	0.1362
341.1424	0.1311
341.3522	0.1416
341.5619	0.134
341.7716	0.1376
341.9813	0.142
342.1909	0.142
342.4006	0.1405
342.6102	0.1343
342.8199	0.1419
343.0295	0.1433
343.2391	0.1412
343.4487	0.1466
343.6583	0.1471
343.8679	0.1449
344.0774	0.1466
344.287	0.1485
344.4965	0.1457
344.706	0.1494
344.9155	0.1467
345.125	0.1443
345.3345	0.1435
345.544	0.149
345.7534	0.1464
345.9629	0.1487
346.1723	0.1501
346.3817	0.146
346.5911	0.1546
346.8005	0.1515
347.0099	0.155
347.2193	0.15
347.4286	0.1553
347.638	0.1559
347.8473	0.1542
348.0566	0.1569
348.2659	0.1618
348.4752	0.1582
348.6845	0.1606
348.8937	0.1619
349.103	0.1629
349.3122	0.1652
349.5214	0.1562
349.7306	0.1611
349.9398	0.163
350.149	0.1609
350.3582	0.1633
350.5674	0.1652
350.7765	0.1701
350.9856	0.1609
351.1948	0.1662
351.4039	0.1697
351.613	0.1699
351.822	0.1676
352.0311	0.1642
352.2402	0.1715
352.4492	0.174
352.6582	0.1797
352.8672	0.1746
353.0762	0.1731
353.2852	0.1748
353.4942	0.1749
353.7032	0.169
353.9121	0.1724
354.1211	0.1708
354.33	0.1836
354.5389	0.1758
354.7478	0.1762
354.9567	0.1768
355.1655	0.1792
355.3744	0.1767
355.5833	0.1816
355.7921	0.1753
356.0009	0.178
356.2097	0.1939
356.4185	0.1914
356.6273	0.1832
356.8361	0.1914
357.0448	0.1902
357.2536	0.1876
357.4623	0.1877
357.671	0.1873
357.8797	0.192
358.0884	0.1887
358.2971	0.1948
358.5057	0.1971
358.7144	0.1993
358.923	0.1965
359.1316	0.1875
359.3402	0.2023
359.5488	0.1988
359.7574	0.2
359.966	0.1994
360.1746	0.1979
360.3831	0.2033
360.5916	0.2021
360.8002	0.2105
361.0087	0.2137
361.2172	0.214
361.4256	0.1991
361.6341	0.2126
361.8426	0.21
362.051	0.2073
362.2594	0.2158
362.4678	0.2188
362.6762	0.2137
362.8846	0.2172
363.093	0.2201
363.3014	0.215
363.5097	0.2216
363.718	0.224
363.9264	0.2205
364.1347	0.2264
364.343	0.2326
364.5513	0.2357
364.7595	0.2358
364.9678	0.2334
365.176	0.2282
365.3842	0.2361
365.5925	0.2311
365.8007	0.2347
366.0089	0.2396
366.217	0.2399
366.4252	0.24
366.6333	0.2385
366.8415	0.2393
367.0496	0.2398
367.2577	0.2402
367.4658	0.2471
367.6739	0.2401
367.882	0.2561
368.09	0.2368
368.2981	0.2432
368.5061	0.2539
368.7141	0.2453
368.9221	0.2471
369.1301	0.2556
369.3381	0.2554
369.5461	0.2543
369.754	0.2528
369.962	0.2608
370.1699	0.2554
370.3778	0.2498
370.5857	0.25
370.7936	0.2677
371.0015	0.2518
371.2093	0.2607
371.4172	0.2604
371.625	0.2713
371.8328	0.2678
372.0406	0.2601
372.2484	0.2578
372.4562	0.2676
372.664	0.2706
372.8717	0.2636
373.0795	0.2721
373.2872	0.2682
373.4949	0.2707
373.7026	0.289
373.9103	0.2666
374.118	0.2657
374.3256	0.2799
374.5333	0.2788
374.7409	0.2763
374.9485	0.2729
375.1561	0.273
375.3637	0.2753
375.5713	0.2817
375.7789	0.2774
375.9864	0.2838
376.194	0.2912
376.4015	0.2855
376.609	0.2869
376.8165	0.2947
377.024	0.2797
377.2315	0.2987
377.4389	0.2762
377.6464	0.2851
377.8538	0.2927
378.0612	0.2861
378.2686	0.2955
378.476	0.286
378.6834	0.2912
378.8908	0.2889
379.0981	0.2974
379.3055	0.2995
379.5128	0.3
379.7201	0.2952
379.9274	0.2862
380.1347	0.305
380.342	0.3081
380.5492	0.2958
380.7565	0.2977
380.9637	0.2944
381.1709	0.2983
381.3781	0.3016
381.5853	0.3053
381.7925	0.3137
381.9997	0.3103
382.2068	0.298
382.4139	0.3074
382.6211	0.3167
382.8282	0.3173
383.0353	0.3134
383.2424	0.3111
383.4494	0.3073
383.6565	0.3093
383.8635	0.3263
384.0706	0.3228
384.2776	0.319
384.4846	0.3185
384.6916	0.3205
384.8986	0.3164
385.1055	0.3127
385.3125	0.311
385.5194	0.3183
385.7263	0.3166
385.9333	0.3221
386.1402	0.3165
386.347	0.3165
386.5539	0.3192
386.7608	0.3213
386.9676	0.3217
387.1744	0.3111
387.3813	0.3059
387.5881	0.3115
387.7948	0.3166
388.0016	0.3175
388.2084	0.3137
388.4151	0.3062
388.6219	0.3104
388.8286	0.3142
389.0353	0.3037
389.242	0.308
389.4487	0.3085
389.6553	0.307
389.862	0.3129
390.0686	0.3167
390.2753	0.3002
390.4819	0.3043
390.6885	0.2974
390.8951	0.3141
391.1016	0.3092
391.3082	0.2941
391.5147	0.2986
391.7213	0.2994
391.9278	0.2997
392.1343	0.2986
392.3408	0.2904
392.5473	0.3071
392.7537	0.2935
392.9602	0.2925
393.1666	0.2938
393.373	0.2942
393.5794	0.2912
393.7858	0.2922
393.9922	0.2968
394.1986	0.2817
394.4049	0.2828
394.6113	0.2896
394.8176	0.2762
395.0239	0.2788
395.2302	0.2684
395.4365	0.2769
395.6428	0.2734
395.8491	0.2723
396.0553	0.2656
396.2615	0.2743
396.4678	0.2723
396.674	0.2751
396.8802	0.272
397.0863	0.2692
397.2925	0.2681
397.4987	0.265
397.7048	0.2837
397.9109	0.2715
398.117	0.2728
398.3231	0.2746
398.5292	0.2731
398.7353	0.2688
398.9413	0.2706
399.1474	0.2762
399.3534	0.2724
399.5594	0.2757
399.7654	0.2675
399.9714	0.2669
400.1774	0.2655
400.3833	0.266
400.5893	0.2655
400.7952	0.2748
401.0011	0.2603
401.207	0.2766
401.4129	0.2571
401.6188	0.264
401.8247	0.2726
402.0305	0.2699
402.2364	0.267
402.4422	0.2712
402.648	0.275
402.8538	0.2735
403.0596	0.2615
403.2654	0.2698
403.4711	0.2601
403.6768	0.2658
403.8826	0.2657
404.0883	0.2694
404.294	0.2677
404.4997	0.2625
404.7054	0.268
404.911	0.2629
405.1167	0.2783
405.3223	0.2738
405.5279	0.2677
405.7335	0.2625
405.9391	0.2695
406.1447	0.2717
406.3502	0.2756
406.5558	0.2792
406.7613	0.2714
406.9668	0.2633
407.1724	0.274
407.3778	0.2715
407.5833	0.2788
407.7888	0.2733
407.9942	0.2755
408.1997	0.2683
408.4051	0.2685
408.6105	0.2721
408.8159	0.2732
409.0213	0.2714
409.2267	0.2635
409.432	0.2724
409.6374	0.2665
409.8427	0.2803
410.048	0.265
410.2533	0.272
410.4586	0.2713
410.6639	0.2661
410.8691	0.2786
411.0744	0.2603
411.2796	0.2663
411.4848	0.2627
411.69	0.2641
411.8952	0.2766
412.1004	0.2719
412.3056	0.2662
412.5107	0.2729
412.7158	0.2666
412.921	0.2637
413.1261	0.2661
413.3312	0.2548
413.5362	0.2674
413.7413	0.2709
413.9464	0.2616
414.1514	0.2619
414.3564	0.2661
414.5614	0.2611
414.7664	0.2611
414.9714	0.2728
415.1764	0.2627
415.3813	0.2532
415.5863	0.267
415.7912	0.261
415.9961	0.2598
416.201	0.2643
416.4059	0.2567
416.6108	0.2682
416.8156	0.2438
417.0205	0.2591
417.2253	0.2743
417.4301	0.2672
417.6349	0.257
417.8397	0.2656
418.0445	0.2577
418.2492	0.2691
418.454	0.263
418.6587	0.26
418.8634	0.2611
419.0681	0.247
419.2728	0.2562
419.4775	0.2577
419.6822	0.2556
419.8868	0.2624
420.0915	0.2503
420.2961	0.2449
420.5007	0.2509
420.7053	0.2502
420.9099	0.2406
421.1144	0.2406
421.319	0.2404
421.5235	0.2508
421.728	0.2411
421.9325	0.2423
422.137	0.2412
422.3415	0.2399
422.546	0.2425
422.7504	0.2397
422.9549	0.238
423.1593	0.2429
423.3637	0.2387
423.5681	0.2402
423.7725	0.2404
423.9769	0.2441
424.1812	0.2368
424.3856	0.2377
424.5899	0.2334
424.7942	0.227
424.9985	0.2336
425.2028	0.2367
425.4071	0.2215
425.6113	0.2344
425.8156	0.2387
426.0198	0.221
426.224	0.2287
426.4282	0.2331
426.6324	0.2189
426.8366	0.2281
427.0407	0.2269
427.2449	0.2154
