Data from D4ACN5uM480nmA_Absorbance_12-08-01-195.txt Node
Date: Fri Feb 21 12:08:01 GMT 2025
User: LASERRRRR
Spectrometer: FLMT03099
Trigger mode: 0
Integration Time (sec): 1.500000E-2
Scans to average: 1
Electric dark correction enabled: true
Nonlinearity correction enabled: false
Boxcar width: 0
XAxis mode: Wavelengths
Number of Pixels in Spectrum: 3648
>>>>>Begin Spectral Data<<<<<
179.3399	0.1973
179.5586	0.1973
179.7771	0.1973
179.9957	0.13
180.2143	0.1241
180.4329	-0
180.6514	-0
180.8699	-0.1966
181.0885	-0
181.307	0.7951
181.5255	-0.0354
181.744	-0.1056
181.9625	0.1948
182.181	-0
182.3994	-0
182.6179	-0.8034
182.8363	0.1
183.0547	-0
183.2732	0.2135
183.4916	0.6987
183.71	0.2942
183.9284	0.1326
184.1467	0.0362
184.3651	0.3204
184.5835	0.1901
184.8018	0.4046
185.0201	0.2595
185.2385	-0.0177
185.4568	0.1915
185.6751	0.2803
185.8934	0.3497
186.1117	0.1826
186.3299	0.1148
186.5482	0.2529
186.7664	0.4118
186.9847	0.1186
187.2029	0.1012
187.4211	0.2954
187.6393	0.4542
187.8575	0.2767
188.0757	0.3381
188.2939	0.1417
188.512	0.2938
188.7302	-0.0464
188.9483	0.45
189.1665	0.429
189.3846	-0.0302
189.6027	0.1934
189.8208	0.4349
190.0389	0.0899
190.257	0.1915
190.475	0.2417
190.6931	0.0405
190.9111	0.3719
191.1292	0.2259
191.3472	0.3032
191.5652	0.4276
191.7832	0.3889
192.0012	0.2356
192.2192	0.3167
192.4371	0.3156
192.6551	0.2918
192.873	0.3814
193.091	0.3409
193.3089	0.1436
193.5268	0.4337
193.7447	0.3111
193.9626	0.4892
194.1805	0.3538
194.3984	0.4803
194.6162	0.5039
194.8341	0.4538
195.0519	0.5276
195.2697	0.56
195.4875	0.6469
195.7054	0.5421
195.9231	0.4392
196.1409	0.7317
196.3587	0.4639
196.5765	0.5226
196.7942	0.7244
197.012	0.4807
197.2297	0.5221
197.4474	0.9714
197.6651	0.5514
197.8828	0.6055
198.1005	0.6933
198.3182	0.5197
198.5358	0.6058
198.7535	0.6158
198.9711	0.5469
199.1888	0.6092
199.4064	0.5318
199.624	0.6308
199.8416	0.5864
200.0592	0.5544
200.2767	0.5382
200.4943	0.6167
200.7119	0.5651
200.9294	0.6417
201.1469	0.664
201.3645	0.6935
201.582	0.5677
201.7995	0.604
202.017	0.5423
202.2344	0.5299
202.4519	0.5867
202.6694	0.5907
202.8868	0.5821
203.1042	0.5202
203.3217	0.5409
203.5391	0.5394
203.7565	0.5085
203.9739	0.4765
204.1913	0.5145
204.4086	0.5022
204.626	0.5254
204.8433	0.5301
205.0607	0.4926
205.278	0.5248
205.4953	0.4777
205.7126	0.479
205.9299	0.4865
206.1472	0.4586
206.3644	0.4709
206.5817	0.4965
206.7989	0.4917
207.0162	0.4499
207.2334	0.4454
207.4506	0.4561
207.6678	0.4304
207.885	0.4131
208.1022	0.4541
208.3194	0.4006
208.5365	0.4459
208.7537	0.4471
208.9708	0.4725
209.1879	0.4336
209.405	0.4124
209.6222	0.4251
209.8392	0.4274
210.0563	0.4062
210.2734	0.4076
210.4905	0.4091
210.7075	0.4194
210.9245	0.3996
211.1416	0.4054
211.3586	0.4346
211.5756	0.4178
211.7926	0.4063
212.0096	0.3958
212.2265	0.412
212.4435	0.4246
212.6604	0.3935
212.8774	0.4033
213.0943	0.4401
213.3112	0.4096
213.5281	0.4042
213.745	0.4081
213.9619	0.3855
214.1788	0.4005
214.3956	0.4138
214.6125	0.3694
214.8293	0.4093
215.0461	0.4374
215.2629	0.3915
215.4798	0.3987
215.6965	0.3874
215.9133	0.3971
216.1301	0.3955
216.3469	0.3983
216.5636	0.3869
216.7803	0.4176
216.9971	0.4245
217.2138	0.3998
217.4305	0.4336
217.6472	0.413
217.8639	0.402
218.0805	0.4224
218.2972	0.4185
218.5138	0.4009
218.7305	0.4147
218.9471	0.396
219.1637	0.4169
219.3803	0.408
219.5969	0.4259
219.8135	0.4144
220.0301	0.3946
220.2466	0.4193
220.4632	0.4214
220.6797	0.41
220.8962	0.4423
221.1127	0.4091
221.3292	0.4215
221.5457	0.4274
221.7622	0.4467
221.9787	0.4458
222.1951	0.43
222.4116	0.4215
222.628	0.4358
222.8444	0.434
223.0608	0.4183
223.2772	0.4412
223.4936	0.4367
223.71	0.4541
223.9264	0.4411
224.1427	0.4594
224.3591	0.4611
224.5754	0.47
224.7917	0.4616
225.008	0.4507
225.2243	0.4597
225.4406	0.4708
225.6569	0.4524
225.8732	0.4469
226.0894	0.4654
226.3057	0.4533
226.5219	0.4773
226.7381	0.4649
226.9543	0.4737
227.1705	0.4901
227.3867	0.4843
227.6029	0.4786
227.8191	0.4821
228.0352	0.4978
228.2513	0.5087
228.4675	0.4974
228.6836	0.4967
228.8997	0.501
229.1158	0.4938
229.3319	0.5032
229.548	0.4936
229.764	0.495
229.9801	0.5099
230.1961	0.4978
230.4121	0.5168
230.6282	0.505
230.8442	0.5112
231.0602	0.519
231.2761	0.5149
231.4921	0.515
231.7081	0.5046
231.924	0.5193
232.14	0.53
232.3559	0.5222
232.5718	0.5373
232.7877	0.5272
233.0036	0.5124
233.2195	0.5155
233.4353	0.5263
233.6512	0.5302
233.867	0.5234
234.0829	0.5398
234.2987	0.5349
234.5145	0.5446
234.7303	0.5423
234.9461	0.5282
235.1619	0.5354
235.3776	0.5288
235.5934	0.5174
235.8091	0.5262
236.0249	0.529
236.2406	0.5339
236.4563	0.5459
236.672	0.5336
236.8877	0.5192
237.1034	0.5273
237.319	0.5316
237.5347	0.5192
237.7503	0.5278
237.966	0.5306
238.1816	0.5305
238.3972	0.5399
238.6128	0.5418
238.8284	0.5284
239.0439	0.5464
239.2595	0.5356
239.475	0.5352
239.6906	0.5271
239.9061	0.5289
240.1216	0.5241
240.3371	0.5278
240.5526	0.5201
240.7681	0.5222
240.9836	0.525
241.199	0.5192
241.4145	0.4962
241.6299	0.4903
241.8453	0.4985
242.0607	0.4858
242.2761	0.4842
242.4915	0.4671
242.7069	0.466
242.9223	0.4637
243.1376	0.4564
243.353	0.4439
243.5683	0.4478
243.7836	0.4206
243.9989	0.4223
244.2142	0.4118
244.4295	0.4024
244.6448	0.4039
244.86	0.3883
245.0753	0.3776
245.2905	0.3751
245.5057	0.3719
245.721	0.3596
245.9362	0.3456
246.1514	0.339
246.3665	0.3437
246.5817	0.3397
246.7969	0.3275
247.012	0.3222
247.2271	0.3084
247.4423	0.2992
247.6574	0.3062
247.8725	0.3058
248.0876	0.2959
248.3026	0.2826
248.5177	0.275
248.7328	0.2787
248.9478	0.2674
249.1628	0.2705
249.3779	0.2719
249.5929	0.2603
249.8079	0.2574
250.0228	0.2512
250.2378	0.2536
250.4528	0.2532
250.6677	0.2485
250.8827	0.2426
251.0976	0.2436
251.3125	0.2353
251.5274	0.2319
251.7423	0.225
251.9572	0.2229
252.172	0.2175
252.3869	0.2105
252.6017	0.2192
252.8166	0.2222
253.0314	0.2139
253.2462	0.2135
253.461	0.2128
253.6758	0.2119
253.8906	0.208
254.1053	0.2056
254.3201	0.2005
254.5348	0.2034
254.7496	0.2042
254.9643	0.2023
255.179	0.2014
255.3937	0.2046
255.6083	0.1964
255.823	0.1972
256.0377	0.2019
256.2523	0.1977
256.467	0.1995
256.6816	0.1973
256.8962	0.1955
257.1108	0.1931
257.3254	0.1898
257.54	0.1909
257.7545	0.1915
257.9691	0.1874
258.1836	0.1893
258.3981	0.1888
258.6127	0.1851
258.8272	0.1838
259.0417	0.1828
259.2561	0.1864
259.4706	0.1915
259.6851	0.1878
259.8995	0.1758
260.114	0.1886
260.3284	0.1877
260.5428	0.1838
260.7572	0.1915
260.9716	0.1855
261.186	0.1858
261.4003	0.1876
261.6147	0.1811
261.829	0.1805
262.0433	0.1828
262.2577	0.1917
262.472	0.1813
262.6863	0.1854
262.9005	0.1863
263.1148	0.1828
263.3291	0.1895
263.5433	0.1928
263.7576	0.187
263.9718	0.1866
264.186	0.1848
264.4002	0.1819
264.6144	0.1879
264.8286	0.1807
265.0427	0.1921
265.2569	0.1879
265.471	0.1846
265.6851	0.1825
265.8993	0.1844
266.1134	0.179
266.3275	0.1888
266.5415	0.1795
266.7556	0.1836
266.9697	0.1776
267.1837	0.1851
267.3978	0.1973
267.6118	0.187
267.8258	0.1848
268.0398	0.1812
268.2538	0.1805
268.4677	0.182
268.6817	0.1739
268.8957	0.1826
269.1096	0.1817
269.3235	0.1857
269.5374	0.1808
269.7514	0.1858
269.9652	0.1838
270.1791	0.1769
270.393	0.1818
270.6068	0.1722
270.8207	0.1771
271.0345	0.1813
271.2483	0.1808
271.4622	0.1779
271.676	0.1708
271.8897	0.1692
272.1035	0.1725
272.3173	0.1727
272.531	0.1738
272.7448	0.1692
272.9585	0.1713
273.1722	0.1731
273.3859	0.1655
273.5996	0.1725
273.8133	0.1672
274.0269	0.1793
274.2406	0.1686
274.4542	0.166
274.6679	0.1702
274.8815	0.1674
275.0951	0.1788
275.3087	0.1759
275.5223	0.1733
275.7358	0.1793
275.9494	0.1718
276.1629	0.1761
276.3765	0.1773
276.59	0.1735
276.8035	0.1827
277.017	0.1773
277.2305	0.1743
277.444	0.1733
277.6574	0.1779
277.8709	0.1744
278.0843	0.1777
278.2978	0.1798
278.5112	0.1784
278.7246	0.1781
278.938	0.1793
279.1513	0.1791
279.3647	0.1821
279.5781	0.1785
279.7914	0.1861
280.0047	0.179
280.2181	0.1809
280.4314	0.1795
280.6447	0.1847
280.8579	0.1749
281.0712	0.1813
281.2845	0.1849
281.4977	0.1861
281.711	0.1803
281.9242	0.1869
282.1374	0.1826
282.3506	0.1824
282.5638	0.1803
282.7769	0.1808
282.9901	0.1785
283.2033	0.1848
283.4164	0.1881
283.6295	0.1845
283.8426	0.1833
284.0557	0.1853
284.2688	0.1851
284.4819	0.1933
284.695	0.1905
284.908	0.1866
285.1211	0.1883
285.3341	0.1937
285.5471	0.1952
285.7601	0.1929
285.9731	0.1889
286.1861	0.1893
286.3991	0.1994
286.612	0.1958
286.825	0.19
287.0379	0.1921
287.2508	0.1954
287.4637	0.1951
287.6766	0.1966
287.8895	0.1879
288.1024	0.1963
288.3152	0.1941
288.5281	0.1941
288.7409	0.1963
288.9538	0.1965
289.1666	0.2021
289.3794	0.1948
289.5922	0.1999
289.8049	0.2051
290.0177	0.1917
290.2304	0.2027
290.4432	0.2013
290.6559	0.1934
290.8686	0.2001
291.0813	0.1984
291.294	0.2044
291.5067	0.2011
291.7194	0.2001
291.932	0.1986
292.1447	0.2049
292.3573	0.1996
292.5699	0.1986
292.7825	0.2014
292.9951	0.2046
293.2077	0.2007
293.4203	0.1944
293.6328	0.1945
293.8454	0.1981
294.0579	0.2036
294.2704	0.2028
294.4829	0.2002
294.6954	0.2015
294.9079	0.2069
295.1204	0.1992
295.3328	0.1983
295.5453	0.1971
295.7577	0.1908
295.9701	0.1953
296.1825	0.205
296.3949	0.2051
296.6073	0.2043
296.8197	0.1989
297.0321	0.1956
297.2444	0.1995
297.4567	0.2024
297.6691	0.2013
297.8814	0.198
298.0937	0.1936
298.306	0.1969
298.5182	0.2077
298.7305	0.1991
298.9428	0.1976
299.155	0.1966
299.3672	0.2082
299.5794	0.195
299.7916	0.1988
300.0038	0.1971
300.216	0.2019
300.4282	0.1884
300.6403	0.1968
300.8525	0.2001
301.0646	0.1944
301.2767	0.1959
301.4888	0.1948
301.7009	0.2023
301.913	0.2056
302.125	0.1979
302.3371	0.198
302.5491	0.194
302.7612	0.1925
302.9732	0.1924
303.1852	0.1967
303.3972	0.193
303.6092	0.1912
303.8211	0.1887
304.0331	0.1851
304.245	0.1897
304.457	0.1951
304.6689	0.1958
304.8808	0.1921
305.0927	0.1879
305.3046	0.1829
305.5164	0.1846
305.7283	0.1905
305.9401	0.1853
306.152	0.1812
306.3638	0.1789
306.5756	0.1848
306.7874	0.1801
306.9992	0.1832
307.2109	0.1752
307.4227	0.1759
307.6344	0.1719
307.8462	0.1713
308.0579	0.168
308.2696	0.1617
308.4813	0.1572
308.693	0.1619
308.9046	0.166
309.1163	0.1617
309.328	0.153
309.5396	0.1567
309.7512	0.1566
309.9628	0.1534
310.1744	0.1552
310.386	0.1434
310.5976	0.1458
310.8091	0.1429
311.0207	0.1476
311.2322	0.1463
311.4437	0.1441
311.6552	0.1437
311.8667	0.1376
312.0782	0.1455
312.2897	0.1395
312.5012	0.1415
312.7126	0.1273
312.924	0.1342
313.1355	0.1271
313.3469	0.1291
313.5583	0.1272
313.7696	0.1299
313.981	0.1231
314.1924	0.129
314.4037	0.1227
314.6151	0.1271
314.8264	0.1272
315.0377	0.1279
315.249	0.1243
315.4603	0.1236
315.6716	0.1277
315.8828	0.1199
316.0941	0.1272
316.3053	0.1198
316.5165	0.1223
316.7277	0.1238
316.9389	0.1162
317.1501	0.1263
317.3613	0.1161
317.5724	0.1194
317.7836	0.1132
317.9947	0.1174
318.2058	0.1215
318.417	0.1176
318.6281	0.1143
318.8391	0.1187
319.0502	0.112
319.2613	0.1165
319.4723	0.119
319.6834	0.1205
319.8944	0.1176
320.1054	0.116
320.3164	0.1224
320.5274	0.1148
320.7383	0.1113
320.9493	0.119
321.1602	0.1195
321.3712	0.1191
321.5821	0.1237
321.793	0.1171
322.0039	0.1135
322.2148	0.1173
322.4257	0.1201
322.6365	0.117
322.8474	0.1101
323.0582	0.1126
323.269	0.1164
323.4798	0.1173
323.6906	0.118
323.9014	0.1143
324.1122	0.1201
324.3229	0.1227
324.5337	0.1206
324.7444	0.1159
324.9551	0.1174
325.1658	0.1168
325.3765	0.1222
325.5872	0.1147
325.7979	0.1194
326.0085	0.1167
326.2192	0.1138
326.4298	0.1198
326.6404	0.1186
326.851	0.1219
327.0616	0.1188
327.2722	0.1261
327.4828	0.1217
327.6933	0.1171
327.9039	0.1252
328.1144	0.1209
328.3249	0.1214
328.5354	0.12
328.7459	0.1188
328.9564	0.125
329.1669	0.1254
329.3773	0.1168
329.5878	0.1181
329.7982	0.1199
330.0086	0.1207
330.219	0.1232
330.4294	0.1219
330.6398	0.1263
330.8502	0.1231
331.0605	0.127
331.2708	0.1239
331.4812	0.1284
331.6915	0.1218
331.9018	0.1194
332.1121	0.1248
332.3224	0.1251
332.5326	0.1252
332.7429	0.1205
332.9531	0.1273
333.1633	0.1245
333.3735	0.1246
333.5837	0.1311
333.7939	0.1278
334.0041	0.1229
334.2143	0.1254
334.4244	0.1265
334.6346	0.1236
334.8447	0.1319
335.0548	0.1292
335.2649	0.1296
335.475	0.1287
335.685	0.126
335.8951	0.131
336.1051	0.129
336.3152	0.1261
336.5252	0.125
336.7352	0.1226
336.9452	0.1368
337.1552	0.1287
337.3652	0.1267
337.5751	0.1188
337.7851	0.136
337.995	0.1333
338.2049	0.1307
338.4148	0.1255
338.6247	0.1372
338.8346	0.1266
339.0445	0.1333
339.2543	0.135
339.4642	0.1355
339.674	0.1352
339.8838	0.135
340.0936	0.1348
340.3034	0.1371
340.5132	0.1305
340.7229	0.1363
340.9327	0.1376
341.1424	0.1404
341.3522	0.1396
341.5619	0.1402
341.7716	0.1409
341.9813	0.1384
342.1909	0.1442
342.4006	0.1457
342.6102	0.1399
342.8199	0.1338
343.0295	0.1434
343.2391	0.1398
343.4487	0.1427
343.6583	0.143
343.8679	0.1409
344.0774	0.1444
344.287	0.1395
344.4965	0.1473
344.706	0.1466
344.9155	0.1515
345.125	0.1449
345.3345	0.1432
345.544	0.1516
345.7534	0.1454
345.9629	0.1532
346.1723	0.153
346.3817	0.1488
346.5911	0.1518
346.8005	0.1494
347.0099	0.1528
347.2193	0.1589
347.4286	0.1509
347.638	0.1558
347.8473	0.1562
348.0566	0.1542
348.2659	0.1624
348.4752	0.1526
348.6845	0.162
348.8937	0.1584
349.103	0.15
349.3122	0.1653
349.5214	0.1604
349.7306	0.1542
349.9398	0.1621
350.149	0.1626
350.3582	0.1631
350.5674	0.1665
350.7765	0.1638
350.9856	0.1684
351.1948	0.1636
351.4039	0.165
351.613	0.1736
351.822	0.1588
352.0311	0.1678
352.2402	0.1684
352.4492	0.1758
352.6582	0.1696
352.8672	0.1701
353.0762	0.177
353.2852	0.1689
353.4942	0.1771
353.7032	0.1712
353.9121	0.1698
354.1211	0.1736
354.33	0.1808
354.5389	0.1848
354.7478	0.1752
354.9567	0.1817
355.1655	0.1768
355.3744	0.1772
355.5833	0.1835
355.7921	0.1824
356.0009	0.1808
356.2097	0.1935
356.4185	0.1885
356.6273	0.1841
356.8361	0.1908
357.0448	0.1862
357.2536	0.1874
357.4623	0.1846
357.671	0.1847
357.8797	0.19
358.0884	0.1889
358.2971	0.19
358.5057	0.1899
358.7144	0.2003
358.923	0.195
359.1316	0.1923
359.3402	0.1962
359.5488	0.2027
359.7574	0.1952
359.966	0.203
360.1746	0.1976
360.3831	0.2019
360.5916	0.1971
360.8002	0.2107
361.0087	0.2147
361.2172	0.2106
361.4256	0.2007
361.6341	0.2114
361.8426	0.2026
362.051	0.2092
362.2594	0.2109
362.4678	0.2168
362.6762	0.2273
362.8846	0.2219
363.093	0.2143
363.3014	0.221
363.5097	0.2211
363.718	0.2307
363.9264	0.2231
364.1347	0.2336
364.343	0.235
364.5513	0.2307
364.7595	0.2307
364.9678	0.2348
365.176	0.2251
365.3842	0.2329
365.5925	0.2316
365.8007	0.2304
366.0089	0.2375
366.217	0.2388
366.4252	0.2377
366.6333	0.229
366.8415	0.2351
367.0496	0.2343
367.2577	0.2473
367.4658	0.2445
367.6739	0.2382
367.882	0.2438
368.09	0.2459
368.2981	0.2362
368.5061	0.2526
368.7141	0.2436
368.9221	0.2465
369.1301	0.2542
369.3381	0.2536
369.5461	0.254
369.754	0.2516
369.962	0.251
370.1699	0.2611
370.3778	0.2585
370.5857	0.254
370.7936	0.2598
371.0015	0.255
371.2093	0.262
371.4172	0.2642
371.625	0.2599
371.8328	0.2754
372.0406	0.26
372.2484	0.2632
372.4562	0.263
372.664	0.2624
372.8717	0.2686
373.0795	0.2702
373.2872	0.2596
373.4949	0.2816
373.7026	0.2836
373.9103	0.2712
374.118	0.2657
374.3256	0.2808
374.5333	0.2773
374.7409	0.2744
374.9485	0.2739
375.1561	0.2786
375.3637	0.2734
375.5713	0.2749
375.7789	0.2702
375.9864	0.2862
376.194	0.2875
376.4015	0.2771
376.609	0.289
376.8165	0.2903
377.024	0.2789
377.2315	0.2932
377.4389	0.2859
377.6464	0.2857
377.8538	0.2922
378.0612	0.2877
378.2686	0.2959
378.476	0.2859
378.6834	0.2897
378.8908	0.2965
379.0981	0.2979
379.3055	0.2998
379.5128	0.2958
379.7201	0.2904
379.9274	0.2912
380.1347	0.3007
380.342	0.3099
380.5492	0.2932
380.7565	0.298
380.9637	0.3027
381.1709	0.3065
381.3781	0.2997
381.5853	0.2971
381.7925	0.3041
381.9997	0.3124
382.2068	0.2966
382.4139	0.3005
382.6211	0.3131
382.8282	0.3057
383.0353	0.2997
383.2424	0.3079
383.4494	0.3149
383.6565	0.3092
383.8635	0.3252
384.0706	0.3137
384.2776	0.317
384.4846	0.3076
384.6916	0.3065
384.8986	0.3149
385.1055	0.3085
385.3125	0.3086
385.5194	0.3095
385.7263	0.3142
385.9333	0.3131
386.1402	0.3188
386.347	0.3154
386.5539	0.323
386.7608	0.3233
386.9676	0.3188
387.1744	0.3203
387.3813	0.3151
387.5881	0.313
387.7948	0.3155
388.0016	0.314
388.2084	0.3181
388.4151	0.3135
388.6219	0.3104
388.8286	0.307
389.0353	0.3088
389.242	0.3072
389.4487	0.3119
389.6553	0.2961
389.862	0.3095
390.0686	0.3016
390.2753	0.2957
390.4819	0.3037
390.6885	0.3007
390.8951	0.3146
391.1016	0.3109
391.3082	0.2933
391.5147	0.2996
391.7213	0.3013
391.9278	0.2997
392.1343	0.2972
392.3408	0.2888
392.5473	0.2812
392.7537	0.2831
392.9602	0.2878
393.1666	0.2907
393.373	0.2941
393.5794	0.2897
393.7858	0.293
393.9922	0.2927
394.1986	0.2787
394.4049	0.286
394.6113	0.295
394.8176	0.2705
395.0239	0.2804
395.2302	0.2699
395.4365	0.2799
395.6428	0.2848
395.8491	0.2721
396.0553	0.2766
396.2615	0.2695
396.4678	0.277
396.674	0.2778
396.8802	0.2661
397.0863	0.2659
397.2925	0.27
397.4987	0.2711
397.7048	0.275
397.9109	0.2736
398.117	0.263
398.3231	0.2759
398.5292	0.2679
398.7353	0.2655
398.9413	0.2675
399.1474	0.2723
399.3534	0.2651
399.5594	0.2679
399.7654	0.2698
399.9714	0.2604
400.1774	0.2661
400.3833	0.2719
400.5893	0.2659
400.7952	0.2752
401.0011	0.2677
401.207	0.2679
401.4129	0.2651
401.6188	0.2666
401.8247	0.2655
402.0305	0.2596
402.2364	0.2667
402.4422	0.2624
402.648	0.2678
402.8538	0.2794
403.0596	0.2574
403.2654	0.26
403.4711	0.2725
403.6768	0.2741
403.8826	0.2736
404.0883	0.2595
404.294	0.2631
404.4997	0.2653
404.7054	0.2574
404.911	0.2591
405.1167	0.2638
405.3223	0.2665
405.5279	0.2732
405.7335	0.2619
405.9391	0.2573
406.1447	0.2639
406.3502	0.2773
406.5558	0.2761
406.7613	0.2537
406.9668	0.2713
407.1724	0.274
407.3778	0.2574
407.5833	0.2566
407.7888	0.267
407.9942	0.2704
408.1997	0.2605
408.4051	0.2731
408.6105	0.2719
408.8159	0.2697
409.0213	0.2637
409.2267	0.2596
409.432	0.2681
409.6374	0.2743
409.8427	0.2746
410.048	0.268
410.2533	0.2683
410.4586	0.2689
410.6639	0.2608
410.8691	0.2729
411.0744	0.2654
411.2796	0.2768
411.4848	0.2613
411.69	0.2673
411.8952	0.2712
412.1004	0.2595
412.3056	0.2601
412.5107	0.2703
412.7158	0.2649
412.921	0.252
413.1261	0.2636
413.3312	0.2672
413.5362	0.2628
413.7413	0.2745
413.9464	0.2575
414.1514	0.2626
414.3564	0.2668
414.5614	0.2718
414.7664	0.2587
414.9714	0.2711
415.1764	0.2646
415.3813	0.2501
415.5863	0.2535
415.7912	0.2616
415.9961	0.2589
416.201	0.2613
416.4059	0.2516
416.6108	0.2559
416.8156	0.2562
417.0205	0.2643
417.2253	0.2633
417.4301	0.2505
417.6349	0.2502
417.8397	0.2676
418.0445	0.2548
418.2492	0.2624
418.454	0.2662
418.6587	0.2582
418.8634	0.2547
419.0681	0.2541
419.2728	0.2459
419.4775	0.26
419.6822	0.2445
419.8868	0.2555
420.0915	0.2511
420.2961	0.2431
420.5007	0.2454
420.7053	0.2558
420.9099	0.2403
421.1144	0.2468
421.319	0.2407
421.5235	0.2495
421.728	0.2427
421.9325	0.2432
422.137	0.2421
422.3415	0.248
422.546	0.2425
422.7504	0.2392
422.9549	0.2336
423.1593	0.2319
423.3637	0.2256
423.5681	0.2415
423.7725	0.2275
423.9769	0.2431
424.1812	0.2271
424.3856	0.2299
424.5899	0.235
424.7942	0.2319
424.9985	0.236
425.2028	0.2284
425.4071	0.2159
425.6113	0.2221
425.8156	0.2265
426.0198	0.2241
426.224	0.2186
426.4282	0.2271
426.6324	0.2262
426.8366	0.2238
