Data from MonoPyChalIsomerACN10uM450nmA_Absorbance_13-11-28-491.txt Node
Date: Tue Jul 09 13:11:28 BST 2024
User: LASERRRRR
Spectrometer: FLMT03099
Trigger mode: 0
Integration Time (sec): 2.000000E-1
Scans to average: 1
Electric dark correction enabled: true
Nonlinearity correction enabled: false
Boxcar width: 0
XAxis mode: Wavelengths
Number of Pixels in Spectrum: 3648
>>>>>Begin Spectral Data<<<<<
179.3399	0.9525
179.5586	0.9525
179.7771	0.9525
179.9957	-0.2749
180.2143	-0
180.4329	0.0448
180.6514	-0
180.8699	-0
181.0885	-0
181.307	-0
181.5255	-0
181.744	-0
181.9625	-0
182.181	-0.1933
182.3994	0.0222
182.6179	-0.0447
182.8363	-0
183.0547	-0.0281
183.2732	0.1696
183.4916	0.0847
183.71	0.0472
183.9284	0.0051
184.1467	0.1593
184.3651	0.1098
184.5835	0.0845
184.8018	0.0395
185.0201	0.1756
185.2385	0.0127
185.4568	0.1524
185.6751	0.1098
185.8934	0.0014
186.1117	0.006
186.3299	-0.0701
186.5482	-0.0087
186.7664	-0.027
186.9847	0.0492
187.2029	0.136
187.4211	0.0954
187.6393	-0.0358
187.8575	0.1156
188.0757	0.0097
188.2939	0.0956
188.512	0.0856
188.7302	0.0923
188.9483	0.1261
189.1665	0.1249
189.3846	0.1063
189.6027	0.2104
189.8208	0.0431
190.0389	0.3112
190.257	0.2259
190.475	0.1546
190.6931	0.1047
190.9111	0.2612
191.1292	0.3856
191.3472	0.1845
191.5652	0.4787
191.7832	0.349
192.0012	0.3319
192.2192	0.4775
192.4371	0.4295
192.6551	0.4621
192.873	0.4206
193.091	0.4533
193.3089	0.5314
193.5268	0.5513
193.7447	0.5578
193.9626	0.4444
194.1805	0.5915
194.3984	0.6261
194.6162	0.4813
194.8341	0.6402
195.0519	0.5213
195.2697	0.6184
195.4875	0.5283
195.7054	0.5866
195.9231	0.621
196.1409	0.5967
196.3587	0.5766
196.5765	0.669
196.7942	0.699
197.012	0.6605
197.2297	0.7323
197.4474	0.7247
197.6651	0.7318
197.8828	0.7038
198.1005	0.9276
198.3182	0.7604
198.5358	0.6772
198.7535	0.8276
198.9711	0.805
199.1888	0.7438
199.4064	0.8013
199.624	0.7815
199.8416	0.8078
200.0592	0.7175
200.2767	0.8744
200.4943	0.9636
200.7119	0.7518
200.9294	0.9296
201.1469	0.8528
201.3645	0.8028
201.582	0.9493
201.7995	0.805
202.017	0.8685
202.2344	0.8485
202.4519	1.0363
202.6694	0.8655
202.8868	0.9752
203.1042	1.0026
203.3217	1.0861
203.5391	1.0235
203.7565	0.9465
203.9739	0.867
204.1913	0.8371
204.4086	0.8689
204.626	1.0258
204.8433	0.8815
205.0607	0.9327
205.278	0.9286
205.4953	1.0652
205.7126	0.8829
205.9299	1.0115
206.1472	0.9126
206.3644	0.9918
206.5817	1.0468
206.7989	0.9888
207.0162	1.078
207.2334	0.9533
207.4506	0.9989
207.6678	1.0171
207.885	1.0547
208.1022	0.9819
208.3194	1.0545
208.5365	1.0466
208.7537	1.0521
208.9708	1.0365
209.1879	1.0122
209.405	1.0291
209.6222	1.0482
209.8392	1.1721
210.0563	1.0025
210.2734	1.0669
210.4905	1.0868
210.7075	0.9502
210.9245	1.0126
211.1416	1.1158
211.3586	1.147
211.5756	1.0907
211.7926	0.9981
212.0096	1.0479
212.2265	1.0634
212.4435	1.0952
212.6604	1.0838
212.8774	1.0036
213.0943	0.986
213.3112	0.9809
213.5281	1.0008
213.745	0.9995
213.9619	0.9295
214.1788	0.9759
214.3956	0.9191
214.6125	0.9512
214.8293	0.8912
215.0461	0.8729
215.2629	0.8681
215.4798	0.8558
215.6965	0.789
215.9133	0.8403
216.1301	0.8162
216.3469	0.7883
216.5636	0.7789
216.7803	0.7822
216.9971	0.7653
217.2138	0.6983
217.4305	0.7168
217.6472	0.6716
217.8639	0.6379
218.0805	0.5983
218.2972	0.5626
218.5138	0.5385
218.7305	0.5144
218.9471	0.4644
219.1637	0.4385
219.3803	0.4439
219.5969	0.4109
219.8135	0.3618
220.0301	0.3591
220.2466	0.3556
220.4632	0.3354
220.6797	0.3222
220.8962	0.3071
221.1127	0.3022
221.3292	0.3133
221.5457	0.286
221.7622	0.2833
221.9787	0.2807
222.1951	0.2816
222.4116	0.2804
222.628	0.273
222.8444	0.264
223.0608	0.2684
223.2772	0.2855
223.4936	0.2588
223.71	0.2746
223.9264	0.2754
224.1427	0.2599
224.3591	0.2635
224.5754	0.2793
224.7917	0.2772
225.008	0.2706
225.2243	0.2742
225.4406	0.2901
225.6569	0.2787
225.8732	0.2865
226.0894	0.273
226.3057	0.2683
226.5219	0.2889
226.7381	0.2863
226.9543	0.2858
227.1705	0.2786
227.3867	0.2975
227.6029	0.3004
227.8191	0.2989
228.0352	0.3013
228.2513	0.3113
228.4675	0.2962
228.6836	0.317
228.8997	0.3143
229.1158	0.3304
229.3319	0.3243
229.548	0.3139
229.764	0.3233
229.9801	0.3233
230.1961	0.3362
230.4121	0.335
230.6282	0.3257
230.8442	0.3305
231.0602	0.3359
231.2761	0.3395
231.4921	0.3434
231.7081	0.344
231.924	0.3496
232.14	0.3627
232.3559	0.3711
232.5718	0.3608
232.7877	0.361
233.0036	0.3599
233.2195	0.3528
233.4353	0.3625
233.6512	0.3784
233.867	0.382
234.0829	0.3775
234.2987	0.378
234.5145	0.3739
234.7303	0.3864
234.9461	0.4039
235.1619	0.3799
235.3776	0.3839
235.5934	0.3993
235.8091	0.4
236.0249	0.3782
236.2406	0.4021
236.4563	0.3864
236.672	0.3926
236.8877	0.4061
237.1034	0.4034
237.319	0.4105
237.5347	0.4008
237.7503	0.4059
237.966	0.4111
238.1816	0.4044
238.3972	0.3956
238.6128	0.4107
238.8284	0.4022
239.0439	0.4116
239.2595	0.4221
239.475	0.4194
239.6906	0.4135
239.9061	0.4086
240.1216	0.417
240.3371	0.4161
240.5526	0.4265
240.7681	0.4061
240.9836	0.4171
241.199	0.4089
241.4145	0.4066
241.6299	0.4083
241.8453	0.4085
242.0607	0.3898
242.2761	0.3956
242.4915	0.3858
242.7069	0.3863
242.9223	0.3765
243.1376	0.3688
243.353	0.3571
243.5683	0.3634
243.7836	0.3469
243.9989	0.3412
244.2142	0.3361
244.4295	0.3387
244.6448	0.3312
244.86	0.3273
245.0753	0.3101
245.2905	0.3024
245.5057	0.3113
245.721	0.3084
245.9362	0.2878
246.1514	0.2941
246.3665	0.2853
246.5817	0.2798
246.7969	0.2886
247.012	0.27
247.2271	0.2684
247.4423	0.266
247.6574	0.2704
247.8725	0.2592
248.0876	0.2567
248.3026	0.2525
248.5177	0.2542
248.7328	0.2438
248.9478	0.2419
249.1628	0.2478
249.3779	0.2269
249.5929	0.2264
249.8079	0.236
250.0228	0.2217
250.2378	0.2353
250.4528	0.2206
250.6677	0.2293
250.8827	0.2166
251.0976	0.212
251.3125	0.2191
251.5274	0.2048
251.7423	0.2153
251.9572	0.2145
252.172	0.2163
252.3869	0.2096
252.6017	0.203
252.8166	0.2082
253.0314	0.2086
253.2462	0.2068
253.461	0.2063
253.6758	0.1975
253.8906	0.198
254.1053	0.2054
254.3201	0.2027
254.5348	0.2073
254.7496	0.2032
254.9643	0.199
255.179	0.2009
255.3937	0.2046
255.6083	0.1956
255.823	0.195
256.0377	0.187
256.2523	0.1927
256.467	0.194
256.6816	0.1895
256.8962	0.2001
257.1108	0.2023
257.3254	0.1952
257.54	0.1988
257.7545	0.1876
257.9691	0.1964
258.1836	0.1879
258.3981	0.1919
258.6127	0.1965
258.8272	0.1938
259.0417	0.1926
259.2561	0.1952
259.4706	0.1897
259.6851	0.1939
259.8995	0.1951
260.114	0.1954
260.3284	0.2016
260.5428	0.1974
260.7572	0.1995
260.9716	0.1967
261.186	0.1998
261.4003	0.2091
261.6147	0.1955
261.829	0.2003
262.0433	0.1951
262.2577	0.198
262.472	0.2022
262.6863	0.186
262.9005	0.201
263.1148	0.1915
263.3291	0.1842
263.5433	0.1863
263.7576	0.1949
263.9718	0.1952
264.186	0.1875
264.4002	0.1909
264.6144	0.1895
264.8286	0.1833
265.0427	0.188
265.2569	0.1768
265.471	0.1849
265.6851	0.18
265.8993	0.1788
266.1134	0.1784
266.3275	0.1772
266.5415	0.1758
266.7556	0.1871
266.9697	0.1842
267.1837	0.1773
267.3978	0.184
267.6118	0.1909
267.8258	0.1894
268.0398	0.1922
268.2538	0.1941
268.4677	0.1976
268.6817	0.1907
268.8957	0.1997
269.1096	0.1826
269.3235	0.1853
269.5374	0.1755
269.7514	0.1657
269.9652	0.1693
270.1791	0.1583
270.393	0.1664
270.6068	0.1505
270.8207	0.1547
271.0345	0.1622
271.2483	0.1565
271.4622	0.1526
271.676	0.15
271.8897	0.1505
272.1035	0.139
272.3173	0.149
272.531	0.1519
272.7448	0.1506
272.9585	0.1438
273.1722	0.1417
273.3859	0.1365
273.5996	0.1447
273.8133	0.1446
274.0269	0.1503
274.2406	0.1441
274.4542	0.1462
274.6679	0.1478
274.8815	0.151
275.0951	0.1474
275.3087	0.1414
275.5223	0.1401
275.7358	0.1529
275.9494	0.1615
276.1629	0.1443
276.3765	0.1485
276.59	0.1499
276.8035	0.1515
277.017	0.1522
277.2305	0.1476
277.444	0.1498
277.6574	0.1508
277.8709	0.152
278.0843	0.1505
278.2978	0.1513
278.5112	0.1493
278.7246	0.1444
278.938	0.1503
279.1513	0.15
279.3647	0.1471
279.5781	0.1539
279.7914	0.1521
280.0047	0.1524
280.2181	0.153
280.4314	0.1534
280.6447	0.1588
280.8579	0.1518
281.0712	0.1599
281.2845	0.1484
281.4977	0.1568
281.711	0.1576
281.9242	0.1538
282.1374	0.1569
282.3506	0.1471
282.5638	0.1604
282.7769	0.1647
282.9901	0.1493
283.2033	0.1615
283.4164	0.1582
283.6295	0.1626
283.8426	0.1563
284.0557	0.1552
284.2688	0.1563
284.4819	0.1497
284.695	0.1533
284.908	0.1592
285.1211	0.1597
285.3341	0.1577
285.5471	0.1618
285.7601	0.1582
285.9731	0.1558
286.1861	0.1559
286.3991	0.1629
286.612	0.1589
286.825	0.158
287.0379	0.1613
287.2508	0.1573
287.4637	0.1591
287.6766	0.1562
287.8895	0.1622
288.1024	0.1598
288.3152	0.1554
288.5281	0.1612
288.7409	0.1519
288.9538	0.1593
289.1666	0.1572
289.3794	0.1586
289.5922	0.1626
289.8049	0.1599
290.0177	0.1651
290.2304	0.1553
290.4432	0.1563
290.6559	0.1559
290.8686	0.1549
291.0813	0.1604
291.294	0.1621
291.5067	0.1548
291.7194	0.1584
291.932	0.1581
292.1447	0.1565
292.3573	0.1616
292.5699	0.1703
292.7825	0.1621
292.9951	0.1581
293.2077	0.1556
293.4203	0.1598
293.6328	0.1639
293.8454	0.1534
294.0579	0.1526
294.2704	0.1573
294.4829	0.1592
294.6954	0.156
294.9079	0.1564
295.1204	0.1551
295.3328	0.1616
295.5453	0.1509
295.7577	0.1527
295.9701	0.1564
296.1825	0.1614
296.3949	0.1497
296.6073	0.1596
296.8197	0.1555
297.0321	0.153
297.2444	0.1534
297.4567	0.1488
297.6691	0.1466
297.8814	0.1486
298.0937	0.1555
298.306	0.1556
298.5182	0.1464
298.7305	0.1569
298.9428	0.1487
299.155	0.1572
299.3672	0.1494
299.5794	0.1532
299.7916	0.1548
300.0038	0.1491
300.216	0.1581
300.4282	0.1536
300.6403	0.1515
300.8525	0.1652
301.0646	0.1573
301.2767	0.154
301.4888	0.1486
301.7009	0.155
301.913	0.1619
302.125	0.1543
302.3371	0.1569
302.5491	0.1515
302.7612	0.1547
302.9732	0.1626
303.1852	0.1504
303.3972	0.1515
303.6092	0.1513
303.8211	0.1571
304.0331	0.1525
304.245	0.1533
304.457	0.1473
304.6689	0.1516
304.8808	0.1503
305.0927	0.1533
305.3046	0.1411
305.5164	0.1478
305.7283	0.1508
305.9401	0.1422
306.152	0.1468
306.3638	0.1512
306.5756	0.1413
306.7874	0.1422
306.9992	0.1343
307.2109	0.1301
307.4227	0.1329
307.6344	0.1286
307.8462	0.1285
308.0579	0.1243
308.2696	0.1259
308.4813	0.1282
308.693	0.125
308.9046	0.1161
309.1163	0.1241
309.328	0.1171
309.5396	0.1135
309.7512	0.1227
309.9628	0.1172
310.1744	0.1285
310.386	0.1081
310.5976	0.1171
310.8091	0.1123
311.0207	0.1224
311.2322	0.1187
311.4437	0.1174
311.6552	0.1124
311.8667	0.1085
312.0782	0.1093
312.2897	0.1084
312.5012	0.1134
312.7126	0.1033
312.924	0.1047
313.1355	0.1047
313.3469	0.1097
313.5583	0.112
313.7696	0.1034
313.981	0.1055
314.1924	0.1078
314.4037	0.0999
314.6151	0.0873
314.8264	0.1034
315.0377	0.102
315.249	0.1057
315.4603	0.1092
315.6716	0.1073
315.8828	0.103
316.0941	0.0996
316.3053	0.0977
316.5165	0.0893
316.7277	0.0957
316.9389	0.101
317.1501	0.0924
317.3613	0.0963
317.5724	0.0961
317.7836	0.0995
317.9947	0.1001
318.2058	0.0946
318.417	0.0941
318.6281	0.1026
318.8391	0.0942
319.0502	0.0918
319.2613	0.0946
319.4723	0.0919
319.6834	0.0967
319.8944	0.1029
320.1054	0.0943
320.3164	0.1028
320.5274	0.1041
320.7383	0.0884
320.9493	0.097
321.1602	0.1012
321.3712	0.1076
321.5821	0.0991
321.793	0.0852
322.0039	0.1007
322.2148	0.0952
322.4257	0.1002
322.6365	0.093
322.8474	0.0985
323.0582	0.1094
323.269	0.0978
323.4798	0.104
323.6906	0.1072
323.9014	0.1006
324.1122	0.1042
324.3229	0.1079
324.5337	0.0921
324.7444	0.0992
324.9551	0.1036
325.1658	0.0992
325.3765	0.1038
325.5872	0.0985
325.7979	0.104
326.0085	0.1048
326.2192	0.1106
326.4298	0.112
326.6404	0.1047
326.851	0.0955
327.0616	0.0981
327.2722	0.1091
327.4828	0.1061
327.6933	0.104
327.9039	0.1044
328.1144	0.1113
328.3249	0.1058
328.5354	0.1026
328.7459	0.0997
328.9564	0.1076
329.1669	0.1069
329.3773	0.1107
329.5878	0.1109
329.7982	0.1137
330.0086	0.1147
330.219	0.1116
330.4294	0.1008
330.6398	0.104
330.8502	0.1106
331.0605	0.1102
331.2708	0.1071
331.4812	0.1097
331.6915	0.1053
331.9018	0.1068
332.1121	0.109
332.3224	0.108
332.5326	0.1032
332.7429	0.1128
332.9531	0.1077
333.1633	0.1173
333.3735	0.1144
333.5837	0.1042
333.7939	0.1083
334.0041	0.1079
334.2143	0.1065
334.4244	0.1051
334.6346	0.1088
334.8447	0.1116
335.0548	0.1128
335.2649	0.1036
335.475	0.1072
335.685	0.1119
335.8951	0.1129
336.1051	0.1019
336.3152	0.113
336.5252	0.1112
336.7352	0.1138
336.9452	0.1094
337.1552	0.1137
337.3652	0.1103
337.5751	0.1163
337.7851	0.1119
337.995	0.1153
338.2049	0.1083
338.4148	0.1142
338.6247	0.1081
338.8346	0.1112
339.0445	0.118
339.2543	0.1101
339.4642	0.1163
339.674	0.1041
339.8838	0.1102
340.0936	0.1149
340.3034	0.1213
340.5132	0.1178
340.7229	0.1223
340.9327	0.1223
341.1424	0.1232
341.3522	0.1147
341.5619	0.1225
341.7716	0.1204
341.9813	0.1198
342.1909	0.1241
342.4006	0.115
342.6102	0.1193
342.8199	0.1206
343.0295	0.1257
343.2391	0.1292
343.4487	0.1234
343.6583	0.1203
343.8679	0.1211
344.0774	0.1261
344.287	0.1327
344.4965	0.1175
344.706	0.1326
344.9155	0.1245
345.125	0.1347
345.3345	0.135
345.544	0.1192
345.7534	0.1235
345.9629	0.1311
346.1723	0.134
346.3817	0.137
346.5911	0.1302
346.8005	0.133
347.0099	0.122
347.2193	0.1315
347.4286	0.1414
347.638	0.135
347.8473	0.1287
348.0566	0.1378
348.2659	0.1231
348.4752	0.1335
348.6845	0.1338
348.8937	0.1377
349.103	0.1394
349.3122	0.1426
349.5214	0.1403
349.7306	0.1355
349.9398	0.13
350.149	0.1353
350.3582	0.1294
350.5674	0.1461
350.7765	0.1401
350.9856	0.1432
351.1948	0.1364
351.4039	0.1464
351.613	0.1314
351.822	0.1465
352.0311	0.1438
352.2402	0.1444
352.4492	0.1369
352.6582	0.1475
352.8672	0.145
353.0762	0.1483
353.2852	0.1551
353.4942	0.1561
353.7032	0.1476
353.9121	0.1582
354.1211	0.1457
354.33	0.1444
354.5389	0.149
354.7478	0.1538
354.9567	0.1468
355.1655	0.1466
355.3744	0.1565
355.5833	0.154
355.7921	0.1495
356.0009	0.152
356.2097	0.1473
356.4185	0.1501
356.6273	0.1576
356.8361	0.1473
357.0448	0.1585
357.2536	0.153
357.4623	0.1564
357.671	0.1544
357.8797	0.1675
358.0884	0.1669
358.2971	0.1627
358.5057	0.1622
358.7144	0.1575
358.923	0.1789
359.1316	0.1659
359.3402	0.168
359.5488	0.1586
359.7574	0.1764
359.966	0.1712
360.1746	0.172
360.3831	0.1789
360.5916	0.1666
360.8002	0.1716
361.0087	0.1738
361.2172	0.1735
361.4256	0.173
361.6341	0.1655
361.8426	0.1813
362.051	0.1769
362.2594	0.1783
362.4678	0.1852
362.6762	0.1761
362.8846	0.1825
363.093	0.1743
363.3014	0.1829
363.5097	0.1755
363.718	0.1953
363.9264	0.1806
364.1347	0.1899
364.343	0.175
364.5513	0.1774
364.7595	0.1887
364.9678	0.1855
365.176	0.1836
365.3842	0.1835
365.5925	0.1914
365.8007	0.1878
366.0089	0.1939
366.217	0.1927
366.4252	0.193
366.6333	0.19
366.8415	0.1887
367.0496	0.1876
367.2577	0.1994
367.4658	0.1891
367.6739	0.1965
367.882	0.199
368.09	0.1955
368.2981	0.2033
368.5061	0.1856
368.7141	0.1989
368.9221	0.2012
369.1301	0.2119
369.3381	0.2072
369.5461	0.2016
369.754	0.1982
369.962	0.2032
370.1699	0.2044
370.3778	0.2047
370.5857	0.219
370.7936	0.202
371.0015	0.2057
371.2093	0.2031
371.4172	0.2099
371.625	0.2054
371.8328	0.2198
372.0406	0.2147
372.2484	0.2083
372.4562	0.2034
372.664	0.2148
372.8717	0.2089
373.0795	0.211
373.2872	0.2146
373.4949	0.2104
373.7026	0.2185
373.9103	0.2156
374.118	0.2199
374.3256	0.2246
374.5333	0.2112
374.7409	0.2117
374.9485	0.2176
375.1561	0.218
375.3637	0.2196
375.5713	0.2205
375.7789	0.211
375.9864	0.2224
376.194	0.2235
376.4015	0.2234
376.609	0.2288
376.8165	0.2074
377.024	0.2107
377.2315	0.2251
377.4389	0.2273
377.6464	0.2134
377.8538	0.2171
378.0612	0.2241
378.2686	0.2224
378.476	0.2199
378.6834	0.2269
378.8908	0.2264
379.0981	0.2339
379.3055	0.2306
379.5128	0.2211
379.7201	0.2224
379.9274	0.2324
380.1347	0.2385
380.342	0.2312
380.5492	0.2322
380.7565	0.2356
380.9637	0.2421
381.1709	0.2353
381.3781	0.2274
381.5853	0.2385
381.7925	0.2268
381.9997	0.2294
382.2068	0.2365
382.4139	0.2352
382.6211	0.2299
382.8282	0.2282
383.0353	0.2401
383.2424	0.2457
383.4494	0.2446
383.6565	0.2294
383.8635	0.2383
384.0706	0.2379
384.2776	0.2356
384.4846	0.2457
384.6916	0.2393
384.8986	0.2456
385.1055	0.2413
385.3125	0.2502
385.5194	0.2482
385.7263	0.2417
385.9333	0.2379
386.1402	0.2411
386.347	0.2564
386.5539	0.2385
386.7608	0.2425
386.9676	0.2371
387.1744	0.2346
387.3813	0.2406
387.5881	0.2378
387.7948	0.2442
388.0016	0.2242
388.2084	0.2381
388.4151	0.2333
388.6219	0.2367
388.8286	0.2432
389.0353	0.2329
389.242	0.2285
389.4487	0.2232
389.6553	0.2191
389.862	0.2302
390.0686	0.2255
390.2753	0.2231
390.4819	0.232
390.6885	0.2218
390.8951	0.2283
391.1016	0.234
391.3082	0.2289
391.5147	0.2212
391.7213	0.2231
391.9278	0.2219
392.1343	0.2224
392.3408	0.2151
392.5473	0.2188
392.7537	0.2198
392.9602	0.2082
393.1666	0.2157
393.373	0.2225
393.5794	0.2181
393.7858	0.2047
393.9922	0.2043
394.1986	0.2127
394.4049	0.2095
394.6113	0.213
394.8176	0.1972
395.0239	0.2006
395.2302	0.2083
395.4365	0.214
395.6428	0.2083
395.8491	0.1928
396.0553	0.2055
396.2615	0.1963
396.4678	0.2067
396.674	0.197
396.8802	0.1992
397.0863	0.1975
397.2925	0.1949
397.4987	0.2003
397.7048	0.1971
397.9109	0.2064
398.117	0.1903
398.3231	0.2044
398.5292	0.1968
398.7353	0.1957
398.9413	0.2008
399.1474	0.2031
399.3534	0.1854
399.5594	0.1978
399.7654	0.195
399.9714	0.1941
400.1774	0.2028
400.3833	0.1988
400.5893	0.2041
400.7952	0.1881
401.0011	0.1952
401.207	0.1905
401.4129	0.1975
401.6188	0.1842
401.8247	0.1922
402.0305	0.1912
402.2364	0.1913
402.4422	0.1941
402.648	0.1989
402.8538	0.2029
403.0596	0.192
403.2654	0.1785
403.4711	0.1917
403.6768	0.1976
403.8826	0.1939
404.0883	0.1946
404.294	0.1937
404.4997	0.1928
404.7054	0.1815
404.911	0.1953
405.1167	0.1907
405.3223	0.1859
405.5279	0.2006
405.7335	0.1865
405.9391	0.1981
406.1447	0.1961
406.3502	0.1908
406.5558	0.1927
406.7613	0.1854
406.9668	0.197
407.1724	0.1926
407.3778	0.1958
407.5833	0.1894
407.7888	0.197
407.9942	0.1896
408.1997	0.1931
408.4051	0.1885
408.6105	0.2029
408.8159	0.2037
409.0213	0.197
409.2267	0.2007
409.432	0.1864
409.6374	0.1921
409.8427	0.2109
410.048	0.1945
410.2533	0.1875
410.4586	0.1974
410.6639	0.1838
410.8691	0.1846
411.0744	0.1885
411.2796	0.1979
411.4848	0.1848
411.69	0.2004
411.8952	0.1914
412.1004	0.187
412.3056	0.206
412.5107	0.2074
412.7158	0.1808
412.921	0.1919
413.1261	0.1876
413.3312	0.1986
413.5362	0.1967
413.7413	0.1858
413.9464	0.1918
414.1514	0.1817
414.3564	0.196
414.5614	0.1967
414.7664	0.1955
414.9714	0.1827
415.1764	0.1871
415.3813	0.1909
415.5863	0.1813
415.7912	0.1946
415.9961	0.1917
416.201	0.1921
416.4059	0.1917
416.6108	0.1851
416.8156	0.1891
417.0205	0.1826
417.2253	0.1973
417.4301	0.1882
417.6349	0.1914
417.8397	0.1837
418.0445	0.1844
418.2492	0.1823
418.454	0.1786
418.6587	0.1788
418.8634	0.1732
419.0681	0.1855
419.2728	0.1834
419.4775	0.1752
419.6822	0.178
419.8868	0.1704
420.0915	0.1921
420.2961	0.1815
420.5007	0.182
420.7053	0.1705
420.9099	0.168
421.1144	0.185
421.319	0.1648
421.5235	0.1811
421.728	0.1675
421.9325	0.1639
422.137	0.1637
422.3415	0.1773
422.546	0.1722
422.7504	0.1769
422.9549	0.1745
423.1593	0.1697
423.3637	0.1694
423.5681	0.1905
423.7725	0.1603
423.9769	0.1721
424.1812	0.1555
424.3856	0.1625
424.5899	0.1748
424.7942	0.1594
424.9985	0.1623
425.2028	0.153
425.4071	0.1499
425.6113	0.1671
425.8156	0.1492
426.0198	0.1683
426.224	0.1543
426.4282	0.1501
426.6324	0.1578
426.8366	0.1557
