Data from MonoPyChalIsomerACN10uM450nmA_Absorbance_13-11-20-091.txt Node
Date: Tue Jul 09 13:11:20 BST 2024
User: LASERRRRR
Spectrometer: FLMT03099
Trigger mode: 0
Integration Time (sec): 2.000000E-1
Scans to average: 1
Electric dark correction enabled: true
Nonlinearity correction enabled: false
Boxcar width: 0
XAxis mode: Wavelengths
Number of Pixels in Spectrum: 3648
>>>>>Begin Spectral Data<<<<<
179.3399	0.1258
179.5586	0.1258
179.7771	0.1258
179.9957	-0
180.2143	-0.0721
180.4329	0.5398
180.6514	1.2236
180.8699	-0
181.0885	-0
181.307	-0
181.5255	0.2174
181.744	-0.5716
181.9625	0.0772
182.181	-0.3237
182.3994	-0
182.6179	-0.236
182.8363	0.8846
183.0547	0.3216
183.2732	0.1795
183.4916	0.1188
183.71	0.0262
183.9284	0.0501
184.1467	0.0371
184.3651	0.0447
184.5835	0.1487
184.8018	-0.0265
185.0201	0.1562
185.2385	0.0944
185.4568	-0.0463
185.6751	0.1175
185.8934	0.0178
186.1117	0.0647
186.3299	-0.0728
186.5482	-0.0066
186.7664	0.13
186.9847	0.1927
187.2029	0.1174
187.4211	0.0865
187.6393	-0.0148
187.8575	0.0673
188.0757	0.0178
188.2939	0.0112
188.512	0.0083
188.7302	-0.0121
188.9483	0.1597
189.1665	0.025
189.3846	0.3116
189.6027	0.1677
189.8208	0.2472
190.0389	0.2284
190.257	0.1533
190.475	0.3121
190.6931	0.0579
190.9111	0.3248
191.1292	0.2984
191.3472	0.317
191.5652	0.319
191.7832	0.3462
192.0012	0.3976
192.2192	0.4937
192.4371	0.5045
192.6551	0.4744
192.873	0.4343
193.091	0.4621
193.3089	0.4905
193.5268	0.5482
193.7447	0.3966
193.9626	0.6186
194.1805	0.5303
194.3984	0.6393
194.6162	0.6341
194.8341	0.5879
195.0519	0.6517
195.2697	0.5398
195.4875	0.6131
195.7054	0.561
195.9231	0.6164
196.1409	0.6026
196.3587	0.6924
196.5765	0.6267
196.7942	0.6823
197.012	0.6449
197.2297	0.6642
197.4474	0.9752
197.6651	0.7476
197.8828	0.9599
198.1005	0.9234
198.3182	0.8274
198.5358	0.7819
198.7535	0.8128
198.9711	0.8001
199.1888	0.8067
199.4064	0.7336
199.624	0.8049
199.8416	0.8545
200.0592	0.8473
200.2767	0.8454
200.4943	0.779
200.7119	0.9314
200.9294	0.9062
201.1469	0.8462
201.3645	0.8529
201.582	0.873
201.7995	0.8157
202.017	0.9242
202.2344	0.7854
202.4519	0.91
202.6694	0.7745
202.8868	0.8797
203.1042	0.9731
203.3217	0.9818
203.5391	0.9451
203.7565	1.0066
203.9739	0.919
204.1913	0.8551
204.4086	0.9198
204.626	0.9371
204.8433	0.9095
205.0607	1.0516
205.278	0.887
205.4953	1.0335
205.7126	0.8766
205.9299	1.0007
206.1472	1.023
206.3644	0.9785
206.5817	1.0487
206.7989	1.0674
207.0162	1.1402
207.2334	0.935
207.4506	0.9823
207.6678	1.1161
207.885	1.0445
208.1022	1.1365
208.3194	1.0635
208.5365	1.0483
208.7537	1.0427
208.9708	1.1255
209.1879	1.1666
209.405	1.1207
209.6222	1.0548
209.8392	1.0525
210.0563	1.0038
210.2734	1.0843
210.4905	1.0883
210.7075	1.0303
210.9245	1.0108
211.1416	1.0541
211.3586	1.1273
211.5756	1.0685
211.7926	1.0549
212.0096	1.0669
212.2265	1.0228
212.4435	1.0792
212.6604	1.0643
212.8774	1.0388
213.0943	0.9747
213.3112	0.9831
213.5281	1.039
213.745	1.0006
213.9619	0.9853
214.1788	0.9838
214.3956	0.9087
214.6125	0.9142
214.8293	0.892
215.0461	0.9263
215.2629	0.8802
215.4798	0.8639
215.6965	0.7924
215.9133	0.8685
216.1301	0.824
216.3469	0.8328
216.5636	0.7878
216.7803	0.7925
216.9971	0.7899
217.2138	0.7152
217.4305	0.7331
217.6472	0.6896
217.8639	0.648
218.0805	0.6345
218.2972	0.5823
218.5138	0.5459
218.7305	0.5214
218.9471	0.4796
219.1637	0.4446
219.3803	0.4283
219.5969	0.4113
219.8135	0.3766
220.0301	0.3656
220.2466	0.359
220.4632	0.3309
220.6797	0.3157
220.8962	0.3069
221.1127	0.3059
221.3292	0.3071
221.5457	0.277
221.7622	0.2914
221.9787	0.2821
222.1951	0.2952
222.4116	0.2805
222.628	0.2813
222.8444	0.2776
223.0608	0.2732
223.2772	0.2716
223.4936	0.2685
223.71	0.2742
223.9264	0.2811
224.1427	0.2688
224.3591	0.271
224.5754	0.2739
224.7917	0.2763
225.008	0.2752
225.2243	0.2783
225.4406	0.2937
225.6569	0.2797
225.8732	0.289
226.0894	0.2737
226.3057	0.2838
226.5219	0.2897
226.7381	0.3002
226.9543	0.2802
227.1705	0.299
227.3867	0.2997
227.6029	0.3002
227.8191	0.2988
228.0352	0.2922
228.2513	0.3152
228.4675	0.3068
228.6836	0.3177
228.8997	0.3105
229.1158	0.3131
229.3319	0.3123
229.548	0.3289
229.764	0.3185
229.9801	0.3311
230.1961	0.339
230.4121	0.3377
230.6282	0.3521
230.8442	0.3463
231.0602	0.3482
231.2761	0.3456
231.4921	0.3445
231.7081	0.371
231.924	0.3569
232.14	0.3679
232.3559	0.3824
232.5718	0.3517
232.7877	0.3712
233.0036	0.3725
233.2195	0.3731
233.4353	0.3695
233.6512	0.3736
233.867	0.3831
234.0829	0.3864
234.2987	0.3684
234.5145	0.3791
234.7303	0.3893
234.9461	0.3954
235.1619	0.3915
235.3776	0.3782
235.5934	0.3954
235.8091	0.394
236.0249	0.4018
236.2406	0.3988
236.4563	0.3926
236.672	0.4004
236.8877	0.398
237.1034	0.4123
237.319	0.4013
237.5347	0.4046
237.7503	0.4048
237.966	0.4199
238.1816	0.4103
238.3972	0.4165
238.6128	0.4051
238.8284	0.4095
239.0439	0.4135
239.2595	0.4301
239.475	0.4104
239.6906	0.4212
239.9061	0.4085
240.1216	0.4217
240.3371	0.4236
240.5526	0.432
240.7681	0.4121
240.9836	0.4172
241.199	0.4061
241.4145	0.4019
241.6299	0.4034
241.8453	0.3996
242.0607	0.3831
242.2761	0.3914
242.4915	0.3817
242.7069	0.3832
242.9223	0.3687
243.1376	0.3558
243.353	0.3517
243.5683	0.3517
243.7836	0.3472
243.9989	0.3391
244.2142	0.3239
244.4295	0.3285
244.6448	0.3319
244.86	0.3145
245.0753	0.3137
245.2905	0.2943
245.5057	0.2985
245.721	0.2973
245.9362	0.2774
246.1514	0.2822
246.3665	0.2878
246.5817	0.2617
246.7969	0.2728
247.012	0.269
247.2271	0.2646
247.4423	0.2674
247.6574	0.2613
247.8725	0.2497
248.0876	0.2436
248.3026	0.2527
248.5177	0.2504
248.7328	0.2319
248.9478	0.2363
249.1628	0.2369
249.3779	0.224
249.5929	0.2273
249.8079	0.2258
250.0228	0.232
250.2378	0.2263
250.4528	0.2116
250.6677	0.2183
250.8827	0.2072
251.0976	0.2131
251.3125	0.2177
251.5274	0.2002
251.7423	0.2095
251.9572	0.2055
252.172	0.2016
252.3869	0.2037
252.6017	0.2021
252.8166	0.2094
253.0314	0.2057
253.2462	0.2095
253.461	0.2072
253.6758	0.2016
253.8906	0.2062
254.1053	0.2041
254.3201	0.2007
254.5348	0.2032
254.7496	0.203
254.9643	0.1994
255.179	0.1973
255.3937	0.204
255.6083	0.2027
255.823	0.1953
256.0377	0.1921
256.2523	0.2065
256.467	0.2003
256.6816	0.194
256.8962	0.198
257.1108	0.198
257.3254	0.198
257.54	0.1961
257.7545	0.2009
257.9691	0.2054
258.1836	0.19
258.3981	0.199
258.6127	0.197
258.8272	0.1995
259.0417	0.1909
259.2561	0.1991
259.4706	0.1905
259.6851	0.1907
259.8995	0.1938
260.114	0.1892
260.3284	0.1999
260.5428	0.195
260.7572	0.1998
260.9716	0.1928
261.186	0.199
261.4003	0.2042
261.6147	0.1975
261.829	0.2009
262.0433	0.2015
262.2577	0.2006
262.472	0.1907
262.6863	0.1931
262.9005	0.1946
263.1148	0.1879
263.3291	0.188
263.5433	0.1931
263.7576	0.193
263.9718	0.1939
264.186	0.1923
264.4002	0.189
264.6144	0.1831
264.8286	0.1787
265.0427	0.1814
265.2569	0.1822
265.471	0.1747
265.6851	0.1759
265.8993	0.1707
266.1134	0.1653
266.3275	0.1873
266.5415	0.1814
266.7556	0.1806
266.9697	0.1769
267.1837	0.1805
267.3978	0.1869
267.6118	0.1889
267.8258	0.1812
268.0398	0.1989
268.2538	0.1912
268.4677	0.1916
268.6817	0.1909
268.8957	0.1838
269.1096	0.1851
269.3235	0.18
269.5374	0.1888
269.7514	0.1693
269.9652	0.1651
270.1791	0.1626
270.393	0.1539
270.6068	0.1569
270.8207	0.1493
271.0345	0.1606
271.2483	0.1502
271.4622	0.1441
271.676	0.1427
271.8897	0.1408
272.1035	0.1356
272.3173	0.1476
272.531	0.1441
272.7448	0.1385
272.9585	0.1478
273.1722	0.1281
273.3859	0.1323
273.5996	0.1341
273.8133	0.1433
274.0269	0.1446
274.2406	0.1403
274.4542	0.1389
274.6679	0.1346
274.8815	0.1425
275.0951	0.1399
275.3087	0.1303
275.5223	0.1387
275.7358	0.1428
275.9494	0.1391
276.1629	0.1433
276.3765	0.14
276.59	0.1422
276.8035	0.1425
277.017	0.1457
277.2305	0.1397
277.444	0.141
277.6574	0.1416
277.8709	0.1457
278.0843	0.1445
278.2978	0.1395
278.5112	0.142
278.7246	0.1454
278.938	0.1454
279.1513	0.1431
279.3647	0.1448
279.5781	0.14
279.7914	0.1426
280.0047	0.1476
280.2181	0.1488
280.4314	0.1443
280.6447	0.1479
280.8579	0.1546
281.0712	0.153
281.2845	0.1474
281.4977	0.1544
281.711	0.1436
281.9242	0.1477
282.1374	0.1463
282.3506	0.1378
282.5638	0.1576
282.7769	0.1592
282.9901	0.1574
283.2033	0.1607
283.4164	0.1558
283.6295	0.1644
283.8426	0.1513
284.0557	0.1515
284.2688	0.1497
284.4819	0.1536
284.695	0.1527
284.908	0.1544
285.1211	0.1576
285.3341	0.159
285.5471	0.1535
285.7601	0.1605
285.9731	0.1556
286.1861	0.158
286.3991	0.1551
286.612	0.1593
286.825	0.1654
287.0379	0.1533
287.2508	0.1576
287.4637	0.1679
287.6766	0.1525
287.8895	0.1636
288.1024	0.1584
288.3152	0.158
288.5281	0.1628
288.7409	0.1512
288.9538	0.158
289.1666	0.1605
289.3794	0.1589
289.5922	0.1628
289.8049	0.1618
290.0177	0.163
290.2304	0.1601
290.4432	0.1612
290.6559	0.1568
290.8686	0.1652
291.0813	0.1584
291.294	0.1653
291.5067	0.1584
291.7194	0.1632
291.932	0.1669
292.1447	0.1632
292.3573	0.1605
292.5699	0.162
292.7825	0.1665
292.9951	0.1591
293.2077	0.1586
293.4203	0.1597
293.6328	0.167
293.8454	0.1528
294.0579	0.1617
294.2704	0.1603
294.4829	0.1694
294.6954	0.1631
294.9079	0.1596
295.1204	0.1635
295.3328	0.1625
295.5453	0.1592
295.7577	0.1582
295.9701	0.1625
296.1825	0.1642
296.3949	0.1535
296.6073	0.1687
296.8197	0.1679
297.0321	0.1641
297.2444	0.1534
297.4567	0.1633
297.6691	0.1623
297.8814	0.1607
298.0937	0.1657
298.306	0.1636
298.5182	0.1595
298.7305	0.1607
298.9428	0.1608
299.155	0.1627
299.3672	0.16
299.5794	0.1581
299.7916	0.1564
300.0038	0.1597
300.216	0.1635
300.4282	0.1576
300.6403	0.159
300.8525	0.1594
301.0646	0.1606
301.2767	0.1612
301.4888	0.1499
301.7009	0.157
301.913	0.1675
302.125	0.1611
302.3371	0.1636
302.5491	0.1545
302.7612	0.1591
302.9732	0.1645
303.1852	0.1569
303.3972	0.1581
303.6092	0.1621
303.8211	0.1619
304.0331	0.153
304.245	0.1563
304.457	0.1618
304.6689	0.1532
304.8808	0.1538
305.0927	0.1533
305.3046	0.1497
305.5164	0.1443
305.7283	0.151
305.9401	0.1486
306.152	0.1459
306.3638	0.1533
306.5756	0.1407
306.7874	0.1493
306.9992	0.1422
307.2109	0.1412
307.4227	0.1406
307.6344	0.1357
307.8462	0.1367
308.0579	0.1313
308.2696	0.1307
308.4813	0.1353
308.693	0.13
308.9046	0.1196
309.1163	0.1255
309.328	0.1199
309.5396	0.122
309.7512	0.1243
309.9628	0.1204
310.1744	0.12
310.386	0.1097
310.5976	0.1106
310.8091	0.1168
311.0207	0.1162
311.2322	0.1107
311.4437	0.1209
311.6552	0.1117
311.8667	0.1133
312.0782	0.1106
312.2897	0.1025
312.5012	0.1151
312.7126	0.0979
312.924	0.0999
313.1355	0.0992
313.3469	0.108
313.5583	0.1028
313.7696	0.1076
313.981	0.0981
314.1924	0.0958
314.4037	0.0977
314.6151	0.0981
314.8264	0.099
315.0377	0.1017
315.249	0.1003
315.4603	0.0962
315.6716	0.0943
315.8828	0.0999
316.0941	0.0918
316.3053	0.0955
316.5165	0.097
316.7277	0.0879
316.9389	0.1016
317.1501	0.0867
317.3613	0.0887
317.5724	0.0863
317.7836	0.0923
317.9947	0.1018
318.2058	0.0894
318.417	0.0852
318.6281	0.097
318.8391	0.0977
319.0502	0.0925
319.2613	0.0973
319.4723	0.0975
319.6834	0.0937
319.8944	0.0977
320.1054	0.0952
320.3164	0.1037
320.5274	0.0998
320.7383	0.0932
320.9493	0.0938
321.1602	0.1004
321.3712	0.0989
321.5821	0.0962
321.793	0.0946
322.0039	0.0933
322.2148	0.0982
322.4257	0.0982
322.6365	0.0906
322.8474	0.0925
323.0582	0.1037
323.269	0.0954
323.4798	0.098
323.6906	0.1024
323.9014	0.0951
324.1122	0.0955
324.3229	0.0996
324.5337	0.0956
324.7444	0.0949
324.9551	0.0949
325.1658	0.102
325.3765	0.0951
325.5872	0.0959
325.7979	0.095
326.0085	0.1072
326.2192	0.1054
326.4298	0.1058
326.6404	0.0983
326.851	0.0965
327.0616	0.1001
327.2722	0.0994
327.4828	0.0925
327.6933	0.1003
327.9039	0.1084
328.1144	0.0989
328.3249	0.095
328.5354	0.1008
328.7459	0.0987
328.9564	0.0933
329.1669	0.1017
329.3773	0.1063
329.5878	0.1041
329.7982	0.1012
330.0086	0.1033
330.219	0.1055
330.4294	0.1004
330.6398	0.1067
330.8502	0.1041
331.0605	0.1034
331.2708	0.1029
331.4812	0.102
331.6915	0.0999
331.9018	0.0962
332.1121	0.1052
332.3224	0.1041
332.5326	0.1012
332.7429	0.1035
332.9531	0.1043
333.1633	0.1093
333.3735	0.1117
333.5837	0.0982
333.7939	0.1026
334.0041	0.0989
334.2143	0.0949
334.4244	0.099
334.6346	0.0994
334.8447	0.114
335.0548	0.1051
335.2649	0.0942
335.475	0.0993
335.685	0.1088
335.8951	0.1021
336.1051	0.0981
336.3152	0.1046
336.5252	0.1033
336.7352	0.108
336.9452	0.1027
337.1552	0.1016
337.3652	0.1078
337.5751	0.1112
337.7851	0.0978
337.995	0.1129
338.2049	0.1121
338.4148	0.1095
338.6247	0.1132
338.8346	0.1035
339.0445	0.1071
339.2543	0.104
339.4642	0.1153
339.674	0.1065
339.8838	0.1102
340.0936	0.1142
340.3034	0.1226
340.5132	0.114
340.7229	0.1188
340.9327	0.1195
341.1424	0.1186
341.3522	0.1109
341.5619	0.1183
341.7716	0.1142
341.9813	0.1155
342.1909	0.118
342.4006	0.1122
342.6102	0.1183
342.8199	0.1204
343.0295	0.12
343.2391	0.1195
343.4487	0.1178
343.6583	0.1145
343.8679	0.1125
344.0774	0.1169
344.287	0.1246
344.4965	0.1145
344.706	0.1317
344.9155	0.1256
345.125	0.1313
345.3345	0.1251
345.544	0.1131
345.7534	0.1222
345.9629	0.1269
346.1723	0.1201
346.3817	0.1338
346.5911	0.1366
346.8005	0.1257
347.0099	0.1279
347.2193	0.1342
347.4286	0.1322
347.638	0.1361
347.8473	0.1293
348.0566	0.1316
348.2659	0.1233
348.4752	0.1273
348.6845	0.1275
348.8937	0.1374
349.103	0.1272
349.3122	0.1398
349.5214	0.1362
349.7306	0.1391
349.9398	0.1335
350.149	0.1428
350.3582	0.1295
350.5674	0.1358
350.7765	0.1345
350.9856	0.1369
351.1948	0.1422
351.4039	0.1402
351.613	0.1327
351.822	0.1391
352.0311	0.1293
352.2402	0.1454
352.4492	0.1436
352.6582	0.1435
352.8672	0.1418
353.0762	0.1525
353.2852	0.1512
353.4942	0.1458
353.7032	0.1447
353.9121	0.1531
354.1211	0.1446
354.33	0.1367
354.5389	0.1456
354.7478	0.1499
354.9567	0.152
355.1655	0.1535
355.3744	0.1544
355.5833	0.1435
355.7921	0.1498
356.0009	0.1517
356.2097	0.149
356.4185	0.1568
356.6273	0.1563
356.8361	0.1547
357.0448	0.1544
357.2536	0.149
357.4623	0.1537
357.671	0.1572
357.8797	0.1692
358.0884	0.1672
358.2971	0.1646
358.5057	0.1615
358.7144	0.1629
358.923	0.1677
359.1316	0.1671
359.3402	0.17
359.5488	0.1629
359.7574	0.1682
359.966	0.1713
360.1746	0.1731
360.3831	0.1796
360.5916	0.1809
360.8002	0.1804
361.0087	0.1747
361.2172	0.1825
361.4256	0.1759
361.6341	0.1715
361.8426	0.1903
362.051	0.1737
362.2594	0.1814
362.4678	0.1823
362.6762	0.1832
362.8846	0.1809
363.093	0.193
363.3014	0.192
363.5097	0.1821
363.718	0.1919
363.9264	0.179
364.1347	0.1962
364.343	0.1808
364.5513	0.1871
364.7595	0.1957
364.9678	0.1866
365.176	0.1918
365.3842	0.1846
365.5925	0.1863
365.8007	0.1997
366.0089	0.1935
366.217	0.194
366.4252	0.1998
366.6333	0.1978
366.8415	0.197
367.0496	0.2038
367.2577	0.2065
367.4658	0.2076
367.6739	0.202
367.882	0.2019
368.09	0.2001
368.2981	0.2098
368.5061	0.2047
368.7141	0.2102
368.9221	0.1987
369.1301	0.2132
369.3381	0.2148
369.5461	0.2175
369.754	0.2158
369.962	0.2093
370.1699	0.2121
370.3778	0.2151
370.5857	0.2178
370.7936	0.2057
371.0015	0.2175
371.2093	0.2104
371.4172	0.2306
371.625	0.2157
371.8328	0.2227
372.0406	0.2283
372.2484	0.2234
372.4562	0.2244
372.664	0.2195
372.8717	0.2184
373.0795	0.2209
373.2872	0.2305
373.4949	0.2193
373.7026	0.2267
373.9103	0.2297
374.118	0.2294
374.3256	0.2319
374.5333	0.2181
374.7409	0.2251
374.9485	0.2292
375.1561	0.2397
375.3637	0.2196
375.5713	0.2357
375.7789	0.2299
375.9864	0.23
376.194	0.2399
376.4015	0.2445
376.609	0.2344
376.8165	0.2307
377.024	0.2181
377.2315	0.2366
377.4389	0.2334
377.6464	0.2297
377.8538	0.2437
378.0612	0.2307
378.2686	0.2389
378.476	0.247
378.6834	0.2465
378.8908	0.2448
379.0981	0.2519
379.3055	0.2447
379.5128	0.2466
379.7201	0.2383
379.9274	0.2527
380.1347	0.2479
380.342	0.2485
380.5492	0.2523
380.7565	0.2562
380.9637	0.2546
381.1709	0.2463
381.3781	0.2432
381.5853	0.2595
381.7925	0.2483
381.9997	0.2403
382.2068	0.2602
382.4139	0.2524
382.6211	0.2505
382.8282	0.2508
383.0353	0.254
383.2424	0.2545
383.4494	0.2627
383.6565	0.2457
383.8635	0.2711
384.0706	0.2568
384.2776	0.2584
384.4846	0.2637
384.6916	0.2591
384.8986	0.2621
385.1055	0.2592
385.3125	0.2716
385.5194	0.2671
385.7263	0.2599
385.9333	0.2649
386.1402	0.2645
386.347	0.2605
386.5539	0.2598
386.7608	0.2581
386.9676	0.2572
387.1744	0.2482
387.3813	0.2528
387.5881	0.2594
387.7948	0.2549
388.0016	0.2576
388.2084	0.2619
388.4151	0.2502
388.6219	0.2553
388.8286	0.2609
389.0353	0.2506
389.242	0.2503
389.4487	0.243
389.6553	0.2522
389.862	0.2466
390.0686	0.2467
390.2753	0.2524
390.4819	0.2385
390.6885	0.2419
390.8951	0.2452
391.1016	0.2479
391.3082	0.2425
391.5147	0.2431
391.7213	0.2349
391.9278	0.2421
392.1343	0.2472
392.3408	0.2323
392.5473	0.2435
392.7537	0.2443
392.9602	0.2265
393.1666	0.2323
393.373	0.2359
393.5794	0.2407
393.7858	0.2218
393.9922	0.2235
394.1986	0.2285
394.4049	0.2362
394.6113	0.2307
394.8176	0.2253
395.0239	0.2309
395.2302	0.2235
395.4365	0.2281
395.6428	0.2129
395.8491	0.219
396.0553	0.2199
396.2615	0.2282
396.4678	0.2316
396.674	0.2097
396.8802	0.2173
397.0863	0.224
397.2925	0.2148
397.4987	0.2073
397.7048	0.2114
397.9109	0.2225
398.117	0.2142
398.3231	0.223
398.5292	0.2241
398.7353	0.2082
398.9413	0.225
399.1474	0.2163
399.3534	0.2126
399.5594	0.2211
399.7654	0.2081
399.9714	0.2151
400.1774	0.2181
400.3833	0.2127
400.5893	0.2153
400.7952	0.2043
401.0011	0.213
401.207	0.211
401.4129	0.2028
401.6188	0.2118
401.8247	0.2113
402.0305	0.2073
402.2364	0.2131
402.4422	0.2144
402.648	0.2229
402.8538	0.2131
403.0596	0.2072
403.2654	0.2166
403.4711	0.2024
403.6768	0.2125
403.8826	0.2178
404.0883	0.211
404.294	0.2234
404.4997	0.214
404.7054	0.216
404.911	0.2025
405.1167	0.2194
405.3223	0.2185
405.5279	0.2125
405.7335	0.2066
405.9391	0.2159
406.1447	0.2127
406.3502	0.2156
406.5558	0.2032
406.7613	0.2077
406.9668	0.2128
407.1724	0.2172
407.3778	0.2173
407.5833	0.2103
407.7888	0.2274
407.9942	0.2064
408.1997	0.2148
408.4051	0.211
408.6105	0.2235
408.8159	0.2291
409.0213	0.1992
409.2267	0.2111
409.432	0.2208
409.6374	0.2051
409.8427	0.2147
410.048	0.2115
410.2533	0.2002
410.4586	0.2109
410.6639	0.2129
410.8691	0.2097
411.0744	0.2206
411.2796	0.2164
411.4848	0.2051
411.69	0.2216
411.8952	0.2133
412.1004	0.2128
412.3056	0.2168
412.5107	0.2252
412.7158	0.2105
412.921	0.2171
413.1261	0.1918
413.3312	0.2266
413.5362	0.2067
413.7413	0.1922
413.9464	0.2063
414.1514	0.202
414.3564	0.2095
414.5614	0.2131
414.7664	0.224
414.9714	0.2027
415.1764	0.2059
415.3813	0.2023
415.5863	0.2065
415.7912	0.2104
415.9961	0.2106
416.201	0.2045
416.4059	0.1999
416.6108	0.2045
416.8156	0.2133
417.0205	0.1957
417.2253	0.2001
417.4301	0.2005
417.6349	0.215
417.8397	0.1933
418.0445	0.2118
418.2492	0.2015
418.454	0.198
418.6587	0.1902
418.8634	0.2062
419.0681	0.2016
419.2728	0.2098
419.4775	0.1888
419.6822	0.2017
419.8868	0.1939
420.0915	0.2041
420.2961	0.1934
420.5007	0.2012
420.7053	0.2013
420.9099	0.1792
421.1144	0.1963
421.319	0.1927
421.5235	0.1935
421.728	0.1864
421.9325	0.1844
422.137	0.1819
422.3415	0.2044
422.546	0.1967
422.7504	0.1878
422.9549	0.2009
423.1593	0.1923
423.3637	0.1841
423.5681	0.1844
423.7725	0.1844
423.9769	0.182
424.1812	0.1822
424.3856	0.1807
424.5899	0.1833
424.7942	0.1749
424.9985	0.1883
425.2028	0.1707
425.4071	0.1717
425.6113	0.1859
425.8156	0.1737
426.0198	0.1813
426.224	0.1701
426.4282	0.1626
426.6324	0.178
