Data from MonoPyChalIsomerACN10uM450nmA_Absorbance_13-11-19-492.txt Node
Date: Tue Jul 09 13:11:19 BST 2024
User: LASERRRRR
Spectrometer: FLMT03099
Trigger mode: 0
Integration Time (sec): 2.000000E-1
Scans to average: 1
Electric dark correction enabled: true
Nonlinearity correction enabled: false
Boxcar width: 0
XAxis mode: Wavelengths
Number of Pixels in Spectrum: 3648
>>>>>Begin Spectral Data<<<<<
179.3399	-0.1113
179.5586	-0.1113
179.7771	-0.1113
179.9957	-0.2589
180.2143	0.2126
180.4329	0.6239
180.6514	-0
180.8699	-0.5264
181.0885	-0.253
181.307	-0
181.5255	-0
181.744	-0
181.9625	0.2154
182.181	-0
182.3994	0.0456
182.6179	-0.1692
182.8363	-0
183.0547	-0.018
183.2732	0.1666
183.4916	0.0834
183.71	0.0612
183.9284	-0.0369
184.1467	0.0445
184.3651	0.0462
184.5835	0.0728
184.8018	0.0337
185.0201	0.1424
185.2385	-0.0068
185.4568	-0.0569
185.6751	0.1566
185.8934	-0.1023
186.1117	0.098
186.3299	-0.0689
186.5482	0.0857
186.7664	0.0073
186.9847	0.0821
187.2029	0.2517
187.4211	0.094
187.6393	-0.009
187.8575	0.1053
188.0757	0.1493
188.2939	0.0126
188.512	0.0993
188.7302	-0.0528
188.9483	0.1134
189.1665	0.0564
189.3846	0.2047
189.6027	0.0779
189.8208	0.0606
190.0389	0.2246
190.257	0.1249
190.475	0.2335
190.6931	0.1254
190.9111	0.2541
191.1292	0.2641
191.3472	0.284
191.5652	0.2821
191.7832	0.3042
192.0012	0.5323
192.2192	0.4858
192.4371	0.4948
192.6551	0.4839
192.873	0.3189
193.091	0.485
193.3089	0.6082
193.5268	0.6165
193.7447	0.4688
193.9626	0.4751
194.1805	0.4915
194.3984	0.5839
194.6162	0.5154
194.8341	0.5389
195.0519	0.5222
195.2697	0.5552
195.4875	0.4958
195.7054	0.6343
195.9231	0.5078
196.1409	0.5659
196.3587	0.6597
196.5765	0.6222
196.7942	0.6681
197.012	0.5998
197.2297	0.6993
197.4474	0.8746
197.6651	0.7001
197.8828	0.9021
198.1005	0.7381
198.3182	0.8605
198.5358	0.6838
198.7535	0.7228
198.9711	1.0531
199.1888	0.6509
199.4064	0.8932
199.624	0.8402
199.8416	0.8663
200.0592	0.7492
200.2767	0.7246
200.4943	0.8446
200.7119	0.8597
200.9294	0.7647
201.1469	0.9388
201.3645	0.9142
201.582	0.8637
201.7995	0.7969
202.017	0.886
202.2344	0.7747
202.4519	0.9223
202.6694	0.8587
202.8868	0.8849
203.1042	0.9866
203.3217	1.0243
203.5391	0.9131
203.7565	0.8673
203.9739	0.9922
204.1913	0.7814
204.4086	0.923
204.626	0.9947
204.8433	0.9796
205.0607	0.8923
205.278	0.9118
205.4953	1.1583
205.7126	0.9407
205.9299	1.0062
206.1472	1.046
206.3644	1.0345
206.5817	0.9565
206.7989	1.0409
207.0162	1.1228
207.2334	0.8918
207.4506	1.0055
207.6678	1.0034
207.885	1.1592
208.1022	1.0626
208.3194	1.0981
208.5365	1.021
208.7537	1.0143
208.9708	1.0038
209.1879	1.1429
209.405	1.0698
209.6222	1.1002
209.8392	1.1043
210.0563	1.0173
210.2734	1.0678
210.4905	1.0914
210.7075	1.0719
210.9245	1.0443
211.1416	0.997
211.3586	1.0539
211.5756	1.0729
211.7926	1.0919
212.0096	1.0302
212.2265	1.0179
212.4435	1.0591
212.6604	0.9947
212.8774	1.0383
213.0943	0.9731
213.3112	1.0207
213.5281	1.0592
213.745	0.966
213.9619	0.9897
214.1788	0.9551
214.3956	1.0035
214.6125	0.9238
214.8293	0.8863
215.0461	0.9099
215.2629	0.9267
215.4798	0.8295
215.6965	0.8325
215.9133	0.8484
216.1301	0.8208
216.3469	0.7751
216.5636	0.7735
216.7803	0.765
216.9971	0.7383
217.2138	0.7184
217.4305	0.6992
217.6472	0.7007
217.8639	0.6408
218.0805	0.6183
218.2972	0.5708
218.5138	0.5462
218.7305	0.5258
218.9471	0.4807
219.1637	0.4541
219.3803	0.4318
219.5969	0.3942
219.8135	0.3737
220.0301	0.3376
220.2466	0.3636
220.4632	0.3235
220.6797	0.323
220.8962	0.3155
221.1127	0.3044
221.3292	0.3034
221.5457	0.2817
221.7622	0.3006
221.9787	0.2795
222.1951	0.2935
222.4116	0.2692
222.628	0.2762
222.8444	0.2588
223.0608	0.2849
223.2772	0.2711
223.4936	0.2553
223.71	0.2634
223.9264	0.2794
224.1427	0.2615
224.3591	0.2761
224.5754	0.2667
224.7917	0.2782
225.008	0.2805
225.2243	0.2655
225.4406	0.2818
225.6569	0.272
225.8732	0.2954
226.0894	0.2799
226.3057	0.2885
226.5219	0.2898
226.7381	0.3006
226.9543	0.2881
227.1705	0.2882
227.3867	0.2989
227.6029	0.283
227.8191	0.3046
228.0352	0.2937
228.2513	0.3129
228.4675	0.3136
228.6836	0.3226
228.8997	0.3094
229.1158	0.3143
229.3319	0.3288
229.548	0.32
229.764	0.3254
229.9801	0.3357
230.1961	0.331
230.4121	0.3323
230.6282	0.3398
230.8442	0.3415
231.0602	0.3404
231.2761	0.3354
231.4921	0.3386
231.7081	0.3533
231.924	0.3662
232.14	0.3663
232.3559	0.3674
232.5718	0.3592
232.7877	0.3616
233.0036	0.3642
233.2195	0.3619
233.4353	0.3743
233.6512	0.3769
233.867	0.372
234.0829	0.383
234.2987	0.3816
234.5145	0.3799
234.7303	0.3908
234.9461	0.3933
235.1619	0.3823
235.3776	0.3773
235.5934	0.3941
235.8091	0.3965
236.0249	0.3825
236.2406	0.3997
236.4563	0.3964
236.672	0.3893
236.8877	0.4101
237.1034	0.4069
237.319	0.4108
237.5347	0.4068
237.7503	0.404
237.966	0.41
238.1816	0.4087
238.3972	0.4181
238.6128	0.4073
238.8284	0.4211
239.0439	0.4126
239.2595	0.4231
239.475	0.4203
239.6906	0.4223
239.9061	0.4164
240.1216	0.4175
240.3371	0.4271
240.5526	0.4191
240.7681	0.413
240.9836	0.4169
241.199	0.4085
241.4145	0.4127
241.6299	0.4143
241.8453	0.4006
242.0607	0.3873
242.2761	0.3868
242.4915	0.3881
242.7069	0.3841
242.9223	0.37
243.1376	0.3712
243.353	0.3517
243.5683	0.356
243.7836	0.3491
243.9989	0.3405
244.2142	0.3278
244.4295	0.3312
244.6448	0.3144
244.86	0.3299
245.0753	0.314
245.2905	0.2913
245.5057	0.2997
245.721	0.2935
245.9362	0.28
246.1514	0.2859
246.3665	0.2885
246.5817	0.273
246.7969	0.276
247.012	0.2688
247.2271	0.2619
247.4423	0.2545
247.6574	0.2497
247.8725	0.2568
248.0876	0.2486
248.3026	0.2456
248.5177	0.2486
248.7328	0.2329
248.9478	0.2379
249.1628	0.2341
249.3779	0.2339
249.5929	0.2234
249.8079	0.2303
250.0228	0.2245
250.2378	0.2306
250.4528	0.2183
250.6677	0.2168
250.8827	0.2095
251.0976	0.2126
251.3125	0.2168
251.5274	0.2034
251.7423	0.2064
251.9572	0.206
252.172	0.214
252.3869	0.2091
252.6017	0.2096
252.8166	0.2078
253.0314	0.202
253.2462	0.2078
253.461	0.2013
253.6758	0.1995
253.8906	0.1995
254.1053	0.206
254.3201	0.1994
254.5348	0.2
254.7496	0.1966
254.9643	0.2039
255.179	0.2014
255.3937	0.1968
255.6083	0.1997
255.823	0.1998
256.0377	0.1924
256.2523	0.2003
256.467	0.2001
256.6816	0.1879
256.8962	0.2021
257.1108	0.1983
257.3254	0.195
257.54	0.1951
257.7545	0.1898
257.9691	0.2008
258.1836	0.1929
258.3981	0.1944
258.6127	0.2035
258.8272	0.1908
259.0417	0.2014
259.2561	0.203
259.4706	0.1899
259.6851	0.1902
259.8995	0.1864
260.114	0.1951
260.3284	0.2021
260.5428	0.1961
260.7572	0.2005
260.9716	0.1941
261.186	0.2015
261.4003	0.209
261.6147	0.1981
261.829	0.2021
262.0433	0.1988
262.2577	0.1998
262.472	0.1959
262.6863	0.1921
262.9005	0.1975
263.1148	0.1933
263.3291	0.1893
263.5433	0.192
263.7576	0.1924
263.9718	0.1959
264.186	0.1879
264.4002	0.1831
264.6144	0.184
264.8286	0.1879
265.0427	0.1802
265.2569	0.1741
265.471	0.1797
265.6851	0.1776
265.8993	0.1755
266.1134	0.1751
266.3275	0.1753
266.5415	0.1724
266.7556	0.1802
266.9697	0.1763
267.1837	0.1769
267.3978	0.1857
267.6118	0.1865
267.8258	0.1883
268.0398	0.1949
268.2538	0.1903
268.4677	0.1872
268.6817	0.1889
268.8957	0.1878
269.1096	0.1821
269.3235	0.1798
269.5374	0.1781
269.7514	0.1629
269.9652	0.1705
270.1791	0.1575
270.393	0.1503
270.6068	0.1475
270.8207	0.151
271.0345	0.1545
271.2483	0.1486
271.4622	0.1549
271.676	0.1491
271.8897	0.1494
272.1035	0.1347
272.3173	0.1468
272.531	0.1412
272.7448	0.1401
272.9585	0.1363
273.1722	0.14
273.3859	0.1426
273.5996	0.1344
273.8133	0.1446
274.0269	0.1399
274.2406	0.1389
274.4542	0.1432
274.6679	0.1253
274.8815	0.1439
275.0951	0.1393
275.3087	0.1308
275.5223	0.1324
275.7358	0.1352
275.9494	0.1456
276.1629	0.1334
276.3765	0.1391
276.59	0.1496
276.8035	0.1409
277.017	0.1383
277.2305	0.1438
277.444	0.1452
277.6574	0.1493
277.8709	0.1444
278.0843	0.1406
278.2978	0.14
278.5112	0.1388
278.7246	0.1392
278.938	0.1392
279.1513	0.1467
279.3647	0.1462
279.5781	0.1421
279.7914	0.1475
280.0047	0.1369
280.2181	0.1486
280.4314	0.1569
280.6447	0.1459
280.8579	0.1529
281.0712	0.1508
281.2845	0.1447
281.4977	0.1545
281.711	0.1528
281.9242	0.1521
282.1374	0.1459
282.3506	0.1409
282.5638	0.1457
282.7769	0.1565
282.9901	0.1514
283.2033	0.159
283.4164	0.1484
283.6295	0.157
283.8426	0.1522
284.0557	0.1483
284.2688	0.1497
284.4819	0.153
284.695	0.1584
284.908	0.16
285.1211	0.1524
285.3341	0.157
285.5471	0.154
285.7601	0.158
285.9731	0.1582
286.1861	0.1605
286.3991	0.1582
286.612	0.1603
286.825	0.1608
287.0379	0.1608
287.2508	0.1613
287.4637	0.1578
287.6766	0.152
287.8895	0.1676
288.1024	0.1616
288.3152	0.1592
288.5281	0.1621
288.7409	0.1593
288.9538	0.1571
289.1666	0.1698
289.3794	0.1642
289.5922	0.1632
289.8049	0.1582
290.0177	0.1673
290.2304	0.1569
290.4432	0.1648
290.6559	0.1603
290.8686	0.158
291.0813	0.1712
291.294	0.1622
291.5067	0.1595
291.7194	0.1606
291.932	0.1618
292.1447	0.1591
292.3573	0.1637
292.5699	0.1625
292.7825	0.1655
292.9951	0.1624
293.2077	0.1614
293.4203	0.1581
293.6328	0.1682
293.8454	0.1665
294.0579	0.156
294.2704	0.166
294.4829	0.1625
294.6954	0.1591
294.9079	0.1637
295.1204	0.1566
295.3328	0.1594
295.5453	0.1532
295.7577	0.1553
295.9701	0.1568
296.1825	0.1595
296.3949	0.1528
296.6073	0.1663
296.8197	0.1642
297.0321	0.166
297.2444	0.157
297.4567	0.1527
297.6691	0.1646
297.8814	0.1587
298.0937	0.1554
298.306	0.1674
298.5182	0.1597
298.7305	0.1668
298.9428	0.1566
299.155	0.165
299.3672	0.1575
299.5794	0.1646
299.7916	0.1564
300.0038	0.1577
300.216	0.1683
300.4282	0.1587
300.6403	0.1619
300.8525	0.1631
301.0646	0.1542
301.2767	0.1587
301.4888	0.1552
301.7009	0.1659
301.913	0.1702
302.125	0.1662
302.3371	0.1734
302.5491	0.1561
302.7612	0.1602
302.9732	0.1633
303.1852	0.1619
303.3972	0.1579
303.6092	0.1552
303.8211	0.1634
304.0331	0.1514
304.245	0.1557
304.457	0.1578
304.6689	0.1588
304.8808	0.1592
305.0927	0.1538
305.3046	0.1487
305.5164	0.1506
305.7283	0.1526
305.9401	0.156
306.152	0.1543
306.3638	0.154
306.5756	0.1448
306.7874	0.1445
306.9992	0.1429
307.2109	0.1453
307.4227	0.1435
307.6344	0.1351
307.8462	0.1361
308.0579	0.1317
308.2696	0.127
308.4813	0.1388
308.693	0.1301
308.9046	0.1279
309.1163	0.124
309.328	0.1249
309.5396	0.1252
309.7512	0.1234
309.9628	0.1237
310.1744	0.1176
310.386	0.1089
310.5976	0.1156
310.8091	0.1143
311.0207	0.1152
311.2322	0.1149
311.4437	0.1221
311.6552	0.1089
311.8667	0.1112
312.0782	0.1087
312.2897	0.103
312.5012	0.109
312.7126	0.0973
312.924	0.0935
313.1355	0.0987
313.3469	0.1064
313.5583	0.1042
313.7696	0.1018
313.981	0.0973
314.1924	0.1007
314.4037	0.1005
314.6151	0.1004
314.8264	0.1
315.0377	0.097
315.249	0.1029
315.4603	0.1008
315.6716	0.1019
315.8828	0.0941
316.0941	0.0901
316.3053	0.0899
316.5165	0.088
316.7277	0.0891
316.9389	0.0991
317.1501	0.0847
317.3613	0.0891
317.5724	0.0957
317.7836	0.0895
317.9947	0.0912
318.2058	0.0897
318.417	0.09
318.6281	0.0947
318.8391	0.0923
319.0502	0.0904
319.2613	0.0909
319.4723	0.0898
319.6834	0.091
319.8944	0.0917
320.1054	0.0954
320.3164	0.0991
320.5274	0.0947
320.7383	0.0906
320.9493	0.085
321.1602	0.094
321.3712	0.1
321.5821	0.0941
321.793	0.091
322.0039	0.0941
322.2148	0.0943
322.4257	0.0927
322.6365	0.0913
322.8474	0.0933
323.0582	0.1077
323.269	0.0983
323.4798	0.0896
323.6906	0.0922
323.9014	0.096
324.1122	0.1038
324.3229	0.0915
324.5337	0.0871
324.7444	0.0943
324.9551	0.1
325.1658	0.0988
325.3765	0.0938
325.5872	0.1019
325.7979	0.1059
326.0085	0.0982
326.2192	0.0973
326.4298	0.0973
326.6404	0.094
326.851	0.0962
327.0616	0.0936
327.2722	0.1028
327.4828	0.0913
327.6933	0.0997
327.9039	0.1012
328.1144	0.0958
328.3249	0.0987
328.5354	0.093
328.7459	0.0965
328.9564	0.0955
329.1669	0.1012
329.3773	0.101
329.5878	0.109
329.7982	0.1025
330.0086	0.095
330.219	0.1071
330.4294	0.0975
330.6398	0.1069
330.8502	0.1012
331.0605	0.0969
331.2708	0.1103
331.4812	0.1006
331.6915	0.1025
331.9018	0.1043
332.1121	0.1045
332.3224	0.0972
332.5326	0.0919
332.7429	0.108
332.9531	0.1053
333.1633	0.1046
333.3735	0.1032
333.5837	0.1017
333.7939	0.106
334.0041	0.0943
334.2143	0.1
334.4244	0.0966
334.6346	0.1034
334.8447	0.1049
335.0548	0.102
335.2649	0.1004
335.475	0.0968
335.685	0.1101
335.8951	0.1041
336.1051	0.1009
336.3152	0.108
336.5252	0.0985
336.7352	0.1005
336.9452	0.1009
337.1552	0.1067
337.3652	0.1089
337.5751	0.1028
337.7851	0.1051
337.995	0.1112
338.2049	0.1085
338.4148	0.1114
338.6247	0.1062
338.8346	0.1045
339.0445	0.1086
339.2543	0.1059
339.4642	0.1108
339.674	0.1073
339.8838	0.1067
340.0936	0.107
340.3034	0.111
340.5132	0.1148
340.7229	0.1154
340.9327	0.1192
341.1424	0.1108
341.3522	0.1035
341.5619	0.1204
341.7716	0.1214
341.9813	0.1107
342.1909	0.117
342.4006	0.1135
342.6102	0.1157
342.8199	0.1199
343.0295	0.1139
343.2391	0.1263
343.4487	0.1144
343.6583	0.1183
343.8679	0.1119
344.0774	0.1258
344.287	0.1213
344.4965	0.1189
344.706	0.1221
344.9155	0.1247
345.125	0.1266
345.3345	0.1275
345.544	0.1209
345.7534	0.1191
345.9629	0.1223
346.1723	0.1276
346.3817	0.13
346.5911	0.1253
346.8005	0.1241
347.0099	0.1118
347.2193	0.1313
347.4286	0.135
347.638	0.1298
347.8473	0.1244
348.0566	0.1331
348.2659	0.13
348.4752	0.1354
348.6845	0.1265
348.8937	0.1305
349.103	0.1309
349.3122	0.1427
349.5214	0.1342
349.7306	0.1286
349.9398	0.1306
350.149	0.1351
350.3582	0.1329
350.5674	0.1429
350.7765	0.1285
350.9856	0.132
351.1948	0.1418
351.4039	0.1333
351.613	0.1227
351.822	0.1426
352.0311	0.1358
352.2402	0.1404
352.4492	0.1423
352.6582	0.1392
352.8672	0.1434
353.0762	0.1523
353.2852	0.1492
353.4942	0.1449
353.7032	0.1439
353.9121	0.1463
354.1211	0.1438
354.33	0.1459
354.5389	0.1542
354.7478	0.1498
354.9567	0.1384
355.1655	0.1491
355.3744	0.1501
355.5833	0.1428
355.7921	0.1534
356.0009	0.1444
356.2097	0.1483
356.4185	0.1448
356.6273	0.1568
356.8361	0.1449
357.0448	0.1551
357.2536	0.158
357.4623	0.1515
357.671	0.1587
357.8797	0.1668
358.0884	0.1606
358.2971	0.1653
358.5057	0.1571
358.7144	0.1609
358.923	0.1744
359.1316	0.1662
359.3402	0.1668
359.5488	0.1615
359.7574	0.1681
359.966	0.1729
360.1746	0.1771
360.3831	0.173
360.5916	0.1823
360.8002	0.1816
361.0087	0.1768
361.2172	0.1801
361.4256	0.1887
361.6341	0.1789
361.8426	0.1771
362.051	0.1766
362.2594	0.1737
362.4678	0.1736
362.6762	0.1851
362.8846	0.1819
363.093	0.1856
363.3014	0.1873
363.5097	0.1803
363.718	0.1866
363.9264	0.1939
364.1347	0.1917
364.343	0.1884
364.5513	0.192
364.7595	0.2011
364.9678	0.1978
365.176	0.1996
365.3842	0.1938
365.5925	0.1925
365.8007	0.207
366.0089	0.2009
366.217	0.1962
366.4252	0.1993
366.6333	0.1939
366.8415	0.2026
367.0496	0.205
367.2577	0.2028
367.4658	0.2099
367.6739	0.2041
367.882	0.2055
368.09	0.2021
368.2981	0.2138
368.5061	0.206
368.7141	0.2062
368.9221	0.2065
369.1301	0.216
369.3381	0.214
369.5461	0.2166
369.754	0.2102
369.962	0.2084
370.1699	0.2165
370.3778	0.2088
370.5857	0.2173
370.7936	0.213
371.0015	0.213
371.2093	0.2093
371.4172	0.2267
371.625	0.2159
371.8328	0.222
372.0406	0.2345
372.2484	0.2222
372.4562	0.2192
372.664	0.2238
372.8717	0.2268
373.0795	0.2314
373.2872	0.2283
373.4949	0.2208
373.7026	0.219
373.9103	0.2186
374.118	0.2299
374.3256	0.2243
374.5333	0.2202
374.7409	0.2317
374.9485	0.2387
375.1561	0.227
375.3637	0.2291
375.5713	0.2316
375.7789	0.2258
375.9864	0.227
376.194	0.245
376.4015	0.2409
376.609	0.2379
376.8165	0.2351
377.024	0.2317
377.2315	0.2321
377.4389	0.231
377.6464	0.2292
377.8538	0.2273
378.0612	0.2329
378.2686	0.2377
378.476	0.2417
378.6834	0.2439
378.8908	0.242
379.0981	0.2589
379.3055	0.237
379.5128	0.2504
379.7201	0.246
379.9274	0.2527
380.1347	0.2483
380.342	0.2592
380.5492	0.2462
380.7565	0.2466
380.9637	0.2565
381.1709	0.253
381.3781	0.2538
381.5853	0.2592
381.7925	0.2412
381.9997	0.2541
382.2068	0.254
382.4139	0.2526
382.6211	0.2535
382.8282	0.2437
383.0353	0.2488
383.2424	0.2572
383.4494	0.2553
383.6565	0.2483
383.8635	0.2605
384.0706	0.2508
384.2776	0.2557
384.4846	0.2509
384.6916	0.2534
384.8986	0.2582
385.1055	0.2658
385.3125	0.2722
385.5194	0.2675
385.7263	0.261
385.9333	0.264
386.1402	0.2589
386.347	0.2781
386.5539	0.2559
386.7608	0.2584
386.9676	0.2592
387.1744	0.2501
387.3813	0.2731
387.5881	0.2543
387.7948	0.2564
388.0016	0.255
388.2084	0.2726
388.4151	0.2452
388.6219	0.2633
388.8286	0.2551
389.0353	0.2526
389.242	0.2509
389.4487	0.2307
389.6553	0.2465
389.862	0.2401
390.0686	0.2393
390.2753	0.2515
390.4819	0.2436
390.6885	0.2423
390.8951	0.2505
391.1016	0.2454
391.3082	0.2448
391.5147	0.2494
391.7213	0.2431
391.9278	0.2349
392.1343	0.2431
392.3408	0.2307
392.5473	0.2444
392.7537	0.2465
392.9602	0.2258
393.1666	0.2383
393.373	0.2438
393.5794	0.2253
393.7858	0.2359
393.9922	0.2238
394.1986	0.2246
394.4049	0.2382
394.6113	0.2373
394.8176	0.2171
395.0239	0.2248
395.2302	0.2265
395.4365	0.2349
395.6428	0.229
395.8491	0.2226
396.0553	0.226
396.2615	0.2236
396.4678	0.2364
396.674	0.2303
396.8802	0.2156
397.0863	0.2117
397.2925	0.2174
397.4987	0.2053
397.7048	0.2137
397.9109	0.2274
398.117	0.2165
398.3231	0.2165
398.5292	0.2169
398.7353	0.2124
398.9413	0.2217
399.1474	0.2121
399.3534	0.2127
399.5594	0.2162
399.7654	0.2128
399.9714	0.2102
400.1774	0.2067
400.3833	0.2214
400.5893	0.2205
400.7952	0.202
401.0011	0.2073
401.207	0.2236
401.4129	0.1981
401.6188	0.1994
401.8247	0.2174
402.0305	0.21
402.2364	0.2187
402.4422	0.2169
402.648	0.2305
402.8538	0.2279
403.0596	0.2146
403.2654	0.2058
403.4711	0.2086
403.6768	0.2282
403.8826	0.2186
404.0883	0.2117
404.294	0.2114
404.4997	0.206
404.7054	0.2101
404.911	0.2153
405.1167	0.2284
405.3223	0.2174
405.5279	0.2267
405.7335	0.2174
405.9391	0.218
406.1447	0.2041
406.3502	0.2171
406.5558	0.2115
406.7613	0.211
406.9668	0.2143
407.1724	0.2094
407.3778	0.2198
407.5833	0.2105
407.7888	0.2275
407.9942	0.2184
408.1997	0.2212
408.4051	0.2204
408.6105	0.2156
408.8159	0.2308
409.0213	0.2069
409.2267	0.2005
409.432	0.2167
409.6374	0.21
409.8427	0.2294
410.048	0.219
410.2533	0.1979
410.4586	0.2166
410.6639	0.2116
410.8691	0.2139
411.0744	0.218
411.2796	0.2156
411.4848	0.2111
411.69	0.2022
411.8952	0.2109
412.1004	0.2037
412.3056	0.2137
412.5107	0.2153
412.7158	0.2141
412.921	0.2019
413.1261	0.1995
413.3312	0.2297
413.5362	0.2095
413.7413	0.2026
413.9464	0.2039
414.1514	0.2053
414.3564	0.2162
414.5614	0.2211
414.7664	0.2175
414.9714	0.2113
415.1764	0.2109
415.3813	0.2021
415.5863	0.2122
415.7912	0.2027
415.9961	0.2077
416.201	0.2164
416.4059	0.2034
416.6108	0.1985
416.8156	0.1982
417.0205	0.2104
417.2253	0.2001
417.4301	0.2059
417.6349	0.2189
417.8397	0.1964
418.0445	0.1992
418.2492	0.2044
418.454	0.2099
418.6587	0.2023
418.8634	0.2066
419.0681	0.2016
419.2728	0.204
419.4775	0.1992
419.6822	0.2041
419.8868	0.1946
420.0915	0.2075
420.2961	0.1819
420.5007	0.2101
420.7053	0.1969
420.9099	0.1834
421.1144	0.188
421.319	0.1928
421.5235	0.2098
421.728	0.1887
421.9325	0.189
422.137	0.1862
422.3415	0.2
422.546	0.1956
422.7504	0.1928
422.9549	0.193
423.1593	0.1851
423.3637	0.1812
423.5681	0.1988
423.7725	0.1854
423.9769	0.1856
424.1812	0.1809
424.3856	0.1862
424.5899	0.1891
424.7942	0.1704
424.9985	0.1859
425.2028	0.1771
425.4071	0.1788
425.6113	0.1867
425.8156	0.1714
426.0198	0.1896
426.224	0.1705
426.4282	0.1691
426.6324	0.18
426.8366	0.1741
