Data from MonoPyChalIsomerACN10uM450nmA_Absorbance_13-11-22-491.txt Node
Date: Tue Jul 09 13:11:22 BST 2024
User: LASERRRRR
Spectrometer: FLMT03099
Trigger mode: 0
Integration Time (sec): 2.000000E-1
Scans to average: 1
Electric dark correction enabled: true
Nonlinearity correction enabled: false
Boxcar width: 0
XAxis mode: Wavelengths
Number of Pixels in Spectrum: 3648
>>>>>Begin Spectral Data<<<<<
179.3399	0.0822
179.5586	0.0822
179.7771	0.0822
179.9957	-0.0361
180.2143	-0
180.4329	-0.0282
180.6514	0.4754
180.8699	-0
181.0885	-0
181.307	0.7544
181.5255	-0
181.744	-0
181.9625	0.6577
182.181	0.1513
182.3994	-0
182.6179	-0.1552
182.8363	0.2825
183.0547	0.3074
183.2732	0.0879
183.4916	-0.0082
183.71	0.0176
183.9284	-0.0274
184.1467	0.0267
184.3651	-0.0656
184.5835	0.0627
184.8018	-0.0584
185.0201	0.0656
185.2385	-0.0154
185.4568	-0.1463
185.6751	0.0752
185.8934	0.0114
186.1117	-0.0069
186.3299	-0.0187
186.5482	-0.0073
186.7664	-0.0436
186.9847	0.0757
187.2029	0.0219
187.4211	0.0071
187.6393	-0.0801
187.8575	0.1239
188.0757	0.0086
188.2939	0.072
188.512	-0.0238
188.7302	0.1273
188.9483	0.031
189.1665	0.1167
189.3846	0.1546
189.6027	0.0987
189.8208	0.1726
190.0389	0.1466
190.257	0.1771
190.475	0.2116
190.6931	0.1952
190.9111	0.3195
191.1292	0.1718
191.3472	0.2522
191.5652	0.2846
191.7832	0.3268
192.0012	0.2614
192.2192	0.3926
192.4371	0.4539
192.6551	0.4183
192.873	0.4266
193.091	0.4434
193.3089	0.4355
193.5268	0.5093
193.7447	0.4496
193.9626	0.483
194.1805	0.5053
194.3984	0.5534
194.6162	0.5632
194.8341	0.5032
195.0519	0.5242
195.2697	0.6011
195.4875	0.5334
195.7054	0.5475
195.9231	0.6573
196.1409	0.6391
196.3587	0.6598
196.5765	0.6788
196.7942	0.666
197.012	0.6297
197.2297	0.6739
197.4474	0.7612
197.6651	0.66
197.8828	0.7049
198.1005	0.8221
198.3182	0.6775
198.5358	0.614
198.7535	0.7115
198.9711	0.8575
199.1888	0.698
199.4064	0.7427
199.624	0.7457
199.8416	0.781
200.0592	0.7602
200.2767	0.7199
200.4943	0.7882
200.7119	0.8394
200.9294	0.8062
201.1469	0.8084
201.3645	0.8567
201.582	0.866
201.7995	0.8381
202.017	0.9145
202.2344	0.8264
202.4519	0.9095
202.6694	0.8197
202.8868	0.9416
203.1042	0.9796
203.3217	0.944
203.5391	0.8823
203.7565	1.0307
203.9739	0.8554
204.1913	0.8381
204.4086	0.8751
204.626	0.9347
204.8433	0.8776
205.0607	0.8613
205.278	0.9388
205.4953	1.0125
205.7126	0.9409
205.9299	1.0547
206.1472	0.912
206.3644	0.9345
206.5817	1.0481
206.7989	1.0919
207.0162	1.0288
207.2334	0.9022
207.4506	1.0037
207.6678	0.9609
207.885	1.2077
208.1022	1.0648
208.3194	1.0745
208.5365	1.0248
208.7537	0.9375
208.9708	0.9972
209.1879	1.0907
209.405	1.0165
209.6222	1.0832
209.8392	1.1105
210.0563	1.0003
210.2734	1.0158
210.4905	1.1084
210.7075	1.0488
210.9245	1.0575
211.1416	1.0472
211.3586	1.1012
211.5756	1.052
211.7926	1.0754
212.0096	0.9941
212.2265	0.9749
212.4435	1.0027
212.6604	1.0367
212.8774	1.0149
213.0943	0.9981
213.3112	0.9792
213.5281	1.0455
213.745	0.9841
213.9619	0.964
214.1788	0.9607
214.3956	0.9474
214.6125	0.8684
214.8293	0.8881
215.0461	0.8834
215.2629	0.8773
215.4798	0.8762
215.6965	0.8108
215.9133	0.828
216.1301	0.8088
216.3469	0.8068
216.5636	0.7811
216.7803	0.7446
216.9971	0.7424
217.2138	0.7264
217.4305	0.6831
217.6472	0.664
217.8639	0.6321
218.0805	0.5997
218.2972	0.5774
218.5138	0.5246
218.7305	0.4938
218.9471	0.4837
219.1637	0.44
219.3803	0.4283
219.5969	0.3799
219.8135	0.3717
220.0301	0.3436
220.2466	0.3634
220.4632	0.3303
220.6797	0.3243
220.8962	0.3057
221.1127	0.3041
221.3292	0.3068
221.5457	0.281
221.7622	0.2785
221.9787	0.2832
222.1951	0.2642
222.4116	0.2789
222.628	0.2758
222.8444	0.2773
223.0608	0.2697
223.2772	0.2759
223.4936	0.2614
223.71	0.2835
223.9264	0.2831
224.1427	0.2591
224.3591	0.2581
224.5754	0.2646
224.7917	0.2766
225.008	0.2645
225.2243	0.2708
225.4406	0.2724
225.6569	0.2826
225.8732	0.2989
226.0894	0.2667
226.3057	0.2929
226.5219	0.2853
226.7381	0.2877
226.9543	0.2904
227.1705	0.2987
227.3867	0.3023
227.6029	0.2826
227.8191	0.2924
228.0352	0.2871
228.2513	0.2997
228.4675	0.3018
228.6836	0.3085
228.8997	0.3066
229.1158	0.3206
229.3319	0.3142
229.548	0.3211
229.764	0.3156
229.9801	0.3304
230.1961	0.333
230.4121	0.3309
230.6282	0.3432
230.8442	0.3418
231.0602	0.3495
231.2761	0.3358
231.4921	0.3562
231.7081	0.3586
231.924	0.3539
232.14	0.3576
232.3559	0.3712
232.5718	0.367
232.7877	0.3595
233.0036	0.351
233.2195	0.35
233.4353	0.3686
233.6512	0.3773
233.867	0.383
234.0829	0.383
234.2987	0.3705
234.5145	0.3762
234.7303	0.3878
234.9461	0.3932
235.1619	0.3913
235.3776	0.3819
235.5934	0.3895
235.8091	0.379
236.0249	0.4068
236.2406	0.3985
236.4563	0.3831
236.672	0.3958
236.8877	0.4099
237.1034	0.41
237.319	0.4086
237.5347	0.4029
237.7503	0.4006
237.966	0.4167
238.1816	0.4137
238.3972	0.4109
238.6128	0.4095
238.8284	0.4194
239.0439	0.4072
239.2595	0.4343
239.475	0.413
239.6906	0.4266
239.9061	0.4144
240.1216	0.4232
240.3371	0.412
240.5526	0.4231
240.7681	0.4016
240.9836	0.4188
241.199	0.4057
241.4145	0.3974
241.6299	0.3972
241.8453	0.4032
242.0607	0.4042
242.2761	0.3973
242.4915	0.3825
242.7069	0.3773
242.9223	0.3717
243.1376	0.3724
243.353	0.3603
243.5683	0.3554
243.7836	0.3378
243.9989	0.3352
244.2142	0.3329
244.4295	0.3389
244.6448	0.3264
244.86	0.3258
245.0753	0.3029
245.2905	0.2967
245.5057	0.296
245.721	0.2992
245.9362	0.2886
246.1514	0.2865
246.3665	0.2878
246.5817	0.2627
246.7969	0.2789
247.012	0.2682
247.2271	0.258
247.4423	0.2655
247.6574	0.2582
247.8725	0.2569
248.0876	0.2468
248.3026	0.257
248.5177	0.2505
248.7328	0.2441
248.9478	0.2438
249.1628	0.229
249.3779	0.2314
249.5929	0.2326
249.8079	0.2287
250.0228	0.2282
250.2378	0.2364
250.4528	0.2181
250.6677	0.2202
250.8827	0.2152
251.0976	0.212
251.3125	0.2219
251.5274	0.2084
251.7423	0.2117
251.9572	0.2012
252.172	0.2111
252.3869	0.2038
252.6017	0.2081
252.8166	0.2118
253.0314	0.2057
253.2462	0.2041
253.461	0.2011
253.6758	0.1955
253.8906	0.2063
254.1053	0.2012
254.3201	0.2017
254.5348	0.2019
254.7496	0.206
254.9643	0.1972
255.179	0.1971
255.3937	0.1918
255.6083	0.2052
255.823	0.2003
256.0377	0.1918
256.2523	0.1932
256.467	0.2087
256.6816	0.1941
256.8962	0.1923
257.1108	0.1959
257.3254	0.1946
257.54	0.1917
257.7545	0.1897
257.9691	0.2019
258.1836	0.1906
258.3981	0.1955
258.6127	0.194
258.8272	0.1977
259.0417	0.1961
259.2561	0.2039
259.4706	0.1913
259.6851	0.1883
259.8995	0.1941
260.114	0.1976
260.3284	0.2013
260.5428	0.1973
260.7572	0.1961
260.9716	0.1983
261.186	0.2054
261.4003	0.2016
261.6147	0.1989
261.829	0.2035
262.0433	0.1979
262.2577	0.2069
262.472	0.1924
262.6863	0.1885
262.9005	0.1929
263.1148	0.1919
263.3291	0.1933
263.5433	0.1936
263.7576	0.1831
263.9718	0.1864
264.186	0.188
264.4002	0.1831
264.6144	0.1822
264.8286	0.1823
265.0427	0.1786
265.2569	0.1839
265.471	0.1764
265.6851	0.1824
265.8993	0.1808
266.1134	0.1713
266.3275	0.1768
266.5415	0.1704
266.7556	0.1779
266.9697	0.1783
267.1837	0.1734
267.3978	0.1909
267.6118	0.1896
267.8258	0.1923
268.0398	0.1909
268.2538	0.1954
268.4677	0.1938
268.6817	0.1879
268.8957	0.1927
269.1096	0.1874
269.3235	0.1897
269.5374	0.1702
269.7514	0.1677
269.9652	0.1624
270.1791	0.1562
270.393	0.1578
270.6068	0.1549
270.8207	0.1537
271.0345	0.1551
271.2483	0.1542
271.4622	0.15
271.676	0.1425
271.8897	0.1379
272.1035	0.1454
272.3173	0.147
272.531	0.142
272.7448	0.1446
272.9585	0.1426
273.1722	0.133
273.3859	0.1394
273.5996	0.1374
273.8133	0.1401
274.0269	0.14
274.2406	0.1439
274.4542	0.1358
274.6679	0.14
274.8815	0.1396
275.0951	0.1431
275.3087	0.1415
275.5223	0.1342
275.7358	0.1382
275.9494	0.1478
276.1629	0.1344
276.3765	0.1372
276.59	0.1425
276.8035	0.1429
277.017	0.145
277.2305	0.144
277.444	0.1437
277.6574	0.1388
277.8709	0.1466
278.0843	0.1521
278.2978	0.1383
278.5112	0.1496
278.7246	0.1356
278.938	0.1482
279.1513	0.1456
279.3647	0.147
279.5781	0.143
279.7914	0.1583
280.0047	0.1409
280.2181	0.1496
280.4314	0.1492
280.6447	0.1466
280.8579	0.149
281.0712	0.15
281.2845	0.1473
281.4977	0.1581
281.711	0.1478
281.9242	0.1511
282.1374	0.1534
282.3506	0.1413
282.5638	0.1529
282.7769	0.1491
282.9901	0.1551
283.2033	0.164
283.4164	0.1526
283.6295	0.1603
283.8426	0.1565
284.0557	0.1534
284.2688	0.1504
284.4819	0.1519
284.695	0.1505
284.908	0.154
285.1211	0.1613
285.3341	0.1531
285.5471	0.1596
285.7601	0.1529
285.9731	0.1522
286.1861	0.1635
286.3991	0.1593
286.612	0.1614
286.825	0.1625
287.0379	0.1589
287.2508	0.1621
287.4637	0.1621
287.6766	0.1498
287.8895	0.1629
288.1024	0.1508
288.3152	0.1564
288.5281	0.1538
288.7409	0.1591
288.9538	0.1656
289.1666	0.1669
289.3794	0.1589
289.5922	0.1612
289.8049	0.1561
290.0177	0.1638
290.2304	0.1609
290.4432	0.1565
290.6559	0.1578
290.8686	0.1568
291.0813	0.1636
291.294	0.1625
291.5067	0.1558
291.7194	0.1612
291.932	0.1603
292.1447	0.1636
292.3573	0.1572
292.5699	0.1713
292.7825	0.1613
292.9951	0.1645
293.2077	0.1579
293.4203	0.1605
293.6328	0.1679
293.8454	0.155
294.0579	0.159
294.2704	0.1595
294.4829	0.1705
294.6954	0.1666
294.9079	0.1607
295.1204	0.1534
295.3328	0.1609
295.5453	0.1595
295.7577	0.1567
295.9701	0.1539
296.1825	0.1634
296.3949	0.1505
296.6073	0.1647
296.8197	0.1675
297.0321	0.1659
297.2444	0.1611
297.4567	0.1442
297.6691	0.1524
297.8814	0.1592
298.0937	0.1571
298.306	0.1608
298.5182	0.1503
298.7305	0.1481
298.9428	0.1484
299.155	0.1597
299.3672	0.1576
299.5794	0.1603
299.7916	0.1582
300.0038	0.1567
300.216	0.1597
300.4282	0.1551
300.6403	0.1586
300.8525	0.1527
301.0646	0.1526
301.2767	0.1577
301.4888	0.1491
301.7009	0.165
301.913	0.1631
302.125	0.1541
302.3371	0.1633
302.5491	0.1553
302.7612	0.16
302.9732	0.1638
303.1852	0.1472
303.3972	0.1612
303.6092	0.1526
303.8211	0.1567
304.0331	0.1503
304.245	0.1536
304.457	0.1581
304.6689	0.1544
304.8808	0.1476
305.0927	0.1453
305.3046	0.149
305.5164	0.1522
305.7283	0.1514
305.9401	0.1496
306.152	0.1475
306.3638	0.1499
306.5756	0.1416
306.7874	0.1387
306.9992	0.1416
307.2109	0.1346
307.4227	0.1343
307.6344	0.1302
307.8462	0.1304
308.0579	0.1338
308.2696	0.127
308.4813	0.1254
308.693	0.1285
308.9046	0.1238
309.1163	0.1223
309.328	0.1189
309.5396	0.1165
309.7512	0.1276
309.9628	0.1226
310.1744	0.1205
310.386	0.1094
310.5976	0.1137
310.8091	0.1155
311.0207	0.1177
311.2322	0.1088
311.4437	0.1166
311.6552	0.1165
311.8667	0.1123
312.0782	0.1065
312.2897	0.1011
312.5012	0.1098
312.7126	0.0991
312.924	0.0996
313.1355	0.1042
313.3469	0.1035
313.5583	0.1035
313.7696	0.1022
313.981	0.0997
314.1924	0.0946
314.4037	0.1013
314.6151	0.0905
314.8264	0.1006
315.0377	0.0972
315.249	0.1018
315.4603	0.0967
315.6716	0.0979
315.8828	0.0954
316.0941	0.0995
316.3053	0.0893
316.5165	0.0884
316.7277	0.0883
316.9389	0.094
317.1501	0.0926
317.3613	0.0922
317.5724	0.0908
317.7836	0.0913
317.9947	0.0977
318.2058	0.0887
318.417	0.0877
318.6281	0.0973
318.8391	0.0896
319.0502	0.0886
319.2613	0.0921
319.4723	0.0957
319.6834	0.0882
319.8944	0.0993
320.1054	0.0875
320.3164	0.1019
320.5274	0.1039
320.7383	0.0948
320.9493	0.0943
321.1602	0.0976
321.3712	0.1008
321.5821	0.0984
321.793	0.0908
322.0039	0.0937
322.2148	0.0941
322.4257	0.0932
322.6365	0.0999
322.8474	0.0979
323.0582	0.0994
323.269	0.0998
323.4798	0.1001
323.6906	0.098
323.9014	0.0995
324.1122	0.1006
324.3229	0.1081
324.5337	0.0922
324.7444	0.0937
324.9551	0.1061
325.1658	0.0939
325.3765	0.0907
325.5872	0.1028
325.7979	0.0976
326.0085	0.1025
326.2192	0.0999
326.4298	0.1112
326.6404	0.0993
326.851	0.0938
327.0616	0.1015
327.2722	0.1053
327.4828	0.0994
327.6933	0.1002
327.9039	0.1006
328.1144	0.0989
328.3249	0.0954
328.5354	0.1021
328.7459	0.1038
328.9564	0.1029
329.1669	0.0987
329.3773	0.1022
329.5878	0.108
329.7982	0.1064
330.0086	0.0963
330.219	0.1001
330.4294	0.104
330.6398	0.1078
330.8502	0.1116
331.0605	0.1056
331.2708	0.1012
331.4812	0.1012
331.6915	0.1075
331.9018	0.0943
332.1121	0.1018
332.3224	0.0984
332.5326	0.1034
332.7429	0.1053
332.9531	0.1019
333.1633	0.1124
333.3735	0.1049
333.5837	0.1059
333.7939	0.11
334.0041	0.0988
334.2143	0.1041
334.4244	0.0981
334.6346	0.1008
334.8447	0.1104
335.0548	0.1064
335.2649	0.0925
335.475	0.1005
335.685	0.1126
335.8951	0.1078
336.1051	0.1002
336.3152	0.1034
336.5252	0.1022
336.7352	0.1145
336.9452	0.1064
337.1552	0.1097
337.3652	0.1111
337.5751	0.1122
337.7851	0.1059
337.995	0.1124
338.2049	0.1016
338.4148	0.1096
338.6247	0.1077
338.8346	0.1089
339.0445	0.1094
339.2543	0.1023
339.4642	0.1154
339.674	0.1053
339.8838	0.111
340.0936	0.1107
340.3034	0.1234
340.5132	0.1144
340.7229	0.1183
340.9327	0.1131
341.1424	0.1175
341.3522	0.1187
341.5619	0.1155
341.7716	0.1222
341.9813	0.1219
342.1909	0.1209
342.4006	0.1131
342.6102	0.1203
342.8199	0.1135
343.0295	0.1125
343.2391	0.1288
343.4487	0.1238
343.6583	0.1205
343.8679	0.1174
344.0774	0.1278
344.287	0.1187
344.4965	0.1145
344.706	0.1237
344.9155	0.1288
345.125	0.127
345.3345	0.1296
345.544	0.1207
345.7534	0.1122
345.9629	0.1212
346.1723	0.1285
346.3817	0.1325
346.5911	0.1349
346.8005	0.1262
347.0099	0.1224
347.2193	0.1268
347.4286	0.126
347.638	0.1393
347.8473	0.134
348.0566	0.1372
348.2659	0.128
348.4752	0.1324
348.6845	0.1339
348.8937	0.1419
349.103	0.1332
349.3122	0.1291
349.5214	0.1373
349.7306	0.1313
349.9398	0.1327
350.149	0.1368
350.3582	0.1285
350.5674	0.1437
350.7765	0.133
350.9856	0.1329
351.1948	0.1455
351.4039	0.1365
351.613	0.1368
351.822	0.1467
352.0311	0.1436
352.2402	0.141
352.4492	0.1328
352.6582	0.1424
352.8672	0.1405
353.0762	0.1485
353.2852	0.1493
353.4942	0.1447
353.7032	0.1415
353.9121	0.148
354.1211	0.1395
354.33	0.1465
354.5389	0.1406
354.7478	0.1473
354.9567	0.1477
355.1655	0.1509
355.3744	0.1495
355.5833	0.1566
355.7921	0.1491
356.0009	0.1514
356.2097	0.1534
356.4185	0.1518
356.6273	0.1526
356.8361	0.1487
357.0448	0.1593
357.2536	0.1423
357.4623	0.1556
357.671	0.1691
357.8797	0.1626
358.0884	0.1594
358.2971	0.155
358.5057	0.159
358.7144	0.1658
358.923	0.1662
359.1316	0.1635
359.3402	0.1784
359.5488	0.1678
359.7574	0.1699
359.966	0.1706
360.1746	0.1673
360.3831	0.171
360.5916	0.179
360.8002	0.1798
361.0087	0.1708
361.2172	0.1799
361.4256	0.1703
361.6341	0.177
361.8426	0.1755
362.051	0.1686
362.2594	0.1825
362.4678	0.1735
362.6762	0.1829
362.8846	0.1862
363.093	0.1866
363.3014	0.1825
363.5097	0.179
363.718	0.1909
363.9264	0.1829
364.1347	0.1936
364.343	0.1846
364.5513	0.1858
364.7595	0.1871
364.9678	0.1958
365.176	0.193
365.3842	0.1827
365.5925	0.1978
365.8007	0.1943
366.0089	0.1951
366.217	0.1945
366.4252	0.2057
366.6333	0.1929
366.8415	0.198
367.0496	0.1997
367.2577	0.1981
367.4658	0.2084
367.6739	0.2114
367.882	0.2016
368.09	0.205
368.2981	0.2086
368.5061	0.2085
368.7141	0.209
368.9221	0.1991
369.1301	0.2074
369.3381	0.209
369.5461	0.2184
369.754	0.21
369.962	0.2061
370.1699	0.2169
370.3778	0.2121
370.5857	0.2098
370.7936	0.2101
371.0015	0.2076
371.2093	0.1988
371.4172	0.2199
371.625	0.2136
371.8328	0.2245
372.0406	0.2203
372.2484	0.2166
372.4562	0.2166
372.664	0.2175
372.8717	0.2145
373.0795	0.2255
373.2872	0.2103
373.4949	0.216
373.7026	0.2148
373.9103	0.2312
374.118	0.2215
374.3256	0.2167
374.5333	0.2289
374.7409	0.2184
374.9485	0.2198
375.1561	0.2286
375.3637	0.2269
375.5713	0.227
375.7789	0.2179
375.9864	0.2205
376.194	0.2271
376.4015	0.2321
376.609	0.2354
376.8165	0.2185
377.024	0.2176
377.2315	0.228
377.4389	0.2235
377.6464	0.2252
377.8538	0.2324
378.0612	0.2311
378.2686	0.227
378.476	0.2357
378.6834	0.254
378.8908	0.2503
379.0981	0.2358
379.3055	0.2375
379.5128	0.2284
379.7201	0.2397
379.9274	0.23
380.1347	0.2484
380.342	0.2486
380.5492	0.2411
380.7565	0.2446
380.9637	0.2521
381.1709	0.2493
381.3781	0.2456
381.5853	0.2571
381.7925	0.236
381.9997	0.2578
382.2068	0.2563
382.4139	0.248
382.6211	0.2451
382.8282	0.2463
383.0353	0.2528
383.2424	0.25
383.4494	0.2452
383.6565	0.2428
383.8635	0.2587
384.0706	0.2427
384.2776	0.2494
384.4846	0.2501
384.6916	0.2418
384.8986	0.2494
385.1055	0.2543
385.3125	0.2592
385.5194	0.253
385.7263	0.2476
385.9333	0.2614
386.1402	0.249
386.347	0.261
386.5539	0.2519
386.7608	0.2523
386.9676	0.2489
387.1744	0.2491
387.3813	0.2573
387.5881	0.2529
387.7948	0.2602
388.0016	0.2496
388.2084	0.2552
388.4151	0.2419
388.6219	0.2519
388.8286	0.2555
389.0353	0.2451
389.242	0.2406
389.4487	0.2341
389.6553	0.2388
389.862	0.2466
390.0686	0.2376
390.2753	0.2398
390.4819	0.2387
390.6885	0.2366
390.8951	0.2352
391.1016	0.2389
391.3082	0.2369
391.5147	0.2316
391.7213	0.2351
391.9278	0.2308
392.1343	0.2331
392.3408	0.2296
392.5473	0.2377
392.7537	0.24
392.9602	0.216
393.1666	0.2325
393.373	0.2211
393.5794	0.2308
393.7858	0.2134
393.9922	0.2196
394.1986	0.22
394.4049	0.2333
394.6113	0.2381
394.8176	0.2168
395.0239	0.2142
395.2302	0.2149
395.4365	0.2211
395.6428	0.2015
395.8491	0.2143
396.0553	0.2169
396.2615	0.2202
396.4678	0.2205
396.674	0.2222
396.8802	0.2214
397.0863	0.2144
397.2925	0.216
397.4987	0.2052
397.7048	0.2162
397.9109	0.21
398.117	0.209
398.3231	0.2121
398.5292	0.2067
398.7353	0.2057
398.9413	0.2158
399.1474	0.2031
399.3534	0.2027
399.5594	0.2039
399.7654	0.2117
399.9714	0.2127
400.1774	0.2181
400.3833	0.2148
400.5893	0.209
400.7952	0.1955
401.0011	0.2023
401.207	0.2075
401.4129	0.1915
401.6188	0.1988
401.8247	0.2012
402.0305	0.1985
402.2364	0.217
402.4422	0.2093
402.648	0.2173
402.8538	0.2089
403.0596	0.1924
403.2654	0.1962
403.4711	0.1895
403.6768	0.2149
403.8826	0.214
404.0883	0.2042
404.294	0.2102
404.4997	0.2059
404.7054	0.1965
404.911	0.2094
405.1167	0.2106
405.3223	0.201
405.5279	0.2052
405.7335	0.2017
405.9391	0.2055
406.1447	0.2029
406.3502	0.208
406.5558	0.2071
406.7613	0.1958
406.9668	0.2
407.1724	0.2099
407.3778	0.2184
407.5833	0.2059
407.7888	0.2258
407.9942	0.211
408.1997	0.2127
408.4051	0.2024
408.6105	0.2116
408.8159	0.2172
409.0213	0.1984
409.2267	0.2054
409.432	0.2168
409.6374	0.1984
409.8427	0.2189
410.048	0.2058
410.2533	0.2028
410.4586	0.217
410.6639	0.2026
410.8691	0.203
411.0744	0.2006
411.2796	0.2048
411.4848	0.1952
411.69	0.2062
411.8952	0.1949
412.1004	0.2001
412.3056	0.219
412.5107	0.2169
412.7158	0.2016
412.921	0.2015
413.1261	0.1932
413.3312	0.2165
413.5362	0.204
413.7413	0.1939
413.9464	0.2149
414.1514	0.1921
414.3564	0.2079
414.5614	0.2038
414.7664	0.1965
414.9714	0.1992
415.1764	0.2008
415.3813	0.2063
415.5863	0.2029
415.7912	0.2028
415.9961	0.2103
416.201	0.2126
416.4059	0.1936
416.6108	0.1973
416.8156	0.1977
417.0205	0.2083
417.2253	0.1926
417.4301	0.2025
417.6349	0.2042
417.8397	0.1874
418.0445	0.2128
418.2492	0.1954
418.454	0.1956
418.6587	0.1854
418.8634	0.1946
419.0681	0.1864
419.2728	0.1911
419.4775	0.1871
419.6822	0.194
419.8868	0.1844
420.0915	0.1931
420.2961	0.1877
420.5007	0.1917
420.7053	0.1893
420.9099	0.1748
421.1144	0.1892
421.319	0.1749
421.5235	0.1938
421.728	0.1818
421.9325	0.1763
422.137	0.184
422.3415	0.1894
422.546	0.1865
422.7504	0.1851
422.9549	0.1833
423.1593	0.1873
423.3637	0.1757
423.5681	0.1851
423.7725	0.1791
423.9769	0.163
424.1812	0.1716
424.3856	0.1734
424.5899	0.1772
424.7942	0.1667
424.9985	0.1775
425.2028	0.1784
425.4071	0.167
425.6113	0.1682
425.8156	0.16
426.0198	0.1704
426.224	0.1574
426.4282	0.1637
426.6324	0.1703
