Data from MonoPyChalIsomerACN10uM450nmA_Absorbance_13-11-27-891.txt Node
Date: Tue Jul 09 13:11:27 BST 2024
User: LASERRRRR
Spectrometer: FLMT03099
Trigger mode: 0
Integration Time (sec): 2.000000E-1
Scans to average: 1
Electric dark correction enabled: true
Nonlinearity correction enabled: false
Boxcar width: 0
XAxis mode: Wavelengths
Number of Pixels in Spectrum: 3648
>>>>>Begin Spectral Data<<<<<
179.3399	0.268
179.5586	0.268
179.7771	0.268
179.9957	0.2961
180.2143	-0
180.4329	-0.0267
180.6514	-0
180.8699	-0
181.0885	-0
181.307	-0
181.5255	-0
181.744	-0
181.9625	-0
182.181	-0
182.3994	-0
182.6179	-0.3862
182.8363	-0.4017
183.0547	0.2378
183.2732	0.1225
183.4916	0.0706
183.71	0.0213
183.9284	-0.0694
184.1467	0.0526
184.3651	0.1056
184.5835	0.0543
184.8018	0.0725
185.0201	0.2295
185.2385	0.016
185.4568	0.0225
185.6751	0.1246
185.8934	-0.0084
186.1117	0.0832
186.3299	-0.1181
186.5482	0.0447
186.7664	0.0707
186.9847	0.0841
187.2029	0.0277
187.4211	0.0938
187.6393	-0.0934
187.8575	0.2475
188.0757	0.2949
188.2939	0.0789
188.512	-0.0425
188.7302	0.07
188.9483	0.0659
189.1665	0.0999
189.3846	0.0932
189.6027	0.0904
189.8208	0.0521
190.0389	0.06
190.257	0.2385
190.475	0.2361
190.6931	0.1289
190.9111	0.3191
191.1292	0.2442
191.3472	0.2883
191.5652	0.3741
191.7832	0.4181
192.0012	0.3415
192.2192	0.3658
192.4371	0.4159
192.6551	0.4582
192.873	0.4239
193.091	0.3516
193.3089	0.4706
193.5268	0.534
193.7447	0.411
193.9626	0.4807
194.1805	0.509
194.3984	0.7846
194.6162	0.6357
194.8341	0.5244
195.0519	0.5508
195.2697	0.6799
195.4875	0.5983
195.7054	0.5602
195.9231	0.6662
196.1409	0.5794
196.3587	0.5756
196.5765	0.6937
196.7942	0.8108
197.012	0.6652
197.2297	0.7429
197.4474	0.8236
197.6651	0.6578
197.8828	0.744
198.1005	0.7243
198.3182	0.6825
198.5358	0.793
198.7535	0.8287
198.9711	0.8948
199.1888	0.9092
199.4064	0.8344
199.624	0.7163
199.8416	0.9089
200.0592	0.7785
200.2767	0.8531
200.4943	0.782
200.7119	0.8713
200.9294	0.9052
201.1469	0.8599
201.3645	0.8211
201.582	0.9251
201.7995	0.7793
202.017	0.9096
202.2344	0.7597
202.4519	0.9049
202.6694	0.8266
202.8868	0.8365
203.1042	0.9133
203.3217	0.9906
203.5391	0.9641
203.7565	1.008
203.9739	0.8789
204.1913	0.7686
204.4086	0.9747
204.626	0.9644
204.8433	0.8822
205.0607	1.0182
205.278	0.9691
205.4953	0.999
205.7126	0.9423
205.9299	0.9958
206.1472	0.9957
206.3644	1.2155
206.5817	1.0569
206.7989	1.0047
207.0162	1.079
207.2334	0.959
207.4506	1.011
207.6678	1.0368
207.885	1.0284
208.1022	1.0686
208.3194	1.0462
208.5365	1.0696
208.7537	0.9679
208.9708	1.0697
209.1879	1.0673
209.405	1.1529
209.6222	1.0593
209.8392	1.1707
210.0563	0.9985
210.2734	1.0944
210.4905	1.0751
210.7075	1.025
210.9245	0.9611
211.1416	1.1241
211.3586	1.049
211.5756	1.0745
211.7926	0.9987
212.0096	1.0023
212.2265	1.0237
212.4435	1.0116
212.6604	1.0249
212.8774	0.9689
213.0943	1.0353
213.3112	0.9683
213.5281	1.0201
213.745	1.0129
213.9619	0.9582
214.1788	0.9594
214.3956	0.9144
214.6125	0.9148
214.8293	0.8853
215.0461	0.8634
215.2629	0.914
215.4798	0.8727
215.6965	0.8107
215.9133	0.8368
216.1301	0.8422
216.3469	0.8117
216.5636	0.8249
216.7803	0.7693
216.9971	0.7487
217.2138	0.689
217.4305	0.716
217.6472	0.6562
217.8639	0.6877
218.0805	0.6008
218.2972	0.5733
218.5138	0.5563
218.7305	0.5187
218.9471	0.4622
219.1637	0.4421
219.3803	0.4249
219.5969	0.3895
219.8135	0.3816
220.0301	0.3499
220.2466	0.3511
220.4632	0.3303
220.6797	0.3261
220.8962	0.3098
221.1127	0.3109
221.3292	0.3066
221.5457	0.2911
221.7622	0.2892
221.9787	0.283
222.1951	0.2785
222.4116	0.2777
222.628	0.2732
222.8444	0.2711
223.0608	0.2674
223.2772	0.2692
223.4936	0.271
223.71	0.2688
223.9264	0.2752
224.1427	0.2651
224.3591	0.2578
224.5754	0.2617
224.7917	0.2729
225.008	0.2901
225.2243	0.2736
225.4406	0.2734
225.6569	0.2795
225.8732	0.2842
226.0894	0.263
226.3057	0.2837
226.5219	0.2897
226.7381	0.2808
226.9543	0.2775
227.1705	0.2875
227.3867	0.2992
227.6029	0.2811
227.8191	0.2931
228.0352	0.3109
228.2513	0.3136
228.4675	0.3097
228.6836	0.3094
228.8997	0.3138
229.1158	0.318
229.3319	0.3194
229.548	0.3289
229.764	0.3157
229.9801	0.3231
230.1961	0.3303
230.4121	0.3334
230.6282	0.3426
230.8442	0.3319
231.0602	0.3376
231.2761	0.3375
231.4921	0.3587
231.7081	0.365
231.924	0.3512
232.14	0.3541
232.3559	0.3598
232.5718	0.347
232.7877	0.3519
233.0036	0.3685
233.2195	0.3562
233.4353	0.3795
233.6512	0.37
233.867	0.374
234.0829	0.3769
234.2987	0.3829
234.5145	0.3745
234.7303	0.3925
234.9461	0.3884
235.1619	0.3839
235.3776	0.3785
235.5934	0.3884
235.8091	0.3937
236.0249	0.388
236.2406	0.399
236.4563	0.3851
236.672	0.4031
236.8877	0.3978
237.1034	0.4126
237.319	0.4082
237.5347	0.398
237.7503	0.3971
237.966	0.4072
238.1816	0.4175
238.3972	0.4128
238.6128	0.4038
238.8284	0.4094
239.0439	0.3994
239.2595	0.4299
239.475	0.4068
239.6906	0.4264
239.9061	0.411
240.1216	0.4178
240.3371	0.4271
240.5526	0.4187
240.7681	0.4147
240.9836	0.4106
241.199	0.4177
241.4145	0.4039
241.6299	0.4119
241.8453	0.3951
242.0607	0.3813
242.2761	0.3915
242.4915	0.3922
242.7069	0.3841
242.9223	0.3705
243.1376	0.3767
243.353	0.3623
243.5683	0.3637
243.7836	0.3544
243.9989	0.3421
244.2142	0.3376
244.4295	0.3325
244.6448	0.3281
244.86	0.3157
245.0753	0.3088
245.2905	0.3051
245.5057	0.31
245.721	0.3051
245.9362	0.2955
246.1514	0.2799
246.3665	0.2928
246.5817	0.2718
246.7969	0.2763
247.012	0.2779
247.2271	0.2618
247.4423	0.2641
247.6574	0.2695
247.8725	0.2553
248.0876	0.2559
248.3026	0.2569
248.5177	0.2488
248.7328	0.2423
248.9478	0.2426
249.1628	0.2487
249.3779	0.238
249.5929	0.2332
249.8079	0.2357
250.0228	0.2323
250.2378	0.2305
250.4528	0.2085
250.6677	0.2222
250.8827	0.2097
251.0976	0.2143
251.3125	0.2196
251.5274	0.2029
251.7423	0.2159
251.9572	0.2103
252.172	0.2047
252.3869	0.2054
252.6017	0.2085
252.8166	0.2124
253.0314	0.203
253.2462	0.2154
253.461	0.2054
253.6758	0.202
253.8906	0.2057
254.1053	0.1983
254.3201	0.2071
254.5348	0.1991
254.7496	0.1956
254.9643	0.2032
255.179	0.2016
255.3937	0.2026
255.6083	0.2013
255.823	0.1995
256.0377	0.1938
256.2523	0.1911
256.467	0.198
256.6816	0.1952
256.8962	0.1992
257.1108	0.1941
257.3254	0.1961
257.54	0.1967
257.7545	0.1974
257.9691	0.1997
258.1836	0.1928
258.3981	0.1979
258.6127	0.193
258.8272	0.1937
259.0417	0.1928
259.2561	0.1942
259.4706	0.1841
259.6851	0.1967
259.8995	0.1905
260.114	0.1912
260.3284	0.2004
260.5428	0.1959
260.7572	0.1994
260.9716	0.1958
261.186	0.1981
261.4003	0.2121
261.6147	0.1947
261.829	0.2005
262.0433	0.1977
262.2577	0.2045
262.472	0.1944
262.6863	0.1874
262.9005	0.1958
263.1148	0.1887
263.3291	0.1833
263.5433	0.1905
263.7576	0.194
263.9718	0.1918
264.186	0.1898
264.4002	0.1878
264.6144	0.1827
264.8286	0.1796
265.0427	0.1808
265.2569	0.186
265.471	0.1826
265.6851	0.1776
265.8993	0.1792
266.1134	0.1772
266.3275	0.1783
266.5415	0.1748
266.7556	0.1793
266.9697	0.1723
267.1837	0.1713
267.3978	0.191
267.6118	0.1913
267.8258	0.1924
268.0398	0.2003
268.2538	0.2007
268.4677	0.1942
268.6817	0.1963
268.8957	0.1998
269.1096	0.1881
269.3235	0.1807
269.5374	0.1816
269.7514	0.1713
269.9652	0.1704
270.1791	0.1572
270.393	0.1479
270.6068	0.1547
270.8207	0.1547
271.0345	0.1542
271.2483	0.1589
271.4622	0.1533
271.676	0.1522
271.8897	0.1451
272.1035	0.1425
272.3173	0.162
272.531	0.1511
272.7448	0.1519
272.9585	0.1471
273.1722	0.1458
273.3859	0.1422
273.5996	0.1377
273.8133	0.1489
274.0269	0.1477
274.2406	0.137
274.4542	0.148
274.6679	0.1415
274.8815	0.154
275.0951	0.1492
275.3087	0.1507
275.5223	0.1404
275.7358	0.1535
275.9494	0.151
276.1629	0.1456
276.3765	0.1539
276.59	0.1573
276.8035	0.1534
277.017	0.1456
277.2305	0.1546
277.444	0.1455
277.6574	0.1422
277.8709	0.1542
278.0843	0.1512
278.2978	0.1489
278.5112	0.1474
278.7246	0.1472
278.938	0.1506
279.1513	0.152
279.3647	0.1589
279.5781	0.1487
279.7914	0.1574
280.0047	0.1518
280.2181	0.1617
280.4314	0.1509
280.6447	0.1542
280.8579	0.1522
281.0712	0.1549
281.2845	0.1521
281.4977	0.1567
281.711	0.1637
281.9242	0.1605
282.1374	0.1587
282.3506	0.1459
282.5638	0.1565
282.7769	0.1578
282.9901	0.1612
283.2033	0.1587
283.4164	0.1603
283.6295	0.164
283.8426	0.1608
284.0557	0.157
284.2688	0.1592
284.4819	0.1555
284.695	0.1599
284.908	0.1655
285.1211	0.1633
285.3341	0.1565
285.5471	0.1593
285.7601	0.1583
285.9731	0.1523
286.1861	0.1612
286.3991	0.16
286.612	0.1594
286.825	0.165
287.0379	0.1581
287.2508	0.1514
287.4637	0.1639
287.6766	0.1522
287.8895	0.1634
288.1024	0.1661
288.3152	0.1634
288.5281	0.1573
288.7409	0.1503
288.9538	0.1606
289.1666	0.1638
289.3794	0.1584
289.5922	0.1617
289.8049	0.1598
290.0177	0.1565
290.2304	0.1491
290.4432	0.1515
290.6559	0.1559
290.8686	0.158
291.0813	0.1598
291.294	0.1597
291.5067	0.1612
291.7194	0.1558
291.932	0.1513
292.1447	0.163
292.3573	0.158
292.5699	0.1626
292.7825	0.1543
292.9951	0.1598
293.2077	0.1507
293.4203	0.1536
293.6328	0.1589
293.8454	0.1544
294.0579	0.1589
294.2704	0.1595
294.4829	0.1642
294.6954	0.1542
294.9079	0.1586
295.1204	0.158
295.3328	0.1569
295.5453	0.1493
295.7577	0.1547
295.9701	0.1562
296.1825	0.1586
296.3949	0.1534
296.6073	0.1616
296.8197	0.1533
297.0321	0.1685
297.2444	0.1494
297.4567	0.1515
297.6691	0.1514
297.8814	0.1578
298.0937	0.1457
298.306	0.1542
298.5182	0.1451
298.7305	0.1567
298.9428	0.1592
299.155	0.1477
299.3672	0.1586
299.5794	0.1567
299.7916	0.1562
300.0038	0.1495
300.216	0.1537
300.4282	0.1453
300.6403	0.1519
300.8525	0.1519
301.0646	0.1525
301.2767	0.1506
301.4888	0.1462
301.7009	0.1509
301.913	0.1561
302.125	0.157
302.3371	0.1558
302.5491	0.1507
302.7612	0.1607
302.9732	0.1608
303.1852	0.1542
303.3972	0.1543
303.6092	0.1499
303.8211	0.1571
304.0331	0.1423
304.245	0.1523
304.457	0.1523
304.6689	0.1527
304.8808	0.147
305.0927	0.15
305.3046	0.1415
305.5164	0.1472
305.7283	0.1525
305.9401	0.1405
306.152	0.1438
306.3638	0.1475
306.5756	0.1367
306.7874	0.1332
306.9992	0.1428
307.2109	0.1315
307.4227	0.1388
307.6344	0.1359
307.8462	0.1319
308.0579	0.133
308.2696	0.1309
308.4813	0.1312
308.693	0.1238
308.9046	0.1249
309.1163	0.1192
309.328	0.1205
309.5396	0.1179
309.7512	0.1248
309.9628	0.119
310.1744	0.1234
310.386	0.1142
310.5976	0.1174
310.8091	0.1125
311.0207	0.1152
311.2322	0.1163
311.4437	0.1287
311.6552	0.1123
311.8667	0.1077
312.0782	0.1054
312.2897	0.1063
312.5012	0.1127
312.7126	0.0983
312.924	0.1016
313.1355	0.1
313.3469	0.1091
313.5583	0.108
313.7696	0.0989
313.981	0.1043
314.1924	0.1021
314.4037	0.1004
314.6151	0.0954
314.8264	0.0989
315.0377	0.1
315.249	0.1018
315.4603	0.1025
315.6716	0.1001
315.8828	0.1009
316.0941	0.0975
316.3053	0.1001
316.5165	0.094
316.7277	0.0938
316.9389	0.0929
317.1501	0.1021
317.3613	0.093
317.5724	0.0935
317.7836	0.097
317.9947	0.1021
318.2058	0.0979
318.417	0.0897
318.6281	0.1001
318.8391	0.1001
319.0502	0.0957
319.2613	0.0987
319.4723	0.0974
319.6834	0.0999
319.8944	0.1024
320.1054	0.0968
320.3164	0.1031
320.5274	0.1009
320.7383	0.0928
320.9493	0.0967
321.1602	0.1002
321.3712	0.098
321.5821	0.0957
321.793	0.1022
322.0039	0.1025
322.2148	0.102
322.4257	0.1042
322.6365	0.1012
322.8474	0.0998
323.0582	0.1098
323.269	0.0968
323.4798	0.1022
323.6906	0.1047
323.9014	0.1011
324.1122	0.1007
324.3229	0.1041
324.5337	0.0907
324.7444	0.1046
324.9551	0.0977
325.1658	0.1031
325.3765	0.102
325.5872	0.1058
325.7979	0.1088
326.0085	0.1111
326.2192	0.1008
326.4298	0.1055
326.6404	0.1045
326.851	0.102
327.0616	0.1022
327.2722	0.1031
327.4828	0.1024
327.6933	0.1089
327.9039	0.1019
328.1144	0.1077
328.3249	0.1039
328.5354	0.0991
328.7459	0.1061
328.9564	0.1048
329.1669	0.1074
329.3773	0.107
329.5878	0.1072
329.7982	0.1093
330.0086	0.1059
330.219	0.1091
330.4294	0.0986
330.6398	0.1089
330.8502	0.1098
331.0605	0.1069
331.2708	0.1152
331.4812	0.1008
331.6915	0.1085
331.9018	0.1033
332.1121	0.1023
332.3224	0.1123
332.5326	0.1061
332.7429	0.1147
332.9531	0.1058
333.1633	0.1192
333.3735	0.1191
333.5837	0.1105
333.7939	0.108
334.0041	0.1054
334.2143	0.104
334.4244	0.1054
334.6346	0.1065
334.8447	0.1108
335.0548	0.1122
335.2649	0.0938
335.475	0.1023
335.685	0.1066
335.8951	0.1055
336.1051	0.1084
336.3152	0.1127
336.5252	0.109
336.7352	0.1117
336.9452	0.1085
337.1552	0.1109
337.3652	0.114
337.5751	0.1094
337.7851	0.1014
337.995	0.1141
338.2049	0.1098
338.4148	0.1174
338.6247	0.1112
338.8346	0.1176
339.0445	0.1152
339.2543	0.1185
339.4642	0.1109
339.674	0.1115
339.8838	0.1102
340.0936	0.1161
340.3034	0.122
340.5132	0.1144
340.7229	0.1214
340.9327	0.1211
341.1424	0.1229
341.3522	0.1158
341.5619	0.1221
341.7716	0.1201
341.9813	0.1235
342.1909	0.121
342.4006	0.12
342.6102	0.1182
342.8199	0.1198
343.0295	0.1192
343.2391	0.1212
343.4487	0.1172
343.6583	0.1218
343.8679	0.1197
344.0774	0.1295
344.287	0.1305
344.4965	0.1295
344.706	0.1359
344.9155	0.1254
345.125	0.1274
345.3345	0.1287
345.544	0.1137
345.7534	0.1293
345.9629	0.1348
346.1723	0.1364
346.3817	0.1331
346.5911	0.1369
346.8005	0.1256
347.0099	0.1203
347.2193	0.1456
347.4286	0.1385
347.638	0.1384
347.8473	0.1249
348.0566	0.138
348.2659	0.1302
348.4752	0.1336
348.6845	0.1354
348.8937	0.1411
349.103	0.1362
349.3122	0.1332
349.5214	0.1395
349.7306	0.1369
349.9398	0.1313
350.149	0.1372
350.3582	0.1361
350.5674	0.1446
350.7765	0.13
350.9856	0.141
351.1948	0.1466
351.4039	0.1321
351.613	0.1304
351.822	0.1419
352.0311	0.1365
352.2402	0.1416
352.4492	0.141
352.6582	0.1433
352.8672	0.149
353.0762	0.1562
353.2852	0.1513
353.4942	0.1468
353.7032	0.142
353.9121	0.1479
354.1211	0.1521
354.33	0.1462
354.5389	0.1499
354.7478	0.1497
354.9567	0.1564
355.1655	0.1566
355.3744	0.1523
355.5833	0.1551
355.7921	0.1401
356.0009	0.1492
356.2097	0.1523
356.4185	0.1567
356.6273	0.1606
356.8361	0.138
357.0448	0.1601
357.2536	0.1583
357.4623	0.1545
357.671	0.1612
357.8797	0.1641
358.0884	0.1642
358.2971	0.1608
358.5057	0.1631
358.7144	0.1721
358.923	0.1746
359.1316	0.1625
359.3402	0.1774
359.5488	0.1744
359.7574	0.1674
359.966	0.1823
360.1746	0.1687
360.3831	0.1852
360.5916	0.1765
360.8002	0.1774
361.0087	0.1698
361.2172	0.1826
361.4256	0.1733
361.6341	0.1784
361.8426	0.1758
362.051	0.1652
362.2594	0.1715
362.4678	0.1805
362.6762	0.1868
362.8846	0.1842
363.093	0.1879
363.3014	0.1881
363.5097	0.1791
363.718	0.1992
363.9264	0.1926
364.1347	0.195
364.343	0.1739
364.5513	0.1823
364.7595	0.1924
364.9678	0.1885
365.176	0.1854
365.3842	0.186
365.5925	0.1898
365.8007	0.1876
366.0089	0.2037
366.217	0.1906
366.4252	0.1979
366.6333	0.1954
366.8415	0.1862
367.0496	0.1882
367.2577	0.2009
367.4658	0.1961
367.6739	0.196
367.882	0.2036
368.09	0.2061
368.2981	0.2078
368.5061	0.1999
368.7141	0.2095
368.9221	0.203
369.1301	0.2165
369.3381	0.2052
369.5461	0.2162
369.754	0.1995
369.962	0.1969
370.1699	0.2072
370.3778	0.1981
370.5857	0.2071
370.7936	0.2017
371.0015	0.2073
371.2093	0.2057
371.4172	0.2136
371.625	0.2035
371.8328	0.2115
372.0406	0.2198
372.2484	0.2086
372.4562	0.2173
372.664	0.2184
372.8717	0.2089
373.0795	0.2106
373.2872	0.2129
373.4949	0.2074
373.7026	0.2202
373.9103	0.211
374.118	0.2236
374.3256	0.2218
374.5333	0.2119
374.7409	0.2131
374.9485	0.2179
375.1561	0.2121
375.3637	0.2128
375.5713	0.2246
375.7789	0.2094
375.9864	0.2182
376.194	0.2238
376.4015	0.2279
376.609	0.2212
376.8165	0.2171
377.024	0.2151
377.2315	0.217
377.4389	0.2138
377.6464	0.2181
377.8538	0.2262
378.0612	0.2213
378.2686	0.2215
378.476	0.2257
378.6834	0.2303
378.8908	0.2372
379.0981	0.2296
379.3055	0.2307
379.5128	0.2315
379.7201	0.2222
379.9274	0.2331
380.1347	0.2345
380.342	0.2317
380.5492	0.2279
380.7565	0.2471
380.9637	0.2331
381.1709	0.2384
381.3781	0.2266
381.5853	0.2326
381.7925	0.2391
381.9997	0.2435
382.2068	0.2428
382.4139	0.2296
382.6211	0.2464
382.8282	0.2317
383.0353	0.2327
383.2424	0.2361
383.4494	0.2402
383.6565	0.2341
383.8635	0.2446
384.0706	0.2294
384.2776	0.2452
384.4846	0.236
384.6916	0.2375
384.8986	0.2441
385.1055	0.2467
385.3125	0.2464
385.5194	0.2333
385.7263	0.2416
385.9333	0.2447
386.1402	0.2428
386.347	0.2524
386.5539	0.2513
386.7608	0.2414
386.9676	0.2392
387.1744	0.247
387.3813	0.2384
387.5881	0.2385
387.7948	0.2403
388.0016	0.2258
388.2084	0.2445
388.4151	0.2255
388.6219	0.2333
388.8286	0.2385
389.0353	0.229
389.242	0.2324
389.4487	0.225
389.6553	0.2382
389.862	0.2241
390.0686	0.2237
390.2753	0.227
390.4819	0.2277
390.6885	0.2152
390.8951	0.2256
391.1016	0.2301
391.3082	0.2251
391.5147	0.2274
391.7213	0.2245
391.9278	0.2192
392.1343	0.2224
392.3408	0.2198
392.5473	0.2182
392.7537	0.2284
392.9602	0.2178
393.1666	0.2219
393.373	0.2227
393.5794	0.2172
393.7858	0.2133
393.9922	0.2068
394.1986	0.2137
394.4049	0.2176
394.6113	0.2171
394.8176	0.2032
395.0239	0.2061
395.2302	0.208
395.4365	0.2175
395.6428	0.207
395.8491	0.2056
396.0553	0.1937
396.2615	0.2029
396.4678	0.2141
396.674	0.207
396.8802	0.2038
397.0863	0.2018
397.2925	0.2041
397.4987	0.2079
397.7048	0.1964
397.9109	0.1962
398.117	0.2069
398.3231	0.2076
398.5292	0.1937
398.7353	0.1963
398.9413	0.1911
399.1474	0.2003
399.3534	0.1955
399.5594	0.1936
399.7654	0.2034
399.9714	0.192
400.1774	0.2062
400.3833	0.2066
400.5893	0.1959
400.7952	0.1886
401.0011	0.2017
401.207	0.192
401.4129	0.1883
401.6188	0.18
401.8247	0.1942
402.0305	0.1901
402.2364	0.1945
402.4422	0.1927
402.648	0.2111
402.8538	0.1977
403.0596	0.1882
403.2654	0.197
403.4711	0.1967
403.6768	0.2079
403.8826	0.2028
404.0883	0.1977
404.294	0.1929
404.4997	0.1933
404.7054	0.1964
404.911	0.1991
405.1167	0.2038
405.3223	0.2025
405.5279	0.1922
405.7335	0.193
405.9391	0.2051
406.1447	0.1906
406.3502	0.1952
406.5558	0.184
406.7613	0.1889
406.9668	0.1976
407.1724	0.188
407.3778	0.2009
407.5833	0.1909
407.7888	0.197
407.9942	0.1898
408.1997	0.2032
408.4051	0.1871
408.6105	0.2092
408.8159	0.2036
409.0213	0.1854
409.2267	0.2012
409.432	0.2042
409.6374	0.2004
409.8427	0.2014
410.048	0.199
410.2533	0.1947
410.4586	0.1886
410.6639	0.1794
410.8691	0.1947
411.0744	0.1873
411.2796	0.1961
411.4848	0.1875
411.69	0.1947
411.8952	0.1876
412.1004	0.1877
412.3056	0.1969
412.5107	0.1988
412.7158	0.1833
412.921	0.1973
413.1261	0.1871
413.3312	0.2032
413.5362	0.1946
413.7413	0.1893
413.9464	0.1961
414.1514	0.184
414.3564	0.1894
414.5614	0.1985
414.7664	0.1919
414.9714	0.1822
415.1764	0.1956
415.3813	0.1878
415.5863	0.1893
415.7912	0.1951
415.9961	0.1999
416.201	0.1935
416.4059	0.1792
416.6108	0.1822
416.8156	0.1908
417.0205	0.1837
417.2253	0.1895
417.4301	0.1847
417.6349	0.1918
417.8397	0.1804
418.0445	0.188
418.2492	0.1815
418.454	0.1707
418.6587	0.1787
418.8634	0.1843
419.0681	0.179
419.2728	0.1839
419.4775	0.1787
419.6822	0.1892
419.8868	0.1823
420.0915	0.1858
420.2961	0.179
420.5007	0.1778
420.7053	0.1802
420.9099	0.1667
421.1144	0.1807
421.319	0.1692
421.5235	0.1867
421.728	0.1653
421.9325	0.1731
422.137	0.1674
422.3415	0.1813
422.546	0.1743
422.7504	0.1681
422.9549	0.1682
423.1593	0.1676
423.3637	0.1608
423.5681	0.171
423.7725	0.1709
423.9769	0.1661
424.1812	0.1681
424.3856	0.1474
424.5899	0.1736
424.7942	0.1634
424.9985	0.164
425.2028	0.1484
425.4071	0.1625
425.6113	0.15
425.8156	0.1605
426.0198	0.1669
426.224	0.151
426.4282	0.1458
426.6324	0.1557
426.8366	0.157
