Data from MonoPyChalIsomerACN10uM450nmA_Absorbance_13-11-17-092.txt Node
Date: Tue Jul 09 13:11:17 BST 2024
User: LASERRRRR
Spectrometer: FLMT03099
Trigger mode: 0
Integration Time (sec): 2.000000E-1
Scans to average: 1
Electric dark correction enabled: true
Nonlinearity correction enabled: false
Boxcar width: 0
XAxis mode: Wavelengths
Number of Pixels in Spectrum: 3648
>>>>>Begin Spectral Data<<<<<
179.3399	0.0779
179.5586	0.0779
179.7771	0.0779
179.9957	-0.1917
180.2143	-0
180.4329	0.3066
180.6514	-0.2438
180.8699	-0
181.0885	-0
181.307	0.2243
181.5255	0.4047
181.744	-0.1525
181.9625	0.1859
182.181	-0
182.3994	0.1701
182.6179	-0.197
182.8363	-0
183.0547	0.1688
183.2732	0.1483
183.4916	0.0802
183.71	0.0373
183.9284	-0.0065
184.1467	0.0543
184.3651	0.1025
184.5835	0.1727
184.8018	-0.0552
185.0201	0.117
185.2385	-0.0333
185.4568	-0.0834
185.6751	0.0433
185.8934	-0.0474
186.1117	0.0469
186.3299	-0.1643
186.5482	-0.0591
186.7664	0.048
186.9847	0.0497
187.2029	0.111
187.4211	0.0426
187.6393	-0.0247
187.8575	0.046
188.0757	-0.0115
188.2939	0.0057
188.512	0.0864
188.7302	0.185
188.9483	0.1434
189.1665	0.1404
189.3846	0.1561
189.6027	0.0344
189.8208	0.1041
190.0389	0.1703
190.257	0.1915
190.475	0.287
190.6931	0.1016
190.9111	0.3631
191.1292	0.2738
191.3472	0.4023
191.5652	0.3277
191.7832	0.352
192.0012	0.5446
192.2192	0.3999
192.4371	0.4583
192.6551	0.4313
192.873	0.46
193.091	0.5018
193.3089	0.6105
193.5268	0.4537
193.7447	0.5639
193.9626	0.4557
194.1805	0.5462
194.3984	0.5116
194.6162	0.6159
194.8341	0.4642
195.0519	0.6098
195.2697	0.5713
195.4875	0.5651
195.7054	0.7092
195.9231	0.5662
196.1409	0.5791
196.3587	0.5873
196.5765	0.6275
196.7942	0.7864
197.012	0.6382
197.2297	0.6922
197.4474	0.7231
197.6651	0.6851
197.8828	0.7102
198.1005	0.8101
198.3182	0.7461
198.5358	0.7127
198.7535	0.8114
198.9711	0.8219
199.1888	0.7778
199.4064	0.8485
199.624	0.7613
199.8416	0.822
200.0592	0.7417
200.2767	0.7865
200.4943	0.7684
200.7119	0.9641
200.9294	0.8783
201.1469	0.8116
201.3645	0.8051
201.582	0.9346
201.7995	0.7477
202.017	0.855
202.2344	0.9225
202.4519	0.8565
202.6694	0.8156
202.8868	0.8559
203.1042	1.0108
203.3217	1.021
203.5391	1.0268
203.7565	0.9819
203.9739	0.8881
204.1913	0.8327
204.4086	0.9446
204.626	0.9418
204.8433	0.8851
205.0607	0.9064
205.278	0.9551
205.4953	1.228
205.7126	0.8712
205.9299	1.0493
206.1472	0.9742
206.3644	0.9942
206.5817	1.0065
206.7989	0.9783
207.0162	1.0595
207.2334	0.9092
207.4506	1.0341
207.6678	1.0424
207.885	1.1174
208.1022	0.956
208.3194	1.0128
208.5365	0.9834
208.7537	1.1073
208.9708	1.0959
209.1879	1.1249
209.405	1.0581
209.6222	0.9952
209.8392	0.9953
210.0563	0.9775
210.2734	1.0743
210.4905	1.0909
210.7075	0.9868
210.9245	0.9252
211.1416	1.0924
211.3586	1.1059
211.5756	1.0563
211.7926	1.0781
212.0096	0.9965
212.2265	1.0837
212.4435	1.0722
212.6604	1.12
212.8774	1.0281
213.0943	0.9801
213.3112	0.9646
213.5281	1.011
213.745	0.9973
213.9619	1.0041
214.1788	0.9494
214.3956	0.9525
214.6125	0.9246
214.8293	0.8961
215.0461	0.9196
215.2629	0.9196
215.4798	0.8659
215.6965	0.8658
215.9133	0.8382
216.1301	0.7881
216.3469	0.8023
216.5636	0.7868
216.7803	0.7462
216.9971	0.76
217.2138	0.7205
217.4305	0.6971
217.6472	0.6764
217.8639	0.6505
218.0805	0.6035
218.2972	0.5521
218.5138	0.5471
218.7305	0.511
218.9471	0.483
219.1637	0.4664
219.3803	0.4251
219.5969	0.393
219.8135	0.3843
220.0301	0.3555
220.2466	0.3714
220.4632	0.3544
220.6797	0.3188
220.8962	0.3154
221.1127	0.3032
221.3292	0.3022
221.5457	0.2874
221.7622	0.2895
221.9787	0.2859
222.1951	0.2916
222.4116	0.2772
222.628	0.2725
222.8444	0.2688
223.0608	0.2777
223.2772	0.2656
223.4936	0.2782
223.71	0.2744
223.9264	0.2788
224.1427	0.2705
224.3591	0.2772
224.5754	0.2709
224.7917	0.2817
225.008	0.2823
225.2243	0.2804
225.4406	0.2841
225.6569	0.2795
225.8732	0.2902
226.0894	0.274
226.3057	0.2892
226.5219	0.2915
226.7381	0.2895
226.9543	0.2888
227.1705	0.2825
227.3867	0.3001
227.6029	0.293
227.8191	0.3056
228.0352	0.2981
228.2513	0.3014
228.4675	0.3053
228.6836	0.3189
228.8997	0.312
229.1158	0.3148
229.3319	0.3202
229.548	0.3228
229.764	0.3294
229.9801	0.3315
230.1961	0.3395
230.4121	0.3268
230.6282	0.3474
230.8442	0.3534
231.0602	0.3398
231.2761	0.3435
231.4921	0.3563
231.7081	0.372
231.924	0.3621
232.14	0.3619
232.3559	0.3589
232.5718	0.3625
232.7877	0.3537
233.0036	0.3644
233.2195	0.3671
233.4353	0.3786
233.6512	0.3732
233.867	0.3797
234.0829	0.3827
234.2987	0.3826
234.5145	0.3703
234.7303	0.3986
234.9461	0.3961
235.1619	0.39
235.3776	0.3798
235.5934	0.4012
235.8091	0.3901
236.0249	0.3848
236.2406	0.3835
236.4563	0.4029
236.672	0.4006
236.8877	0.4046
237.1034	0.411
237.319	0.4129
237.5347	0.3923
237.7503	0.4049
237.966	0.4106
238.1816	0.413
238.3972	0.4042
238.6128	0.4137
238.8284	0.4235
239.0439	0.4217
239.2595	0.4256
239.475	0.416
239.6906	0.4296
239.9061	0.4097
240.1216	0.4214
240.3371	0.4292
240.5526	0.4285
240.7681	0.4084
240.9836	0.4182
241.199	0.4122
241.4145	0.3922
241.6299	0.4067
241.8453	0.3965
242.0607	0.3832
242.2761	0.3872
242.4915	0.3866
242.7069	0.3819
242.9223	0.3625
243.1376	0.3633
243.353	0.3496
243.5683	0.3477
243.7836	0.3415
243.9989	0.3366
244.2142	0.3276
244.4295	0.3268
244.6448	0.3159
244.86	0.3324
245.0753	0.2994
245.2905	0.2907
245.5057	0.3053
245.721	0.2938
245.9362	0.2781
246.1514	0.2829
246.3665	0.2755
246.5817	0.2723
246.7969	0.2697
247.012	0.268
247.2271	0.2477
247.4423	0.2565
247.6574	0.2576
247.8725	0.2512
248.0876	0.2503
248.3026	0.2421
248.5177	0.2426
248.7328	0.2331
248.9478	0.2362
249.1628	0.2408
249.3779	0.234
249.5929	0.2229
249.8079	0.2325
250.0228	0.2227
250.2378	0.2315
250.4528	0.2202
250.6677	0.2189
250.8827	0.2041
251.0976	0.2044
251.3125	0.2179
251.5274	0.1995
251.7423	0.2044
251.9572	0.2088
252.172	0.2106
252.3869	0.206
252.6017	0.2099
252.8166	0.2069
253.0314	0.1993
253.2462	0.2044
253.461	0.197
253.6758	0.1962
253.8906	0.2039
254.1053	0.2029
254.3201	0.1983
254.5348	0.2008
254.7496	0.2054
254.9643	0.2012
255.179	0.1987
255.3937	0.1929
255.6083	0.2024
255.823	0.1971
256.0377	0.1927
256.2523	0.19
256.467	0.1958
256.6816	0.1887
256.8962	0.1997
257.1108	0.2016
257.3254	0.2035
257.54	0.1925
257.7545	0.1985
257.9691	0.1925
258.1836	0.1882
258.3981	0.197
258.6127	0.1914
258.8272	0.1873
259.0417	0.1965
259.2561	0.1915
259.4706	0.193
259.6851	0.1968
259.8995	0.1831
260.114	0.1825
260.3284	0.2018
260.5428	0.2043
260.7572	0.1976
260.9716	0.1954
261.186	0.1966
261.4003	0.2016
261.6147	0.2054
261.829	0.1978
262.0433	0.2012
262.2577	0.1965
262.472	0.2035
262.6863	0.1896
262.9005	0.1885
263.1148	0.1866
263.3291	0.1841
263.5433	0.1864
263.7576	0.1842
263.9718	0.1911
264.186	0.1851
264.4002	0.1806
264.6144	0.1864
264.8286	0.1848
265.0427	0.1841
265.2569	0.1814
265.471	0.1824
265.6851	0.1779
265.8993	0.1758
266.1134	0.1739
266.3275	0.1785
266.5415	0.1733
266.7556	0.1796
266.9697	0.1762
267.1837	0.1733
267.3978	0.1835
267.6118	0.186
267.8258	0.1907
268.0398	0.1903
268.2538	0.1912
268.4677	0.189
268.6817	0.1949
268.8957	0.1909
269.1096	0.1852
269.3235	0.1767
269.5374	0.1726
269.7514	0.1573
269.9652	0.1642
270.1791	0.1566
270.393	0.1561
270.6068	0.1471
270.8207	0.1475
271.0345	0.1534
271.2483	0.1498
271.4622	0.1479
271.676	0.1477
271.8897	0.1404
272.1035	0.1354
272.3173	0.1433
272.531	0.1467
272.7448	0.141
272.9585	0.136
273.1722	0.1344
273.3859	0.1359
273.5996	0.1356
273.8133	0.131
274.0269	0.1403
274.2406	0.1371
274.4542	0.1371
274.6679	0.1317
274.8815	0.1349
275.0951	0.1408
275.3087	0.1302
275.5223	0.1336
275.7358	0.1352
275.9494	0.1377
276.1629	0.1355
276.3765	0.1373
276.59	0.143
276.8035	0.145
277.017	0.1412
277.2305	0.1396
277.444	0.1345
277.6574	0.1387
277.8709	0.1446
278.0843	0.1424
278.2978	0.1398
278.5112	0.1436
278.7246	0.1416
278.938	0.1441
279.1513	0.1482
279.3647	0.1442
279.5781	0.1357
279.7914	0.1425
280.0047	0.1394
280.2181	0.151
280.4314	0.1438
280.6447	0.1371
280.8579	0.1529
281.0712	0.1499
281.2845	0.1462
281.4977	0.1446
281.711	0.1416
281.9242	0.147
282.1374	0.1451
282.3506	0.1433
282.5638	0.1569
282.7769	0.145
282.9901	0.1432
283.2033	0.1501
283.4164	0.1569
283.6295	0.1587
283.8426	0.1536
284.0557	0.1462
284.2688	0.1496
284.4819	0.1507
284.695	0.1531
284.908	0.1551
285.1211	0.1609
285.3341	0.1488
285.5471	0.1587
285.7601	0.1547
285.9731	0.1602
286.1861	0.1615
286.3991	0.1554
286.612	0.1615
286.825	0.1596
287.0379	0.1575
287.2508	0.1544
287.4637	0.1595
287.6766	0.1501
287.8895	0.16
288.1024	0.1601
288.3152	0.1551
288.5281	0.1693
288.7409	0.1534
288.9538	0.1622
289.1666	0.1671
289.3794	0.1605
289.5922	0.1664
289.8049	0.1591
290.0177	0.1683
290.2304	0.16
290.4432	0.1632
290.6559	0.1582
290.8686	0.1623
291.0813	0.1622
291.294	0.1666
291.5067	0.1567
291.7194	0.1643
291.932	0.1633
292.1447	0.1602
292.3573	0.163
292.5699	0.1699
292.7825	0.1634
292.9951	0.162
293.2077	0.158
293.4203	0.1616
293.6328	0.1694
293.8454	0.1625
294.0579	0.1661
294.2704	0.1722
294.4829	0.1687
294.6954	0.1675
294.9079	0.1689
295.1204	0.1681
295.3328	0.1678
295.5453	0.1618
295.7577	0.1538
295.9701	0.1665
296.1825	0.1675
296.3949	0.1632
296.6073	0.161
296.8197	0.1628
297.0321	0.1625
297.2444	0.1646
297.4567	0.1642
297.6691	0.168
297.8814	0.1547
298.0937	0.1634
298.306	0.1703
298.5182	0.1553
298.7305	0.1619
298.9428	0.1566
299.155	0.1591
299.3672	0.1628
299.5794	0.1659
299.7916	0.1669
300.0038	0.1605
300.216	0.1647
300.4282	0.1592
300.6403	0.1615
300.8525	0.1586
301.0646	0.161
301.2767	0.1624
301.4888	0.1589
301.7009	0.1623
301.913	0.1685
302.125	0.1587
302.3371	0.1689
302.5491	0.1598
302.7612	0.1675
302.9732	0.1681
303.1852	0.1637
303.3972	0.1672
303.6092	0.1608
303.8211	0.1635
304.0331	0.1581
304.245	0.16
304.457	0.1672
304.6689	0.1563
304.8808	0.1505
305.0927	0.1566
305.3046	0.1489
305.5164	0.1527
305.7283	0.1589
305.9401	0.1561
306.152	0.1485
306.3638	0.1578
306.5756	0.1489
306.7874	0.143
306.9992	0.1408
307.2109	0.1346
307.4227	0.1366
307.6344	0.1344
307.8462	0.1338
308.0579	0.1313
308.2696	0.1337
308.4813	0.1315
308.693	0.1295
308.9046	0.1232
309.1163	0.1249
309.328	0.1156
309.5396	0.117
309.7512	0.1279
309.9628	0.1133
310.1744	0.1159
310.386	0.1193
310.5976	0.1157
310.8091	0.1145
311.0207	0.1109
311.2322	0.1148
311.4437	0.111
311.6552	0.116
311.8667	0.1068
312.0782	0.1053
312.2897	0.1088
312.5012	0.1096
312.7126	0.1021
312.924	0.0954
313.1355	0.0981
313.3469	0.1067
313.5583	0.1071
313.7696	0.1001
313.981	0.0977
314.1924	0.0937
314.4037	0.1035
314.6151	0.0927
314.8264	0.0966
315.0377	0.095
315.249	0.0948
315.4603	0.0921
315.6716	0.0965
315.8828	0.0979
316.0941	0.0915
316.3053	0.0915
316.5165	0.0879
316.7277	0.0879
316.9389	0.0951
317.1501	0.0952
317.3613	0.0873
317.5724	0.0916
317.7836	0.092
317.9947	0.0971
318.2058	0.0872
318.417	0.0895
318.6281	0.0904
318.8391	0.0875
319.0502	0.0941
319.2613	0.0964
319.4723	0.0936
319.6834	0.0941
319.8944	0.0922
320.1054	0.0898
320.3164	0.0995
320.5274	0.0981
320.7383	0.0934
320.9493	0.092
321.1602	0.0931
321.3712	0.101
321.5821	0.0922
321.793	0.0867
322.0039	0.0847
322.2148	0.095
322.4257	0.0878
322.6365	0.0894
322.8474	0.091
323.0582	0.1017
323.269	0.092
323.4798	0.0947
323.6906	0.0914
323.9014	0.0941
324.1122	0.0948
324.3229	0.0938
324.5337	0.083
324.7444	0.0853
324.9551	0.0979
325.1658	0.0939
325.3765	0.0941
325.5872	0.0942
325.7979	0.0983
326.0085	0.0935
326.2192	0.0951
326.4298	0.1023
326.6404	0.0975
326.851	0.0924
327.0616	0.0998
327.2722	0.0906
327.4828	0.0974
327.6933	0.1019
327.9039	0.0952
328.1144	0.1023
328.3249	0.1033
328.5354	0.0977
328.7459	0.0907
328.9564	0.1019
329.1669	0.0938
329.3773	0.0997
329.5878	0.1062
329.7982	0.097
330.0086	0.1022
330.219	0.102
330.4294	0.0938
330.6398	0.1047
330.8502	0.0948
331.0605	0.1002
331.2708	0.1018
331.4812	0.0983
331.6915	0.1004
331.9018	0.0938
332.1121	0.1047
332.3224	0.0972
332.5326	0.0926
332.7429	0.1004
332.9531	0.0961
333.1633	0.1044
333.3735	0.0992
333.5837	0.1028
333.7939	0.1056
334.0041	0.1024
334.2143	0.1052
334.4244	0.1006
334.6346	0.0951
334.8447	0.1005
335.0548	0.0996
335.2649	0.0924
335.475	0.0967
335.685	0.1021
335.8951	0.1022
336.1051	0.0909
336.3152	0.1056
336.5252	0.1029
336.7352	0.0981
336.9452	0.102
337.1552	0.1052
337.3652	0.1093
337.5751	0.1062
337.7851	0.0966
337.995	0.1124
338.2049	0.1036
338.4148	0.1026
338.6247	0.102
338.8346	0.099
339.0445	0.1066
339.2543	0.1103
339.4642	0.1062
339.674	0.1112
339.8838	0.1087
340.0936	0.099
340.3034	0.1181
340.5132	0.1109
340.7229	0.1157
340.9327	0.1076
341.1424	0.1094
341.3522	0.1108
341.5619	0.1206
341.7716	0.1169
341.9813	0.1188
342.1909	0.1211
342.4006	0.1105
342.6102	0.1137
342.8199	0.1078
343.0295	0.1169
343.2391	0.1218
343.4487	0.1131
343.6583	0.1193
343.8679	0.1129
344.0774	0.1228
344.287	0.1136
344.4965	0.1185
344.706	0.1273
344.9155	0.1214
345.125	0.1176
345.3345	0.1199
345.544	0.11
345.7534	0.1199
345.9629	0.1216
346.1723	0.1294
346.3817	0.1242
346.5911	0.1261
346.8005	0.1187
347.0099	0.1189
347.2193	0.1252
347.4286	0.1213
347.638	0.1367
347.8473	0.1293
348.0566	0.1385
348.2659	0.1161
348.4752	0.1304
348.6845	0.1266
348.8937	0.1333
349.103	0.1308
349.3122	0.1348
349.5214	0.1368
349.7306	0.1329
349.9398	0.1317
350.149	0.142
350.3582	0.1326
350.5674	0.134
350.7765	0.1278
350.9856	0.1328
351.1948	0.1393
351.4039	0.1287
351.613	0.1227
351.822	0.1341
352.0311	0.1401
352.2402	0.1434
352.4492	0.1405
352.6582	0.1363
352.8672	0.139
353.0762	0.1572
353.2852	0.1594
353.4942	0.1556
353.7032	0.1389
353.9121	0.145
354.1211	0.1459
354.33	0.1463
354.5389	0.1423
354.7478	0.1412
354.9567	0.1349
355.1655	0.1471
355.3744	0.1555
355.5833	0.15
355.7921	0.1565
356.0009	0.1538
356.2097	0.1539
356.4185	0.1549
356.6273	0.1614
356.8361	0.1427
357.0448	0.1538
357.2536	0.1544
357.4623	0.1528
357.671	0.1599
357.8797	0.1632
358.0884	0.1593
358.2971	0.159
358.5057	0.1601
358.7144	0.1634
358.923	0.1709
359.1316	0.1698
359.3402	0.1749
359.5488	0.1629
359.7574	0.1644
359.966	0.1735
360.1746	0.1743
360.3831	0.1797
360.5916	0.1816
360.8002	0.1727
361.0087	0.1759
361.2172	0.1756
361.4256	0.1731
361.6341	0.1771
361.8426	0.1858
362.051	0.1712
362.2594	0.182
362.4678	0.177
362.6762	0.1809
362.8846	0.1887
363.093	0.1849
363.3014	0.1889
363.5097	0.1858
363.718	0.1903
363.9264	0.1838
364.1347	0.1929
364.343	0.1881
364.5513	0.1952
364.7595	0.1933
364.9678	0.1927
365.176	0.1974
365.3842	0.1891
365.5925	0.1907
365.8007	0.1901
366.0089	0.2079
366.217	0.1883
366.4252	0.2112
366.6333	0.1949
366.8415	0.2083
367.0496	0.2102
367.2577	0.2023
367.4658	0.2152
367.6739	0.208
367.882	0.2069
368.09	0.2004
368.2981	0.217
368.5061	0.2124
368.7141	0.2132
368.9221	0.1988
369.1301	0.2264
369.3381	0.2138
369.5461	0.2119
369.754	0.2223
369.962	0.2073
370.1699	0.2113
370.3778	0.2075
370.5857	0.21
370.7936	0.2153
371.0015	0.2242
371.2093	0.2095
371.4172	0.2234
371.625	0.2239
371.8328	0.2272
372.0406	0.2255
372.2484	0.2326
372.4562	0.2332
372.664	0.2256
372.8717	0.2201
373.0795	0.2222
373.2872	0.2337
373.4949	0.2225
373.7026	0.2216
373.9103	0.2311
374.118	0.2428
374.3256	0.224
374.5333	0.2272
374.7409	0.2377
374.9485	0.2365
375.1561	0.2304
375.3637	0.2353
375.5713	0.2389
375.7789	0.2324
375.9864	0.2327
376.194	0.2328
376.4015	0.2399
376.609	0.239
376.8165	0.2354
377.024	0.2312
377.2315	0.2444
377.4389	0.24
377.6464	0.2384
377.8538	0.242
378.0612	0.2451
378.2686	0.2383
378.476	0.2488
378.6834	0.2528
378.8908	0.2474
379.0981	0.2592
379.3055	0.2449
379.5128	0.2444
379.7201	0.2463
379.9274	0.244
380.1347	0.2486
380.342	0.2529
380.5492	0.2592
380.7565	0.246
380.9637	0.2563
381.1709	0.2561
381.3781	0.2542
381.5853	0.2683
381.7925	0.2545
381.9997	0.2589
382.2068	0.2559
382.4139	0.2592
382.6211	0.2614
382.8282	0.2575
383.0353	0.2501
383.2424	0.2602
383.4494	0.2651
383.6565	0.2618
383.8635	0.2725
384.0706	0.2659
384.2776	0.2594
384.4846	0.2663
384.6916	0.2655
384.8986	0.2574
385.1055	0.2674
385.3125	0.2712
385.5194	0.2699
385.7263	0.266
385.9333	0.2605
386.1402	0.2723
386.347	0.2672
386.5539	0.2527
386.7608	0.2668
386.9676	0.2632
387.1744	0.2504
387.3813	0.2578
387.5881	0.2601
387.7948	0.2728
388.0016	0.2657
388.2084	0.2707
388.4151	0.2566
388.6219	0.262
388.8286	0.2673
389.0353	0.251
389.242	0.2532
389.4487	0.2548
389.6553	0.2619
389.862	0.2392
390.0686	0.24
390.2753	0.2513
390.4819	0.2585
390.6885	0.256
390.8951	0.2503
391.1016	0.2552
391.3082	0.2581
391.5147	0.245
391.7213	0.2461
391.9278	0.2438
392.1343	0.2439
392.3408	0.2406
392.5473	0.2387
392.7537	0.2496
392.9602	0.2323
393.1666	0.2375
393.373	0.2302
393.5794	0.2403
393.7858	0.2323
393.9922	0.2263
394.1986	0.2397
394.4049	0.2338
394.6113	0.2408
394.8176	0.2242
395.0239	0.2266
395.2302	0.215
395.4365	0.2367
395.6428	0.2279
395.8491	0.2278
396.0553	0.2279
396.2615	0.2378
396.4678	0.2416
396.674	0.217
396.8802	0.2143
397.0863	0.2314
397.2925	0.2236
397.4987	0.2177
397.7048	0.227
397.9109	0.2242
398.117	0.2375
398.3231	0.24
398.5292	0.2181
398.7353	0.2177
398.9413	0.2205
399.1474	0.2224
399.3534	0.2196
399.5594	0.2168
399.7654	0.2216
399.9714	0.2166
400.1774	0.2225
400.3833	0.2237
400.5893	0.2144
400.7952	0.222
401.0011	0.2196
401.207	0.2197
401.4129	0.2055
401.6188	0.2073
401.8247	0.2117
402.0305	0.2128
402.2364	0.2233
402.4422	0.2234
402.648	0.238
402.8538	0.2162
403.0596	0.2094
403.2654	0.2127
403.4711	0.2116
403.6768	0.2204
403.8826	0.221
404.0883	0.2189
404.294	0.2124
404.4997	0.2292
404.7054	0.2224
404.911	0.2232
405.1167	0.2327
405.3223	0.213
405.5279	0.2175
405.7335	0.2114
405.9391	0.2216
406.1447	0.2182
406.3502	0.2136
406.5558	0.2138
406.7613	0.2255
406.9668	0.2261
407.1724	0.222
407.3778	0.2271
407.5833	0.2301
407.7888	0.2336
407.9942	0.2231
408.1997	0.2312
408.4051	0.2173
408.6105	0.2101
408.8159	0.2331
409.0213	0.2148
409.2267	0.2127
409.432	0.2199
409.6374	0.218
409.8427	0.2394
410.048	0.2131
410.2533	0.2136
410.4586	0.2313
410.6639	0.2094
410.8691	0.2166
411.0744	0.2159
411.2796	0.2177
411.4848	0.2083
411.69	0.2236
411.8952	0.2216
412.1004	0.2122
412.3056	0.2283
412.5107	0.2231
412.7158	0.2168
412.921	0.2112
413.1261	0.207
413.3312	0.2211
413.5362	0.2157
413.7413	0.2151
413.9464	0.2134
414.1514	0.2121
414.3564	0.2151
414.5614	0.2275
414.7664	0.213
414.9714	0.2021
415.1764	0.2123
415.3813	0.2193
415.5863	0.2113
415.7912	0.2182
415.9961	0.2183
416.201	0.2167
416.4059	0.219
416.6108	0.214
416.8156	0.2109
417.0205	0.2166
417.2253	0.2188
417.4301	0.2146
417.6349	0.2119
417.8397	0.2076
418.0445	0.207
418.2492	0.1937
418.454	0.2101
418.6587	0.2019
418.8634	0.2134
419.0681	0.2087
419.2728	0.2147
419.4775	0.207
419.6822	0.2013
419.8868	0.2044
420.0915	0.204
420.2961	0.2079
420.5007	0.2086
420.7053	0.201
420.9099	0.1949
421.1144	0.1952
421.319	0.1927
421.5235	0.2123
421.728	0.1972
421.9325	0.1918
422.137	0.1864
422.3415	0.2078
422.546	0.1923
422.7504	0.1984
422.9549	0.1987
423.1593	0.2021
423.3637	0.1945
423.5681	0.1913
423.7725	0.1812
423.9769	0.1891
424.1812	0.187
424.3856	0.1888
424.5899	0.1933
424.7942	0.1803
424.9985	0.1806
425.2028	0.1787
425.4071	0.1732
425.6113	0.1793
425.8156	0.191
426.0198	0.1774
426.224	0.1781
426.4282	0.1782
426.6324	0.1814
