Data from MonoPyChalIsomerACN10uM450nmA_Absorbance_13-11-25-691.txt Node
Date: Tue Jul 09 13:11:25 BST 2024
User: LASERRRRR
Spectrometer: FLMT03099
Trigger mode: 0
Integration Time (sec): 2.000000E-1
Scans to average: 1
Electric dark correction enabled: true
Nonlinearity correction enabled: false
Boxcar width: 0
XAxis mode: Wavelengths
Number of Pixels in Spectrum: 3648
>>>>>Begin Spectral Data<<<<<
179.3399	-0.0298
179.5586	-0.0298
179.7771	-0.0298
179.9957	-0.0709
180.2143	0.5091
180.4329	0.3609
180.6514	0.3662
180.8699	-0
181.0885	-0
181.307	0.1346
181.5255	1.2064
181.744	-0.2802
181.9625	0.4358
182.181	-0.1865
182.3994	-0
182.6179	-0.1281
182.8363	-0.0185
183.0547	0.0918
183.2732	0.0981
183.4916	0.0285
183.71	0.0318
183.9284	0.0383
184.1467	-0.0436
184.3651	-0.0162
184.5835	0.0836
184.8018	0.0457
185.0201	0.1059
185.2385	0.0407
185.4568	-0.0318
185.6751	0.1008
185.8934	-0.0417
186.1117	0.0924
186.3299	-0.024
186.5482	-0.0242
186.7664	0.0175
186.9847	0.098
187.2029	0.1402
187.4211	0.1454
187.6393	-0.0154
187.8575	0.0751
188.0757	0.0002
188.2939	-0.01
188.512	-0.0167
188.7302	-0.0041
188.9483	0.0367
189.1665	-0.0281
189.3846	0.1347
189.6027	0.2158
189.8208	0.0867
190.0389	0.3168
190.257	0.141
190.475	0.377
190.6931	0.1292
190.9111	0.2231
191.1292	0.2075
191.3472	0.3334
191.5652	0.2776
191.7832	0.3528
192.0012	0.4235
192.2192	0.3872
192.4371	0.495
192.6551	0.4275
192.873	0.2993
193.091	0.4662
193.3089	0.569
193.5268	0.5422
193.7447	0.5962
193.9626	0.491
194.1805	0.4955
194.3984	0.6526
194.6162	0.5092
194.8341	0.5089
195.0519	0.6174
195.2697	0.5572
195.4875	0.5314
195.7054	0.598
195.9231	0.5194
196.1409	0.6127
196.3587	0.5949
196.5765	0.5609
196.7942	0.7378
197.012	0.6333
197.2297	0.7631
197.4474	0.7374
197.6651	0.6878
197.8828	0.7379
198.1005	0.7476
198.3182	0.6162
198.5358	0.8007
198.7535	0.7023
198.9711	0.7668
199.1888	0.7172
199.4064	0.7852
199.624	0.6435
199.8416	0.8369
200.0592	0.7319
200.2767	0.86
200.4943	0.8166
200.7119	0.8031
200.9294	0.9391
201.1469	0.8376
201.3645	0.7907
201.582	0.904
201.7995	0.7612
202.017	0.9448
202.2344	0.8398
202.4519	0.8989
202.6694	0.8305
202.8868	0.9072
203.1042	0.9178
203.3217	0.9599
203.5391	1.0097
203.7565	0.8657
203.9739	0.9084
204.1913	0.7961
204.4086	0.9135
204.626	0.9774
204.8433	0.8776
205.0607	0.8942
205.278	0.9172
205.4953	0.9623
205.7126	0.9138
205.9299	0.9445
206.1472	0.9656
206.3644	0.8964
206.5817	0.991
206.7989	1.0328
207.0162	1.0488
207.2334	0.9476
207.4506	0.9098
207.6678	1.0631
207.885	1.1159
208.1022	1.0409
208.3194	0.9969
208.5365	1.0557
208.7537	1.0212
208.9708	1.0641
209.1879	1.0658
209.405	1.0165
209.6222	1.1101
209.8392	1.0664
210.0563	0.9595
210.2734	1.0767
210.4905	1.1278
210.7075	1.044
210.9245	1.0575
211.1416	1.0237
211.3586	1.0445
211.5756	1.1004
211.7926	1.0347
212.0096	1.0155
212.2265	1.0108
212.4435	1.0548
212.6604	1.0547
212.8774	0.9901
213.0943	1.0019
213.3112	1.0596
213.5281	1.0387
213.745	1.0118
213.9619	0.9354
214.1788	0.9663
214.3956	0.9344
214.6125	0.914
214.8293	0.8576
215.0461	0.9081
215.2629	0.8417
215.4798	0.8515
215.6965	0.8348
215.9133	0.8236
216.1301	0.823
216.3469	0.7725
216.5636	0.7748
216.7803	0.7229
216.9971	0.7264
217.2138	0.7235
217.4305	0.6993
217.6472	0.6631
217.8639	0.6561
218.0805	0.6093
218.2972	0.5519
218.5138	0.5136
218.7305	0.5055
218.9471	0.4609
219.1637	0.4445
219.3803	0.4293
219.5969	0.3907
219.8135	0.3689
220.0301	0.3436
220.2466	0.3454
220.4632	0.3465
220.6797	0.314
220.8962	0.3052
221.1127	0.3011
221.3292	0.2878
221.5457	0.2918
221.7622	0.2878
221.9787	0.2842
222.1951	0.2929
222.4116	0.2746
222.628	0.262
222.8444	0.2798
223.0608	0.2663
223.2772	0.2575
223.4936	0.2647
223.71	0.274
223.9264	0.2639
224.1427	0.2606
224.3591	0.2714
224.5754	0.2658
224.7917	0.2641
225.008	0.2867
225.2243	0.2623
225.4406	0.2836
225.6569	0.271
225.8732	0.2946
226.0894	0.279
226.3057	0.2971
226.5219	0.298
226.7381	0.2875
226.9543	0.2791
227.1705	0.2825
227.3867	0.2873
227.6029	0.2974
227.8191	0.3051
228.0352	0.3019
228.2513	0.314
228.4675	0.303
228.6836	0.3149
228.8997	0.3201
229.1158	0.3183
229.3319	0.3182
229.548	0.3047
229.764	0.3158
229.9801	0.322
230.1961	0.328
230.4121	0.3366
230.6282	0.3378
230.8442	0.3438
231.0602	0.3536
231.2761	0.351
231.4921	0.3545
231.7081	0.3507
231.924	0.3615
232.14	0.3569
232.3559	0.3564
232.5718	0.3596
232.7877	0.3553
233.0036	0.3635
233.2195	0.3557
233.4353	0.3613
233.6512	0.3684
233.867	0.365
234.0829	0.3757
234.2987	0.3747
234.5145	0.3696
234.7303	0.3913
234.9461	0.3915
235.1619	0.3921
235.3776	0.3811
235.5934	0.3979
235.8091	0.3809
236.0249	0.3959
236.2406	0.387
236.4563	0.3913
236.672	0.3947
236.8877	0.4125
237.1034	0.4032
237.319	0.4035
237.5347	0.4079
237.7503	0.4048
237.966	0.4135
238.1816	0.4083
238.3972	0.4154
238.6128	0.4035
238.8284	0.3989
239.0439	0.4045
239.2595	0.4325
239.475	0.4224
239.6906	0.4261
239.9061	0.4082
240.1216	0.4126
240.3371	0.4155
240.5526	0.4206
240.7681	0.4114
240.9836	0.4086
241.199	0.4116
241.4145	0.3893
241.6299	0.4108
241.8453	0.4016
242.0607	0.3896
242.2761	0.3824
242.4915	0.3753
242.7069	0.3859
242.9223	0.3675
243.1376	0.3665
243.353	0.3616
243.5683	0.3524
243.7836	0.35
243.9989	0.3516
244.2142	0.3338
244.4295	0.3411
244.6448	0.3336
244.86	0.3243
245.0753	0.3028
245.2905	0.2966
245.5057	0.3063
245.721	0.3042
245.9362	0.2794
246.1514	0.282
246.3665	0.2882
246.5817	0.2756
246.7969	0.2852
247.012	0.2771
247.2271	0.2656
247.4423	0.2694
247.6574	0.2631
247.8725	0.2559
248.0876	0.2569
248.3026	0.2496
248.5177	0.2446
248.7328	0.2319
248.9478	0.2379
249.1628	0.2438
249.3779	0.2338
249.5929	0.2293
249.8079	0.2283
250.0228	0.2252
250.2378	0.2271
250.4528	0.2223
250.6677	0.2206
250.8827	0.2133
251.0976	0.213
251.3125	0.2194
251.5274	0.2045
251.7423	0.2045
251.9572	0.2121
252.172	0.2007
252.3869	0.2018
252.6017	0.2107
252.8166	0.207
253.0314	0.2045
253.2462	0.2029
253.461	0.2028
253.6758	0.1979
253.8906	0.1969
254.1053	0.1983
254.3201	0.2024
254.5348	0.1994
254.7496	0.2037
254.9643	0.1962
255.179	0.1995
255.3937	0.2006
255.6083	0.2071
255.823	0.1937
256.0377	0.1857
256.2523	0.1946
256.467	0.1937
256.6816	0.1949
256.8962	0.1978
257.1108	0.1951
257.3254	0.1963
257.54	0.1972
257.7545	0.1915
257.9691	0.2006
258.1836	0.1909
258.3981	0.2001
258.6127	0.1972
258.8272	0.1912
259.0417	0.1881
259.2561	0.1935
259.4706	0.1829
259.6851	0.1959
259.8995	0.1917
260.114	0.1878
260.3284	0.2038
260.5428	0.1917
260.7572	0.1949
260.9716	0.1972
261.186	0.204
261.4003	0.2073
261.6147	0.1942
261.829	0.206
262.0433	0.2003
262.2577	0.1997
262.472	0.2001
262.6863	0.1942
262.9005	0.2009
263.1148	0.1945
263.3291	0.1835
263.5433	0.1901
263.7576	0.1924
263.9718	0.1884
264.186	0.187
264.4002	0.1851
264.6144	0.188
264.8286	0.1788
265.0427	0.181
265.2569	0.1893
265.471	0.1772
265.6851	0.1718
265.8993	0.1794
266.1134	0.1689
266.3275	0.1819
266.5415	0.1776
266.7556	0.1811
266.9697	0.1795
267.1837	0.1826
267.3978	0.1884
267.6118	0.1913
267.8258	0.1915
268.0398	0.1903
268.2538	0.1907
268.4677	0.1874
268.6817	0.1932
268.8957	0.1976
269.1096	0.1861
269.3235	0.1822
269.5374	0.1762
269.7514	0.1695
269.9652	0.1671
270.1791	0.1651
270.393	0.1537
270.6068	0.147
270.8207	0.1534
271.0345	0.1533
271.2483	0.1525
271.4622	0.1516
271.676	0.1481
271.8897	0.1478
272.1035	0.1422
272.3173	0.1507
272.531	0.1464
272.7448	0.1433
272.9585	0.1482
273.1722	0.1417
273.3859	0.137
273.5996	0.1362
273.8133	0.1421
274.0269	0.1499
274.2406	0.1414
274.4542	0.1464
274.6679	0.1415
274.8815	0.146
275.0951	0.1462
275.3087	0.1415
275.5223	0.1411
275.7358	0.1431
275.9494	0.1537
276.1629	0.1511
276.3765	0.1365
276.59	0.1396
276.8035	0.1504
277.017	0.1423
277.2305	0.1465
277.444	0.1419
277.6574	0.1444
277.8709	0.1518
278.0843	0.1511
278.2978	0.1462
278.5112	0.1532
278.7246	0.1403
278.938	0.1461
279.1513	0.1525
279.3647	0.1486
279.5781	0.1547
279.7914	0.1523
280.0047	0.1573
280.2181	0.1515
280.4314	0.1492
280.6447	0.1533
280.8579	0.1554
281.0712	0.1504
281.2845	0.1486
281.4977	0.1525
281.711	0.159
281.9242	0.1571
282.1374	0.1531
282.3506	0.1454
282.5638	0.1549
282.7769	0.1556
282.9901	0.1453
283.2033	0.1506
283.4164	0.1564
283.6295	0.156
283.8426	0.1575
284.0557	0.1449
284.2688	0.1582
284.4819	0.159
284.695	0.1539
284.908	0.1566
285.1211	0.1631
285.3341	0.1524
285.5471	0.1608
285.7601	0.1504
285.9731	0.1568
286.1861	0.1604
286.3991	0.1572
286.612	0.1622
286.825	0.1614
287.0379	0.1542
287.2508	0.1578
287.4637	0.1573
287.6766	0.1563
287.8895	0.1577
288.1024	0.1568
288.3152	0.1605
288.5281	0.165
288.7409	0.1503
288.9538	0.1508
289.1666	0.1601
289.3794	0.1535
289.5922	0.159
289.8049	0.154
290.0177	0.1622
290.2304	0.1524
290.4432	0.1579
290.6559	0.1563
290.8686	0.1691
291.0813	0.1597
291.294	0.1561
291.5067	0.1528
291.7194	0.1601
291.932	0.1563
292.1447	0.1582
292.3573	0.1547
292.5699	0.1667
292.7825	0.1618
292.9951	0.151
293.2077	0.1539
293.4203	0.153
293.6328	0.167
293.8454	0.1569
294.0579	0.1602
294.2704	0.1583
294.4829	0.1551
294.6954	0.1559
294.9079	0.1604
295.1204	0.156
295.3328	0.1554
295.5453	0.1465
295.7577	0.155
295.9701	0.155
296.1825	0.1587
296.3949	0.149
296.6073	0.1712
296.8197	0.1607
297.0321	0.16
297.2444	0.1531
297.4567	0.1493
297.6691	0.1567
297.8814	0.1493
298.0937	0.1537
298.306	0.1536
298.5182	0.1461
298.7305	0.155
298.9428	0.1484
299.155	0.1582
299.3672	0.155
299.5794	0.1574
299.7916	0.154
300.0038	0.1542
300.216	0.1559
300.4282	0.1567
300.6403	0.1528
300.8525	0.151
301.0646	0.1541
301.2767	0.158
301.4888	0.1493
301.7009	0.1553
301.913	0.1615
302.125	0.1485
302.3371	0.1554
302.5491	0.1527
302.7612	0.1508
302.9732	0.1557
303.1852	0.1538
303.3972	0.1575
303.6092	0.1533
303.8211	0.157
304.0331	0.1502
304.245	0.1549
304.457	0.1543
304.6689	0.1501
304.8808	0.1517
305.0927	0.1537
305.3046	0.146
305.5164	0.1535
305.7283	0.1479
305.9401	0.1468
306.152	0.1445
306.3638	0.1495
306.5756	0.1392
306.7874	0.1436
306.9992	0.1382
307.2109	0.1354
307.4227	0.1426
307.6344	0.1362
307.8462	0.1329
308.0579	0.1266
308.2696	0.1229
308.4813	0.1265
308.693	0.1297
308.9046	0.1216
309.1163	0.1157
309.328	0.1183
309.5396	0.1175
309.7512	0.1246
309.9628	0.1145
310.1744	0.1157
310.386	0.1136
310.5976	0.111
310.8091	0.1147
311.0207	0.1153
311.2322	0.114
311.4437	0.1229
311.6552	0.111
311.8667	0.1112
312.0782	0.1131
312.2897	0.1068
312.5012	0.1053
312.7126	0.1001
312.924	0.0998
313.1355	0.105
313.3469	0.1075
313.5583	0.1083
313.7696	0.0985
313.981	0.1013
314.1924	0.1006
314.4037	0.1002
314.6151	0.096
314.8264	0.1004
315.0377	0.0994
315.249	0.1032
315.4603	0.1018
315.6716	0.1
315.8828	0.104
316.0941	0.0981
316.3053	0.094
316.5165	0.089
316.7277	0.0932
316.9389	0.0955
317.1501	0.0916
317.3613	0.0923
317.5724	0.0926
317.7836	0.0915
317.9947	0.1003
318.2058	0.0995
318.417	0.0904
318.6281	0.1057
318.8391	0.0906
319.0502	0.0918
319.2613	0.0985
319.4723	0.1028
319.6834	0.0988
319.8944	0.1068
320.1054	0.0979
320.3164	0.0961
320.5274	0.098
320.7383	0.0971
320.9493	0.0892
321.1602	0.1014
321.3712	0.1069
321.5821	0.0959
321.793	0.0915
322.0039	0.0867
322.2148	0.0944
322.4257	0.1031
322.6365	0.0978
322.8474	0.0967
323.0582	0.1039
323.269	0.0992
323.4798	0.0934
323.6906	0.0963
323.9014	0.1025
324.1122	0.1021
324.3229	0.1016
324.5337	0.0895
324.7444	0.0948
324.9551	0.0971
325.1658	0.1042
325.3765	0.0992
325.5872	0.0928
325.7979	0.1048
326.0085	0.1044
326.2192	0.1084
326.4298	0.1075
326.6404	0.0988
326.851	0.0994
327.0616	0.1018
327.2722	0.1045
327.4828	0.1014
327.6933	0.1044
327.9039	0.1043
328.1144	0.1056
328.3249	0.1093
328.5354	0.1003
328.7459	0.1072
328.9564	0.0978
329.1669	0.0984
329.3773	0.1042
329.5878	0.1104
329.7982	0.1075
330.0086	0.1058
330.219	0.1053
330.4294	0.1004
330.6398	0.1135
330.8502	0.1086
331.0605	0.1035
331.2708	0.1098
331.4812	0.1004
331.6915	0.104
331.9018	0.0964
332.1121	0.1058
332.3224	0.1098
332.5326	0.0959
332.7429	0.1137
332.9531	0.1058
333.1633	0.1175
333.3735	0.1125
333.5837	0.104
333.7939	0.1073
334.0041	0.1074
334.2143	0.1013
334.4244	0.1091
334.6346	0.1042
334.8447	0.1046
335.0548	0.104
335.2649	0.1
335.475	0.1029
335.685	0.1119
335.8951	0.1195
336.1051	0.1122
336.3152	0.1092
336.5252	0.1054
336.7352	0.1079
336.9452	0.1116
337.1552	0.107
337.3652	0.1097
337.5751	0.1065
337.7851	0.1055
337.995	0.1129
338.2049	0.1087
338.4148	0.1135
338.6247	0.1137
338.8346	0.1076
339.0445	0.1105
339.2543	0.1102
339.4642	0.1109
339.674	0.1089
339.8838	0.1083
340.0936	0.112
340.3034	0.1262
340.5132	0.1081
340.7229	0.1227
340.9327	0.1134
341.1424	0.1085
341.3522	0.1169
341.5619	0.123
341.7716	0.1213
341.9813	0.1224
342.1909	0.1217
342.4006	0.1137
342.6102	0.1161
342.8199	0.1234
343.0295	0.1213
343.2391	0.1203
343.4487	0.1217
343.6583	0.1258
343.8679	0.1273
344.0774	0.1268
344.287	0.127
344.4965	0.1324
344.706	0.1271
344.9155	0.1302
345.125	0.1301
345.3345	0.1273
345.544	0.1184
345.7534	0.1265
345.9629	0.1272
346.1723	0.1253
346.3817	0.128
346.5911	0.1274
346.8005	0.1369
347.0099	0.1261
347.2193	0.1392
347.4286	0.1354
347.638	0.1407
347.8473	0.1291
348.0566	0.1311
348.2659	0.1191
348.4752	0.1304
348.6845	0.1414
348.8937	0.1317
349.103	0.1293
349.3122	0.13
349.5214	0.1341
349.7306	0.1278
349.9398	0.1347
350.149	0.132
350.3582	0.1322
350.5674	0.1326
350.7765	0.1325
350.9856	0.1312
351.1948	0.1373
351.4039	0.1334
351.613	0.1335
351.822	0.1364
352.0311	0.138
352.2402	0.1413
352.4492	0.1385
352.6582	0.1479
352.8672	0.1466
353.0762	0.1499
353.2852	0.1524
353.4942	0.1417
353.7032	0.1414
353.9121	0.1442
354.1211	0.1419
354.33	0.1497
354.5389	0.1451
354.7478	0.1439
354.9567	0.142
355.1655	0.1445
355.3744	0.1496
355.5833	0.1523
355.7921	0.1542
356.0009	0.1488
356.2097	0.1459
356.4185	0.1527
356.6273	0.1557
356.8361	0.1477
357.0448	0.1617
357.2536	0.151
357.4623	0.1525
357.671	0.16
357.8797	0.1658
358.0884	0.1629
358.2971	0.1639
358.5057	0.1651
358.7144	0.1583
358.923	0.1818
359.1316	0.1567
359.3402	0.1708
359.5488	0.156
359.7574	0.1772
359.966	0.1699
360.1746	0.174
360.3831	0.1737
360.5916	0.1743
360.8002	0.1773
361.0087	0.1742
361.2172	0.1685
361.4256	0.1732
361.6341	0.1802
361.8426	0.1801
362.051	0.164
362.2594	0.184
362.4678	0.186
362.6762	0.1838
362.8846	0.185
363.093	0.1734
363.3014	0.1775
363.5097	0.1785
363.718	0.1856
363.9264	0.1829
364.1347	0.1958
364.343	0.186
364.5513	0.1878
364.7595	0.1952
364.9678	0.1819
365.176	0.1889
365.3842	0.1905
365.5925	0.1883
365.8007	0.1887
366.0089	0.1907
366.217	0.1911
366.4252	0.1966
366.6333	0.1853
366.8415	0.1903
367.0496	0.1926
367.2577	0.1967
367.4658	0.2021
367.6739	0.1965
367.882	0.2027
368.09	0.2003
368.2981	0.2067
368.5061	0.1962
368.7141	0.1994
368.9221	0.1902
369.1301	0.212
369.3381	0.2063
369.5461	0.208
369.754	0.2066
369.962	0.2016
370.1699	0.209
370.3778	0.21
370.5857	0.2079
370.7936	0.2062
371.0015	0.2107
371.2093	0.2029
371.4172	0.2083
371.625	0.204
371.8328	0.2222
372.0406	0.2266
372.2484	0.2139
372.4562	0.2055
372.664	0.2216
372.8717	0.2106
373.0795	0.2156
373.2872	0.2216
373.4949	0.2059
373.7026	0.2164
373.9103	0.2146
374.118	0.2119
374.3256	0.2216
374.5333	0.207
374.7409	0.2172
374.9485	0.2147
375.1561	0.2206
375.3637	0.2253
375.5713	0.2212
375.7789	0.2113
375.9864	0.2222
376.194	0.219
376.4015	0.225
376.609	0.2361
376.8165	0.2215
377.024	0.2192
377.2315	0.2282
377.4389	0.219
377.6464	0.2314
377.8538	0.2256
378.0612	0.223
378.2686	0.2223
378.476	0.2297
378.6834	0.2361
378.8908	0.2358
379.0981	0.2351
379.3055	0.2368
379.5128	0.2282
379.7201	0.2249
379.9274	0.2265
380.1347	0.248
380.342	0.2353
380.5492	0.2391
380.7565	0.2315
380.9637	0.2386
381.1709	0.2401
381.3781	0.2344
381.5853	0.2355
381.7925	0.2411
381.9997	0.2402
382.2068	0.2439
382.4139	0.2511
382.6211	0.24
382.8282	0.2503
383.0353	0.2337
383.2424	0.2399
383.4494	0.2476
383.6565	0.2343
383.8635	0.2547
384.0706	0.2407
384.2776	0.2405
384.4846	0.2489
384.6916	0.2347
384.8986	0.2395
385.1055	0.2409
385.3125	0.2486
385.5194	0.2445
385.7263	0.2519
385.9333	0.2412
386.1402	0.2564
386.347	0.2546
386.5539	0.2481
386.7608	0.2422
386.9676	0.2403
387.1744	0.2396
387.3813	0.2407
387.5881	0.2435
387.7948	0.2404
388.0016	0.2338
388.2084	0.2501
388.4151	0.2432
388.6219	0.2461
388.8286	0.2426
389.0353	0.2399
389.242	0.2353
389.4487	0.2376
389.6553	0.2352
389.862	0.2317
390.0686	0.2287
390.2753	0.2422
390.4819	0.2343
390.6885	0.2408
390.8951	0.2448
391.1016	0.2318
391.3082	0.2306
391.5147	0.2323
391.7213	0.2314
391.9278	0.2302
392.1343	0.2267
392.3408	0.2198
392.5473	0.2274
392.7537	0.2253
392.9602	0.2173
393.1666	0.2142
393.373	0.2242
393.5794	0.2249
393.7858	0.2131
393.9922	0.2096
394.1986	0.2124
394.4049	0.2255
394.6113	0.2242
394.8176	0.2005
395.0239	0.2041
395.2302	0.2069
395.4365	0.2184
395.6428	0.2013
395.8491	0.203
396.0553	0.2127
396.2615	0.2033
396.4678	0.2077
396.674	0.2074
396.8802	0.2094
397.0863	0.2085
397.2925	0.1994
397.4987	0.1995
397.7048	0.2025
397.9109	0.2086
398.117	0.1967
398.3231	0.2138
398.5292	0.2013
398.7353	0.1985
398.9413	0.199
399.1474	0.1941
399.3534	0.2003
399.5594	0.1973
399.7654	0.2015
399.9714	0.1959
400.1774	0.1992
400.3833	0.2104
400.5893	0.1991
400.7952	0.1924
401.0011	0.2036
401.207	0.1937
401.4129	0.1928
401.6188	0.1904
401.8247	0.195
402.0305	0.2009
402.2364	0.2014
402.4422	0.1936
402.648	0.2026
402.8538	0.1958
403.0596	0.19
403.2654	0.2053
403.4711	0.1973
403.6768	0.2036
403.8826	0.1999
404.0883	0.2037
404.294	0.2057
404.4997	0.1974
404.7054	0.1997
404.911	0.1996
405.1167	0.2092
405.3223	0.2053
405.5279	0.2017
405.7335	0.1954
405.9391	0.2069
406.1447	0.2054
406.3502	0.1959
406.5558	0.1979
406.7613	0.19
406.9668	0.207
407.1724	0.1912
407.3778	0.2088
407.5833	0.1928
407.7888	0.2213
407.9942	0.1935
408.1997	0.2042
408.4051	0.1949
408.6105	0.1996
408.8159	0.2085
409.0213	0.1906
409.2267	0.1926
409.432	0.2129
409.6374	0.1959
409.8427	0.2048
410.048	0.1994
410.2533	0.2009
410.4586	0.2032
410.6639	0.1867
410.8691	0.1985
411.0744	0.1996
411.2796	0.1977
411.4848	0.1862
411.69	0.2048
411.8952	0.1945
412.1004	0.1867
412.3056	0.1968
412.5107	0.2039
412.7158	0.1989
412.921	0.1953
413.1261	0.1863
413.3312	0.2052
413.5362	0.1877
413.7413	0.1956
413.9464	0.198
414.1514	0.1817
414.3564	0.1979
414.5614	0.1976
414.7664	0.1989
414.9714	0.1883
415.1764	0.2035
415.3813	0.1942
415.5863	0.1869
415.7912	0.2052
415.9961	0.1908
416.201	0.1923
416.4059	0.1925
416.6108	0.1946
416.8156	0.1824
417.0205	0.1903
417.2253	0.1836
417.4301	0.1953
417.6349	0.2037
417.8397	0.1905
418.0445	0.1974
418.2492	0.1808
418.454	0.1938
418.6587	0.1905
418.8634	0.1766
419.0681	0.1853
419.2728	0.1883
419.4775	0.1742
419.6822	0.1815
419.8868	0.1869
420.0915	0.1824
420.2961	0.1867
420.5007	0.1901
420.7053	0.1813
420.9099	0.1829
421.1144	0.179
421.319	0.1732
421.5235	0.1866
421.728	0.178
421.9325	0.1663
422.137	0.1768
422.3415	0.1784
422.546	0.1818
422.7504	0.178
422.9549	0.1733
423.1593	0.1769
423.3637	0.1806
423.5681	0.1775
423.7725	0.1779
423.9769	0.1642
424.1812	0.1663
424.3856	0.1651
424.5899	0.1708
424.7942	0.1693
424.9985	0.1718
425.2028	0.1608
425.4071	0.1656
425.6113	0.1587
425.8156	0.1577
426.0198	0.1734
426.224	0.1416
426.4282	0.1552
