Data from MonoPyChalIsomerACN10uM450nmA_Absorbance_13-11-32-491.txt Node
Date: Tue Jul 09 13:11:32 BST 2024
User: LASERRRRR
Spectrometer: FLMT03099
Trigger mode: 0
Integration Time (sec): 2.000000E-1
Scans to average: 1
Electric dark correction enabled: true
Nonlinearity correction enabled: false
Boxcar width: 0
XAxis mode: Wavelengths
Number of Pixels in Spectrum: 3648
>>>>>Begin Spectral Data<<<<<
179.3399	-0.063
179.5586	-0.063
179.7771	-0.063
179.9957	-0.181
180.2143	-0
180.4329	0.3098
180.6514	-0
180.8699	-0
181.0885	-0
181.307	0.2001
181.5255	-0
181.744	-0.1105
181.9625	-0.2109
182.181	-0
182.3994	0.6654
182.6179	-0.5981
182.8363	-0.7386
183.0547	0.2863
183.2732	0.18
183.4916	0.0576
183.71	0.0108
183.9284	0.0439
184.1467	-0.0188
184.3651	0.1074
184.5835	0.0955
184.8018	0.0235
185.0201	0.0581
185.2385	0.0444
185.4568	-0.0407
185.6751	0.0968
185.8934	0.0044
186.1117	0.011
186.3299	-0.012
186.5482	-0.0254
186.7664	0.0369
186.9847	0.0725
187.2029	0.1691
187.4211	0.0322
187.6393	-0.0293
187.8575	0.0999
188.0757	-0.0624
188.2939	0.0012
188.512	0.1984
188.7302	-0.003
188.9483	0.1578
189.1665	0.0294
189.3846	0.0906
189.6027	0.1386
189.8208	0.0453
190.0389	0.3012
190.257	0.1989
190.475	0.112
190.6931	0.2095
190.9111	0.1844
191.1292	0.2839
191.3472	0.2311
191.5652	0.4087
191.7832	0.2968
192.0012	0.2947
192.2192	0.3549
192.4371	0.474
192.6551	0.4333
192.873	0.3831
193.091	0.6069
193.3089	0.5451
193.5268	0.5708
193.7447	0.4859
193.9626	0.498
194.1805	0.4907
194.3984	0.5685
194.6162	0.541
194.8341	0.6249
195.0519	0.5725
195.2697	0.6123
195.4875	0.6354
195.7054	0.7114
195.9231	0.6405
196.1409	0.7341
196.3587	0.6864
196.5765	0.6885
196.7942	0.7391
197.012	0.6146
197.2297	0.6983
197.4474	0.7456
197.6651	0.6552
197.8828	0.7747
198.1005	0.7082
198.3182	0.7542
198.5358	0.683
198.7535	0.7642
198.9711	0.8939
199.1888	0.8161
199.4064	0.9144
199.624	0.7703
199.8416	0.7992
200.0592	0.7311
200.2767	0.815
200.4943	0.906
200.7119	0.8518
200.9294	0.9888
201.1469	0.8247
201.3645	0.88
201.582	0.8692
201.7995	0.762
202.017	0.9709
202.2344	0.7998
202.4519	0.9752
202.6694	0.8444
202.8868	0.812
203.1042	0.9443
203.3217	0.9848
203.5391	0.9456
203.7565	0.9445
203.9739	0.8764
204.1913	0.8058
204.4086	0.8521
204.626	0.9474
204.8433	0.9151
205.0607	1.0627
205.278	0.9434
205.4953	1.0912
205.7126	0.8954
205.9299	0.9677
206.1472	0.9079
206.3644	0.9255
206.5817	1.047
206.7989	0.9158
207.0162	1.1216
207.2334	0.9322
207.4506	0.9452
207.6678	1.0343
207.885	1.0859
208.1022	1.0458
208.3194	1.0584
208.5365	1.0333
208.7537	0.9704
208.9708	1.1351
209.1879	1.0431
209.405	1.0327
209.6222	1.0168
209.8392	1.0305
210.0563	1.0707
210.2734	1.0419
210.4905	1.0762
210.7075	1.0338
210.9245	1.0127
211.1416	1.023
211.3586	1.0967
211.5756	1.0342
211.7926	1.1068
212.0096	1.064
212.2265	1.0277
212.4435	1.06
212.6604	1.0726
212.8774	1.1017
213.0943	0.9987
213.3112	0.9656
213.5281	1.0021
213.745	0.9597
213.9619	0.9832
214.1788	0.9602
214.3956	0.9275
214.6125	0.9254
214.8293	0.848
215.0461	0.8923
215.2629	0.8885
215.4798	0.8424
215.6965	0.847
215.9133	0.859
216.1301	0.8184
216.3469	0.7938
216.5636	0.8191
216.7803	0.7526
216.9971	0.7352
217.2138	0.7261
217.4305	0.7032
217.6472	0.6674
217.8639	0.6336
218.0805	0.6124
218.2972	0.5724
218.5138	0.5358
218.7305	0.4982
218.9471	0.4532
219.1637	0.4369
219.3803	0.4299
219.5969	0.3869
219.8135	0.3614
220.0301	0.334
220.2466	0.35
220.4632	0.3393
220.6797	0.3168
220.8962	0.315
221.1127	0.2908
221.3292	0.3018
221.5457	0.2788
221.7622	0.2739
221.9787	0.2726
222.1951	0.283
222.4116	0.273
222.628	0.2741
222.8444	0.2637
223.0608	0.264
223.2772	0.2702
223.4936	0.2668
223.71	0.2709
223.9264	0.2859
224.1427	0.2529
224.3591	0.2575
224.5754	0.2595
224.7917	0.2852
225.008	0.2675
225.2243	0.2725
225.4406	0.285
225.6569	0.2784
225.8732	0.294
226.0894	0.2722
226.3057	0.2878
226.5219	0.2846
226.7381	0.2823
226.9543	0.2788
227.1705	0.2791
227.3867	0.2994
227.6029	0.3015
227.8191	0.3003
228.0352	0.2942
228.2513	0.2999
228.4675	0.3021
228.6836	0.3207
228.8997	0.3095
229.1158	0.3111
229.3319	0.3095
229.548	0.3244
229.764	0.3189
229.9801	0.33
230.1961	0.3399
230.4121	0.3151
230.6282	0.3344
230.8442	0.3331
231.0602	0.3366
231.2761	0.3391
231.4921	0.3469
231.7081	0.3585
231.924	0.353
232.14	0.3721
232.3559	0.3601
232.5718	0.361
232.7877	0.3491
233.0036	0.364
233.2195	0.3645
233.4353	0.3651
233.6512	0.3769
233.867	0.3763
234.0829	0.3732
234.2987	0.3838
234.5145	0.383
234.7303	0.3925
234.9461	0.4009
235.1619	0.3974
235.3776	0.3759
235.5934	0.3853
235.8091	0.381
236.0249	0.3831
236.2406	0.3866
236.4563	0.3944
236.672	0.4053
236.8877	0.3942
237.1034	0.402
237.319	0.3993
237.5347	0.3985
237.7503	0.4114
237.966	0.4158
238.1816	0.415
238.3972	0.3962
238.6128	0.4053
238.8284	0.3976
239.0439	0.4043
239.2595	0.4217
239.475	0.4084
239.6906	0.4208
239.9061	0.4155
240.1216	0.4087
240.3371	0.4324
240.5526	0.4213
240.7681	0.4108
240.9836	0.4157
241.199	0.4215
241.4145	0.4027
241.6299	0.4123
241.8453	0.4069
242.0607	0.3913
242.2761	0.3939
242.4915	0.3869
242.7069	0.3876
242.9223	0.3708
243.1376	0.3821
243.353	0.3641
243.5683	0.3629
243.7836	0.3535
243.9989	0.3486
244.2142	0.3419
244.4295	0.3464
244.6448	0.3349
244.86	0.3317
245.0753	0.3183
245.2905	0.3094
245.5057	0.3103
245.721	0.3065
245.9362	0.2918
246.1514	0.2958
246.3665	0.3012
246.5817	0.2708
246.7969	0.2871
247.012	0.2774
247.2271	0.27
247.4423	0.2766
247.6574	0.2635
247.8725	0.2593
248.0876	0.2499
248.3026	0.2537
248.5177	0.26
248.7328	0.2355
248.9478	0.2495
249.1628	0.2376
249.3779	0.2373
249.5929	0.2257
249.8079	0.2288
250.0228	0.2315
250.2378	0.2384
250.4528	0.219
250.6677	0.2194
250.8827	0.2144
251.0976	0.216
251.3125	0.214
251.5274	0.2109
251.7423	0.2097
251.9572	0.2156
252.172	0.2142
252.3869	0.2046
252.6017	0.2044
252.8166	0.2078
253.0314	0.2061
253.2462	0.2096
253.461	0.2038
253.6758	0.2029
253.8906	0.2094
254.1053	0.2056
254.3201	0.2059
254.5348	0.1984
254.7496	0.1981
254.9643	0.1933
255.179	0.2026
255.3937	0.2074
255.6083	0.2035
255.823	0.1915
256.0377	0.1891
256.2523	0.1961
256.467	0.2049
256.6816	0.1902
256.8962	0.2051
257.1108	0.1925
257.3254	0.1998
257.54	0.1919
257.7545	0.1995
257.9691	0.1932
258.1836	0.1873
258.3981	0.1921
258.6127	0.1944
258.8272	0.1897
259.0417	0.1972
259.2561	0.1954
259.4706	0.1934
259.6851	0.1878
259.8995	0.1942
260.114	0.1865
260.3284	0.1974
260.5428	0.1934
260.7572	0.193
260.9716	0.1986
261.186	0.1956
261.4003	0.203
261.6147	0.1941
261.829	0.2012
262.0433	0.1971
262.2577	0.1994
262.472	0.1966
262.6863	0.1882
262.9005	0.1963
263.1148	0.2
263.3291	0.1893
263.5433	0.191
263.7576	0.1868
263.9718	0.1959
264.186	0.1865
264.4002	0.1897
264.6144	0.1894
264.8286	0.1845
265.0427	0.1859
265.2569	0.1785
265.471	0.1857
265.6851	0.1805
265.8993	0.1793
266.1134	0.1767
266.3275	0.1783
266.5415	0.1761
266.7556	0.1926
266.9697	0.1814
267.1837	0.1822
267.3978	0.1944
267.6118	0.1908
267.8258	0.1918
268.0398	0.1961
268.2538	0.1921
268.4677	0.205
268.6817	0.19
268.8957	0.1983
269.1096	0.1904
269.3235	0.1868
269.5374	0.1818
269.7514	0.1664
269.9652	0.1728
270.1791	0.167
270.393	0.1611
270.6068	0.1593
270.8207	0.1517
271.0345	0.1651
271.2483	0.1579
271.4622	0.1526
271.676	0.1497
271.8897	0.1552
272.1035	0.1426
272.3173	0.153
272.531	0.1544
272.7448	0.1518
272.9585	0.1502
273.1722	0.1503
273.3859	0.1523
273.5996	0.1382
273.8133	0.1538
274.0269	0.1547
274.2406	0.1426
274.4542	0.1495
274.6679	0.1469
274.8815	0.1496
275.0951	0.1507
275.3087	0.1527
275.5223	0.149
275.7358	0.1479
275.9494	0.1505
276.1629	0.1508
276.3765	0.1548
276.59	0.145
276.8035	0.15
277.017	0.1596
277.2305	0.1563
277.444	0.1478
277.6574	0.1503
277.8709	0.1575
278.0843	0.1597
278.2978	0.1606
278.5112	0.1521
278.7246	0.1519
278.938	0.1548
279.1513	0.1602
279.3647	0.1577
279.5781	0.1573
279.7914	0.1624
280.0047	0.1565
280.2181	0.1589
280.4314	0.1584
280.6447	0.1565
280.8579	0.1611
281.0712	0.1632
281.2845	0.1609
281.4977	0.1671
281.711	0.1627
281.9242	0.1542
282.1374	0.1534
282.3506	0.1543
282.5638	0.1594
282.7769	0.1665
282.9901	0.1558
283.2033	0.1617
283.4164	0.1578
283.6295	0.1734
283.8426	0.1493
284.0557	0.1564
284.2688	0.157
284.4819	0.1516
284.695	0.1618
284.908	0.16
285.1211	0.1583
285.3341	0.1521
285.5471	0.1565
285.7601	0.1611
285.9731	0.1591
286.1861	0.1559
286.3991	0.1667
286.612	0.1638
286.825	0.1566
287.0379	0.1568
287.2508	0.1564
287.4637	0.1583
287.6766	0.152
287.8895	0.1596
288.1024	0.1619
288.3152	0.1588
288.5281	0.1603
288.7409	0.1518
288.9538	0.1561
289.1666	0.1657
289.3794	0.1633
289.5922	0.1573
289.8049	0.1523
290.0177	0.1583
290.2304	0.1509
290.4432	0.1527
290.6559	0.1505
290.8686	0.155
291.0813	0.1581
291.294	0.1621
291.5067	0.1562
291.7194	0.1607
291.932	0.154
292.1447	0.148
292.3573	0.1531
292.5699	0.1632
292.7825	0.1565
292.9951	0.1598
293.2077	0.1487
293.4203	0.1522
293.6328	0.1654
293.8454	0.1489
294.0579	0.1597
294.2704	0.1628
294.4829	0.1617
294.6954	0.1594
294.9079	0.1518
295.1204	0.1525
295.3328	0.1578
295.5453	0.1484
295.7577	0.1431
295.9701	0.1554
296.1825	0.1502
296.3949	0.1503
296.6073	0.1599
296.8197	0.1513
297.0321	0.1498
297.2444	0.1429
297.4567	0.1443
297.6691	0.1531
297.8814	0.1493
298.0937	0.1502
298.306	0.1487
298.5182	0.1437
298.7305	0.1458
298.9428	0.1482
299.155	0.1507
299.3672	0.1473
299.5794	0.1473
299.7916	0.144
300.0038	0.1543
300.216	0.1575
300.4282	0.151
300.6403	0.1511
300.8525	0.148
301.0646	0.1527
301.2767	0.1511
301.4888	0.1404
301.7009	0.1512
301.913	0.1547
302.125	0.1536
302.3371	0.1536
302.5491	0.1486
302.7612	0.1554
302.9732	0.1582
303.1852	0.1479
303.3972	0.1528
303.6092	0.1467
303.8211	0.1495
304.0331	0.1412
304.245	0.1448
304.457	0.1496
304.6689	0.148
304.8808	0.1473
305.0927	0.1437
305.3046	0.1418
305.5164	0.1475
305.7283	0.1432
305.9401	0.1508
306.152	0.1431
306.3638	0.1488
306.5756	0.1421
306.7874	0.1409
306.9992	0.1437
307.2109	0.134
307.4227	0.1399
307.6344	0.1361
307.8462	0.1289
308.0579	0.1249
308.2696	0.129
308.4813	0.1339
308.693	0.1331
308.9046	0.1239
309.1163	0.1232
309.328	0.1214
309.5396	0.117
309.7512	0.1233
309.9628	0.1211
310.1744	0.1289
310.386	0.112
310.5976	0.119
310.8091	0.1155
311.0207	0.121
311.2322	0.1117
311.4437	0.1235
311.6552	0.1193
311.8667	0.1093
312.0782	0.11
312.2897	0.1041
312.5012	0.1073
312.7126	0.1005
312.924	0.0983
313.1355	0.1067
313.3469	0.1074
313.5583	0.1081
313.7696	0.1078
313.981	0.1023
314.1924	0.1025
314.4037	0.1081
314.6151	0.0988
314.8264	0.1056
315.0377	0.1033
315.249	0.1027
315.4603	0.1008
315.6716	0.1032
315.8828	0.1067
316.0941	0.0976
316.3053	0.104
316.5165	0.0932
316.7277	0.0961
316.9389	0.0973
317.1501	0.0934
317.3613	0.0979
317.5724	0.0947
317.7836	0.0981
317.9947	0.1073
318.2058	0.0957
318.417	0.0956
318.6281	0.0954
318.8391	0.1002
319.0502	0.0936
319.2613	0.0963
319.4723	0.1012
319.6834	0.1036
319.8944	0.0957
320.1054	0.0947
320.3164	0.1077
320.5274	0.1044
320.7383	0.095
320.9493	0.0944
321.1602	0.0974
321.3712	0.1068
321.5821	0.1034
321.793	0.0945
322.0039	0.102
322.2148	0.1065
322.4257	0.0947
322.6365	0.1022
322.8474	0.1061
323.0582	0.11
323.269	0.1013
323.4798	0.108
323.6906	0.1028
323.9014	0.1027
324.1122	0.099
324.3229	0.1089
324.5337	0.1019
324.7444	0.1038
324.9551	0.1047
325.1658	0.0956
325.3765	0.1066
325.5872	0.1095
325.7979	0.1078
326.0085	0.1099
326.2192	0.1044
326.4298	0.1129
326.6404	0.1049
326.851	0.1019
327.0616	0.1058
327.2722	0.105
327.4828	0.1003
327.6933	0.1039
327.9039	0.107
328.1144	0.1025
328.3249	0.1044
328.5354	0.1055
328.7459	0.1079
328.9564	0.1032
329.1669	0.1077
329.3773	0.1078
329.5878	0.1088
329.7982	0.11
330.0086	0.1123
330.219	0.1116
330.4294	0.1103
330.6398	0.1086
330.8502	0.1087
331.0605	0.1062
331.2708	0.1102
331.4812	0.1062
331.6915	0.1128
331.9018	0.1014
332.1121	0.113
332.3224	0.1123
332.5326	0.1005
332.7429	0.1155
332.9531	0.108
333.1633	0.1188
333.3735	0.1148
333.5837	0.1095
333.7939	0.1095
334.0041	0.1075
334.2143	0.1144
334.4244	0.113
334.6346	0.1055
334.8447	0.1124
335.0548	0.1138
335.2649	0.0973
335.475	0.1137
335.685	0.1134
335.8951	0.1156
336.1051	0.1088
336.3152	0.1139
336.5252	0.106
336.7352	0.1102
336.9452	0.1175
337.1552	0.1096
337.3652	0.1179
337.5751	0.1178
337.7851	0.1061
337.995	0.1177
338.2049	0.1079
338.4148	0.1222
338.6247	0.1124
338.8346	0.1156
339.0445	0.1205
339.2543	0.1202
339.4642	0.117
339.674	0.1164
339.8838	0.1112
340.0936	0.1166
340.3034	0.1304
340.5132	0.1147
340.7229	0.1291
340.9327	0.1163
341.1424	0.1193
341.3522	0.1194
341.5619	0.1299
341.7716	0.1334
341.9813	0.1247
342.1909	0.12
342.4006	0.1173
342.6102	0.1152
342.8199	0.1248
343.0295	0.1204
343.2391	0.131
343.4487	0.1223
343.6583	0.1231
343.8679	0.1292
344.0774	0.1399
344.287	0.1315
344.4965	0.1204
344.706	0.1301
344.9155	0.1314
345.125	0.1304
345.3345	0.1329
345.544	0.1219
345.7534	0.127
345.9629	0.1267
346.1723	0.1328
346.3817	0.1384
346.5911	0.1388
346.8005	0.1331
347.0099	0.1221
347.2193	0.1409
347.4286	0.1363
347.638	0.1404
347.8473	0.1326
348.0566	0.1375
348.2659	0.1241
348.4752	0.139
348.6845	0.1296
348.8937	0.1375
349.103	0.1449
349.3122	0.149
349.5214	0.1433
349.7306	0.1385
349.9398	0.1328
350.149	0.1417
350.3582	0.1364
350.5674	0.1413
350.7765	0.1337
350.9856	0.1375
351.1948	0.1455
351.4039	0.136
351.613	0.1364
351.822	0.1417
352.0311	0.1395
352.2402	0.1472
352.4492	0.1422
352.6582	0.1471
352.8672	0.1426
353.0762	0.1527
353.2852	0.1556
353.4942	0.153
353.7032	0.1417
353.9121	0.1562
354.1211	0.1474
354.33	0.144
354.5389	0.1478
354.7478	0.1544
354.9567	0.1512
355.1655	0.1523
355.3744	0.1581
355.5833	0.1433
355.7921	0.1472
356.0009	0.1456
356.2097	0.1599
356.4185	0.1537
356.6273	0.1548
356.8361	0.1489
357.0448	0.1638
357.2536	0.1534
357.4623	0.1517
357.671	0.1663
357.8797	0.164
358.0884	0.1551
358.2971	0.1629
358.5057	0.1679
358.7144	0.1583
358.923	0.1662
359.1316	0.1701
359.3402	0.1741
359.5488	0.1624
359.7574	0.1734
359.966	0.1635
360.1746	0.1668
360.3831	0.17
360.5916	0.1732
360.8002	0.1753
361.0087	0.1719
361.2172	0.1707
361.4256	0.1791
361.6341	0.1836
361.8426	0.1813
362.051	0.1705
362.2594	0.1815
362.4678	0.1833
362.6762	0.1815
362.8846	0.1761
363.093	0.1772
363.3014	0.1827
363.5097	0.1749
363.718	0.1926
363.9264	0.1801
364.1347	0.1945
364.343	0.1787
364.5513	0.187
364.7595	0.1823
364.9678	0.1827
365.176	0.1956
365.3842	0.1786
365.5925	0.1853
365.8007	0.1852
366.0089	0.204
366.217	0.1896
366.4252	0.2014
366.6333	0.1884
366.8415	0.1796
367.0496	0.1983
367.2577	0.1937
367.4658	0.1954
367.6739	0.1921
367.882	0.2067
368.09	0.1946
368.2981	0.2058
368.5061	0.1995
368.7141	0.1998
368.9221	0.1952
369.1301	0.2094
369.3381	0.201
369.5461	0.2047
369.754	0.2031
369.962	0.1941
370.1699	0.2043
370.3778	0.2061
370.5857	0.2046
370.7936	0.1917
371.0015	0.204
371.2093	0.1971
371.4172	0.2194
371.625	0.2047
371.8328	0.209
372.0406	0.2181
372.2484	0.2049
372.4562	0.2182
372.664	0.2128
372.8717	0.2097
373.0795	0.2041
373.2872	0.217
373.4949	0.1907
373.7026	0.207
373.9103	0.2024
374.118	0.2218
374.3256	0.2067
374.5333	0.2116
374.7409	0.2061
374.9485	0.216
375.1561	0.2103
375.3637	0.2116
375.5713	0.2189
375.7789	0.2179
375.9864	0.209
376.194	0.2142
376.4015	0.2208
376.609	0.2191
376.8165	0.2195
377.024	0.2117
377.2315	0.2208
377.4389	0.2141
377.6464	0.2076
377.8538	0.2205
378.0612	0.215
378.2686	0.2057
378.476	0.2156
378.6834	0.2181
378.8908	0.2209
379.0981	0.2331
379.3055	0.2245
379.5128	0.221
379.7201	0.2132
379.9274	0.2241
380.1347	0.2213
380.342	0.227
380.5492	0.2265
380.7565	0.2248
380.9637	0.2283
381.1709	0.2323
381.3781	0.217
381.5853	0.223
381.7925	0.2152
381.9997	0.2386
382.2068	0.2318
382.4139	0.2222
382.6211	0.2238
382.8282	0.2256
383.0353	0.2248
383.2424	0.2298
383.4494	0.2369
383.6565	0.2233
383.8635	0.2328
384.0706	0.2305
384.2776	0.2385
384.4846	0.2305
384.6916	0.2264
384.8986	0.2366
385.1055	0.2364
385.3125	0.232
385.5194	0.2347
385.7263	0.2334
385.9333	0.2412
386.1402	0.2346
386.347	0.24
386.5539	0.2303
386.7608	0.2353
386.9676	0.2337
387.1744	0.2337
387.3813	0.2218
387.5881	0.2292
387.7948	0.2321
388.0016	0.2331
388.2084	0.2342
388.4151	0.2248
388.6219	0.2283
388.8286	0.2289
389.0353	0.2225
389.242	0.2182
389.4487	0.2166
389.6553	0.2224
389.862	0.2136
390.0686	0.22
390.2753	0.2213
390.4819	0.2274
390.6885	0.2272
390.8951	0.2161
391.1016	0.233
391.3082	0.2193
391.5147	0.2191
391.7213	0.2114
391.9278	0.2163
392.1343	0.2121
392.3408	0.2026
392.5473	0.2228
392.7537	0.2104
392.9602	0.2062
393.1666	0.2096
393.373	0.2063
393.5794	0.2128
393.7858	0.2017
393.9922	0.1949
394.1986	0.2031
394.4049	0.2077
394.6113	0.1988
394.8176	0.1879
395.0239	0.1971
395.2302	0.2073
395.4365	0.201
395.6428	0.1968
395.8491	0.2007
396.0553	0.2
396.2615	0.1992
396.4678	0.1966
396.674	0.1991
396.8802	0.1958
397.0863	0.1977
397.2925	0.19
397.4987	0.1889
397.7048	0.1996
397.9109	0.1949
398.117	0.1972
398.3231	0.201
398.5292	0.1868
398.7353	0.196
398.9413	0.1976
399.1474	0.1898
399.3534	0.1875
399.5594	0.1945
399.7654	0.1919
399.9714	0.1905
400.1774	0.1951
400.3833	0.1915
400.5893	0.1813
400.7952	0.1736
401.0011	0.1824
401.207	0.1837
401.4129	0.1724
401.6188	0.186
401.8247	0.1846
402.0305	0.1899
402.2364	0.1858
402.4422	0.1911
402.648	0.1967
402.8538	0.1868
403.0596	0.1819
403.2654	0.182
403.4711	0.1856
403.6768	0.1929
403.8826	0.1886
404.0883	0.187
404.294	0.1876
404.4997	0.1935
404.7054	0.1814
404.911	0.1884
405.1167	0.1977
405.3223	0.1896
405.5279	0.1841
405.7335	0.1871
405.9391	0.1853
406.1447	0.1853
406.3502	0.1766
406.5558	0.1855
406.7613	0.1818
406.9668	0.1979
407.1724	0.1888
407.3778	0.1821
407.5833	0.1848
407.7888	0.2002
407.9942	0.185
408.1997	0.1959
408.4051	0.1835
408.6105	0.1847
408.8159	0.2043
409.0213	0.1859
409.2267	0.1856
409.432	0.1871
409.6374	0.1925
409.8427	0.1977
410.048	0.1786
410.2533	0.1784
410.4586	0.1893
410.6639	0.1716
410.8691	0.1868
411.0744	0.1774
411.2796	0.1818
411.4848	0.167
411.69	0.1933
411.8952	0.1819
412.1004	0.1795
412.3056	0.1872
412.5107	0.1731
412.7158	0.1916
412.921	0.1863
413.1261	0.17
413.3312	0.2038
413.5362	0.1824
413.7413	0.1862
413.9464	0.1925
414.1514	0.1705
414.3564	0.1822
414.5614	0.1898
414.7664	0.1832
414.9714	0.181
415.1764	0.1765
415.3813	0.189
415.5863	0.1793
415.7912	0.1782
415.9961	0.1848
416.201	0.1795
416.4059	0.182
416.6108	0.1783
416.8156	0.1732
417.0205	0.1749
417.2253	0.1826
417.4301	0.1789
417.6349	0.1756
417.8397	0.1894
418.0445	0.1849
418.2492	0.1726
418.454	0.1775
418.6587	0.1667
418.8634	0.172
419.0681	0.1754
419.2728	0.1754
419.4775	0.1765
419.6822	0.1714
419.8868	0.1549
420.0915	0.167
420.2961	0.1585
420.5007	0.1644
420.7053	0.1639
420.9099	0.1653
421.1144	0.1742
421.319	0.1619
421.5235	0.1709
421.728	0.1582
421.9325	0.1659
422.137	0.1494
422.3415	0.1723
422.546	0.1705
422.7504	0.1706
422.9549	0.1679
423.1593	0.1573
423.3637	0.1578
423.5681	0.1679
423.7725	0.1658
423.9769	0.1579
424.1812	0.1552
424.3856	0.1708
424.5899	0.1621
424.7942	0.1575
424.9985	0.1494
425.2028	0.1392
425.4071	0.149
425.6113	0.1511
425.8156	0.1518
426.0198	0.159
426.224	0.1355
426.4282	0.1383
426.6324	0.1504
426.8366	0.1537
427.0407	0.1422
