Data from MonoPyChalIsomerACN10uM450nmA_Absorbance_13-11-15-092.txt Node
Date: Tue Jul 09 13:11:15 BST 2024
User: LASERRRRR
Spectrometer: FLMT03099
Trigger mode: 0
Integration Time (sec): 2.000000E-1
Scans to average: 1
Electric dark correction enabled: true
Nonlinearity correction enabled: false
Boxcar width: 0
XAxis mode: Wavelengths
Number of Pixels in Spectrum: 3648
>>>>>Begin Spectral Data<<<<<
179.3399	0.2504
179.5586	0.2504
179.7771	0.2504
179.9957	-0
180.2143	-0
180.4329	0.3628
180.6514	-0
180.8699	0.2171
181.0885	-0
181.307	-0
181.5255	-0.1377
181.744	-0
181.9625	0.2914
182.181	-0
182.3994	0.4337
182.6179	-0.5122
182.8363	-0.8286
183.0547	0.1479
183.2732	0.2604
183.4916	0.0107
183.71	-0.052
183.9284	-0.014
184.1467	0.0364
184.3651	0.1941
184.5835	0.0407
184.8018	0.1045
185.0201	0.12
185.2385	0.0531
185.4568	-0.032
185.6751	0.1719
185.8934	0.0197
186.1117	0.0583
186.3299	0.0786
186.5482	0.0981
186.7664	0.0173
186.9847	-0
187.2029	0.2185
187.4211	-0.0223
187.6393	-0.0112
187.8575	0.0813
188.0757	0.0494
188.2939	0.0527
188.512	0.1315
188.7302	0.1478
188.9483	0.0722
189.1665	0.0712
189.3846	0.1996
189.6027	0.1486
189.8208	0.107
190.0389	0.1488
190.257	0.1431
190.475	0.2168
190.6931	0.1598
190.9111	0.2192
191.1292	0.2805
191.3472	0.2731
191.5652	0.3413
191.7832	0.2829
192.0012	0.3475
192.2192	0.3609
192.4371	0.5307
192.6551	0.4761
192.873	0.3653
193.091	0.4454
193.3089	0.5354
193.5268	0.6389
193.7447	0.5178
193.9626	0.5092
194.1805	0.5402
194.3984	0.5814
194.6162	0.5954
194.8341	0.6135
195.0519	0.5692
195.2697	0.5606
195.4875	0.5471
195.7054	0.6343
195.9231	0.6014
196.1409	0.5957
196.3587	0.5774
196.5765	0.7434
196.7942	0.7699
197.012	0.6753
197.2297	0.7455
197.4474	0.7236
197.6651	0.6815
197.8828	0.6578
198.1005	0.7921
198.3182	0.7243
198.5358	0.758
198.7535	0.7802
198.9711	0.9182
199.1888	0.8354
199.4064	0.7073
199.624	0.8208
199.8416	0.7041
200.0592	0.8123
200.2767	0.7616
200.4943	0.738
200.7119	0.8347
200.9294	0.8474
201.1469	0.8954
201.3645	0.8213
201.582	1.003
201.7995	0.745
202.017	0.8988
202.2344	0.9255
202.4519	0.9449
202.6694	0.8847
202.8868	0.8948
203.1042	0.9323
203.3217	0.9483
203.5391	0.9827
203.7565	0.8638
203.9739	0.9122
204.1913	0.8251
204.4086	0.9039
204.626	0.9155
204.8433	0.9599
205.0607	0.9163
205.278	0.9423
205.4953	1.0792
205.7126	0.8976
205.9299	1.0021
206.1472	1.0223
206.3644	0.9181
206.5817	1.0435
206.7989	0.9972
207.0162	1.0578
207.2334	0.9945
207.4506	0.9575
207.6678	1.0468
207.885	1.1021
208.1022	1.1099
208.3194	1.0763
208.5365	1.0136
208.7537	1.0511
208.9708	1.0337
209.1879	1.1753
209.405	1.0214
209.6222	1.0272
209.8392	1.0363
210.0563	1.0205
210.2734	1.0819
210.4905	1.1783
210.7075	0.9927
210.9245	1.0209
211.1416	1.1148
211.3586	1.046
211.5756	1.0881
211.7926	1.0988
212.0096	1.0986
212.2265	1.0078
212.4435	1.0518
212.6604	1.05
212.8774	1.0285
213.0943	1.0057
213.3112	0.9779
213.5281	1.072
213.745	0.9521
213.9619	0.9754
214.1788	0.9317
214.3956	0.9258
214.6125	0.9129
214.8293	0.9019
215.0461	0.8843
215.2629	0.9093
215.4798	0.8652
215.6965	0.8348
215.9133	0.8414
216.1301	0.8355
216.3469	0.8228
216.5636	0.8172
216.7803	0.7644
216.9971	0.787
217.2138	0.735
217.4305	0.7112
217.6472	0.6938
217.8639	0.6412
218.0805	0.6056
218.2972	0.555
218.5138	0.5407
218.7305	0.4969
218.9471	0.504
219.1637	0.4503
219.3803	0.431
219.5969	0.3935
219.8135	0.3796
220.0301	0.3674
220.2466	0.3636
220.4632	0.316
220.6797	0.325
220.8962	0.3246
221.1127	0.2953
221.3292	0.3015
221.5457	0.2952
221.7622	0.3023
221.9787	0.2806
222.1951	0.2831
222.4116	0.2782
222.628	0.284
222.8444	0.278
223.0608	0.2814
223.2772	0.2692
223.4936	0.2677
223.71	0.2709
223.9264	0.2662
224.1427	0.2748
224.3591	0.2787
224.5754	0.2707
224.7917	0.2799
225.008	0.2871
225.2243	0.2746
225.4406	0.2921
225.6569	0.2814
225.8732	0.2992
226.0894	0.285
226.3057	0.2949
226.5219	0.2917
226.7381	0.2862
226.9543	0.2967
227.1705	0.2867
227.3867	0.3054
227.6029	0.3102
227.8191	0.2929
228.0352	0.3063
228.2513	0.3177
228.4675	0.3142
228.6836	0.3271
228.8997	0.3198
229.1158	0.3244
229.3319	0.3284
229.548	0.3321
229.764	0.3149
229.9801	0.3215
230.1961	0.3267
230.4121	0.3386
230.6282	0.333
230.8442	0.3451
231.0602	0.3511
231.2761	0.3512
231.4921	0.3543
231.7081	0.3552
231.924	0.3492
232.14	0.3704
232.3559	0.3597
232.5718	0.3669
232.7877	0.3639
233.0036	0.3592
233.2195	0.3566
233.4353	0.369
233.6512	0.3786
233.867	0.374
234.0829	0.3756
234.2987	0.3815
234.5145	0.3797
234.7303	0.3894
234.9461	0.4033
235.1619	0.3907
235.3776	0.3804
235.5934	0.3906
235.8091	0.3934
236.0249	0.3867
236.2406	0.3924
236.4563	0.3924
236.672	0.4021
236.8877	0.4003
237.1034	0.4106
237.319	0.4107
237.5347	0.4045
237.7503	0.4142
237.966	0.4174
238.1816	0.4192
238.3972	0.4083
238.6128	0.4241
238.8284	0.4113
239.0439	0.4174
239.2595	0.4284
239.475	0.4152
239.6906	0.4273
239.9061	0.401
240.1216	0.4186
240.3371	0.4212
240.5526	0.4196
240.7681	0.41
240.9836	0.4204
241.199	0.4128
241.4145	0.4084
241.6299	0.4139
241.8453	0.4006
242.0607	0.3893
242.2761	0.3997
242.4915	0.3771
242.7069	0.3777
242.9223	0.3573
243.1376	0.3676
243.353	0.3483
243.5683	0.3528
243.7836	0.3404
243.9989	0.3304
244.2142	0.3305
244.4295	0.3266
244.6448	0.3212
244.86	0.3131
245.0753	0.2917
245.2905	0.2981
245.5057	0.2917
245.721	0.2972
245.9362	0.2751
246.1514	0.2802
246.3665	0.28
246.5817	0.2535
246.7969	0.2648
247.012	0.2613
247.2271	0.2622
247.4423	0.2652
247.6574	0.2627
247.8725	0.2456
248.0876	0.2418
248.3026	0.2455
248.5177	0.2387
248.7328	0.2284
248.9478	0.235
249.1628	0.2347
249.3779	0.2324
249.5929	0.2237
249.8079	0.2279
250.0228	0.2238
250.2378	0.2236
250.4528	0.2086
250.6677	0.2243
250.8827	0.2068
251.0976	0.2073
251.3125	0.2139
251.5274	0.1946
251.7423	0.2023
251.9572	0.2111
252.172	0.2133
252.3869	0.2041
252.6017	0.2065
252.8166	0.1963
253.0314	0.2007
253.2462	0.2067
253.461	0.2084
253.6758	0.1932
253.8906	0.2039
254.1053	0.2041
254.3201	0.2044
254.5348	0.1958
254.7496	0.1969
254.9643	0.1937
255.179	0.1976
255.3937	0.2058
255.6083	0.1965
255.823	0.1958
256.0377	0.1941
256.2523	0.1982
256.467	0.1982
256.6816	0.1945
256.8962	0.1988
257.1108	0.199
257.3254	0.1948
257.54	0.1978
257.7545	0.1988
257.9691	0.1979
258.1836	0.1976
258.3981	0.2043
258.6127	0.1985
258.8272	0.1958
259.0417	0.1956
259.2561	0.1918
259.4706	0.1942
259.6851	0.1965
259.8995	0.1859
260.114	0.1869
260.3284	0.1975
260.5428	0.1922
260.7572	0.2014
260.9716	0.2027
261.186	0.2019
261.4003	0.2087
261.6147	0.1947
261.829	0.1964
262.0433	0.1979
262.2577	0.1968
262.472	0.1961
262.6863	0.1919
262.9005	0.1892
263.1148	0.1964
263.3291	0.1855
263.5433	0.1918
263.7576	0.1886
263.9718	0.1872
264.186	0.1844
264.4002	0.1904
264.6144	0.1819
264.8286	0.1798
265.0427	0.1732
265.2569	0.1821
265.471	0.1764
265.6851	0.1783
265.8993	0.17
266.1134	0.1722
266.3275	0.1793
266.5415	0.1665
266.7556	0.183
266.9697	0.1773
267.1837	0.1779
267.3978	0.1816
267.6118	0.185
267.8258	0.1887
268.0398	0.184
268.2538	0.1866
268.4677	0.1912
268.6817	0.1925
268.8957	0.1851
269.1096	0.1763
269.3235	0.1692
269.5374	0.17
269.7514	0.1598
269.9652	0.1684
270.1791	0.1525
270.393	0.1447
270.6068	0.1424
270.8207	0.1424
271.0345	0.1541
271.2483	0.1457
271.4622	0.1532
271.676	0.1451
271.8897	0.1376
272.1035	0.1314
272.3173	0.145
272.531	0.1364
272.7448	0.1414
272.9585	0.1356
273.1722	0.1333
273.3859	0.1417
273.5996	0.1245
273.8133	0.1321
274.0269	0.1382
274.2406	0.1315
274.4542	0.1331
274.6679	0.139
274.8815	0.1373
275.0951	0.136
275.3087	0.1319
275.5223	0.1341
275.7358	0.129
275.9494	0.1418
276.1629	0.1377
276.3765	0.132
276.59	0.1395
276.8035	0.1382
277.017	0.1317
277.2305	0.1328
277.444	0.1321
277.6574	0.1392
277.8709	0.1398
278.0843	0.1382
278.2978	0.143
278.5112	0.141
278.7246	0.1364
278.938	0.142
279.1513	0.1427
279.3647	0.1442
279.5781	0.1369
279.7914	0.1488
280.0047	0.1398
280.2181	0.1401
280.4314	0.1458
280.6447	0.1459
280.8579	0.1453
281.0712	0.1474
281.2845	0.1482
281.4977	0.1448
281.711	0.1474
281.9242	0.1442
282.1374	0.1482
282.3506	0.1383
282.5638	0.1423
282.7769	0.1543
282.9901	0.1431
283.2033	0.1533
283.4164	0.1514
283.6295	0.1537
283.8426	0.1543
284.0557	0.1521
284.2688	0.1437
284.4819	0.1514
284.695	0.1537
284.908	0.1526
285.1211	0.1584
285.3341	0.1479
285.5471	0.1614
285.7601	0.1478
285.9731	0.1471
286.1861	0.1609
286.3991	0.1493
286.612	0.1583
286.825	0.1598
287.0379	0.1559
287.2508	0.1561
287.4637	0.1633
287.6766	0.1578
287.8895	0.1699
288.1024	0.1645
288.3152	0.1617
288.5281	0.1597
288.7409	0.1631
288.9538	0.161
289.1666	0.1591
289.3794	0.1628
289.5922	0.1612
289.8049	0.1591
290.0177	0.1677
290.2304	0.1595
290.4432	0.1549
290.6559	0.1633
290.8686	0.1597
291.0813	0.1668
291.294	0.1719
291.5067	0.1618
291.7194	0.1638
291.932	0.1661
292.1447	0.1639
292.3573	0.1577
292.5699	0.1731
292.7825	0.1648
292.9951	0.1692
293.2077	0.1594
293.4203	0.1568
293.6328	0.1713
293.8454	0.1613
294.0579	0.1687
294.2704	0.1678
294.4829	0.1652
294.6954	0.1694
294.9079	0.1689
295.1204	0.1633
295.3328	0.1704
295.5453	0.1571
295.7577	0.161
295.9701	0.1635
296.1825	0.1693
296.3949	0.1562
296.6073	0.1721
296.8197	0.1662
297.0321	0.167
297.2444	0.1606
297.4567	0.1652
297.6691	0.1615
297.8814	0.1636
298.0937	0.1669
298.306	0.1673
298.5182	0.1492
298.7305	0.1659
298.9428	0.1609
299.155	0.1617
299.3672	0.163
299.5794	0.164
299.7916	0.1707
300.0038	0.1616
300.216	0.1696
300.4282	0.1647
300.6403	0.1595
300.8525	0.1641
301.0646	0.1643
301.2767	0.163
301.4888	0.151
301.7009	0.163
301.913	0.1698
302.125	0.1619
302.3371	0.168
302.5491	0.1624
302.7612	0.167
302.9732	0.1672
303.1852	0.1661
303.3972	0.1646
303.6092	0.1603
303.8211	0.1675
304.0331	0.1536
304.245	0.1637
304.457	0.1649
304.6689	0.1638
304.8808	0.157
305.0927	0.1545
305.3046	0.1508
305.5164	0.1552
305.7283	0.1492
305.9401	0.1551
306.152	0.153
306.3638	0.1557
306.5756	0.1422
306.7874	0.1489
306.9992	0.1426
307.2109	0.1408
307.4227	0.1449
307.6344	0.1363
307.8462	0.1323
308.0579	0.1392
308.2696	0.1329
308.4813	0.1332
308.693	0.132
308.9046	0.1235
309.1163	0.121
309.328	0.1177
309.5396	0.123
309.7512	0.1232
309.9628	0.1234
310.1744	0.1251
310.386	0.1114
310.5976	0.1138
310.8091	0.1189
311.0207	0.1171
311.2322	0.11
311.4437	0.118
311.6552	0.114
311.8667	0.109
312.0782	0.1054
312.2897	0.1048
312.5012	0.1039
312.7126	0.0957
312.924	0.1018
313.1355	0.1017
313.3469	0.1052
313.5583	0.1
313.7696	0.0985
313.981	0.0947
314.1924	0.0927
314.4037	0.0966
314.6151	0.0923
314.8264	0.0952
315.0377	0.098
315.249	0.0994
315.4603	0.0926
315.6716	0.097
315.8828	0.0949
316.0941	0.091
316.3053	0.0904
316.5165	0.0924
316.7277	0.0935
316.9389	0.0917
317.1501	0.086
317.3613	0.0948
317.5724	0.086
317.7836	0.0926
317.9947	0.0927
318.2058	0.0899
318.417	0.0881
318.6281	0.0935
318.8391	0.0892
319.0502	0.0856
319.2613	0.0909
319.4723	0.0923
319.6834	0.0874
319.8944	0.0953
320.1054	0.0893
320.3164	0.0919
320.5274	0.0955
320.7383	0.0863
320.9493	0.0899
321.1602	0.0937
321.3712	0.0928
321.5821	0.0952
321.793	0.0884
322.0039	0.093
322.2148	0.0905
322.4257	0.0918
322.6365	0.0863
322.8474	0.0917
323.0582	0.1064
323.269	0.0874
323.4798	0.0973
323.6906	0.0961
323.9014	0.0934
324.1122	0.0888
324.3229	0.0929
324.5337	0.0781
324.7444	0.0894
324.9551	0.0918
325.1658	0.0871
325.3765	0.0868
325.5872	0.0881
325.7979	0.0983
326.0085	0.1005
326.2192	0.0993
326.4298	0.107
326.6404	0.0947
326.851	0.091
327.0616	0.0929
327.2722	0.0975
327.4828	0.0892
327.6933	0.1037
327.9039	0.0979
328.1144	0.1007
328.3249	0.0955
328.5354	0.098
328.7459	0.0926
328.9564	0.0911
329.1669	0.0985
329.3773	0.0983
329.5878	0.0971
329.7982	0.0985
330.0086	0.1027
330.219	0.1001
330.4294	0.0948
330.6398	0.1004
330.8502	0.0963
331.0605	0.0969
331.2708	0.1019
331.4812	0.0923
331.6915	0.0973
331.9018	0.0975
332.1121	0.1034
332.3224	0.0972
332.5326	0.0885
332.7429	0.0999
332.9531	0.0983
333.1633	0.1087
333.3735	0.1061
333.5837	0.0945
333.7939	0.0987
334.0041	0.1022
334.2143	0.0972
334.4244	0.0917
334.6346	0.0967
334.8447	0.1073
335.0548	0.0997
335.2649	0.0907
335.475	0.0967
335.685	0.108
335.8951	0.0992
336.1051	0.0907
336.3152	0.0963
336.5252	0.0966
336.7352	0.1025
336.9452	0.0965
337.1552	0.104
337.3652	0.106
337.5751	0.0994
337.7851	0.0923
337.995	0.1073
338.2049	0.1045
338.4148	0.1008
338.6247	0.1004
338.8346	0.1043
339.0445	0.1079
339.2543	0.1063
339.4642	0.1035
339.674	0.1071
339.8838	0.1046
340.0936	0.1058
340.3034	0.1191
340.5132	0.1106
340.7229	0.1149
340.9327	0.1112
341.1424	0.1159
341.3522	0.1038
341.5619	0.122
341.7716	0.1221
341.9813	0.1154
342.1909	0.1178
342.4006	0.1098
342.6102	0.1086
342.8199	0.1211
343.0295	0.1096
343.2391	0.1146
343.4487	0.1165
343.6583	0.1148
343.8679	0.1153
344.0774	0.12
344.287	0.1274
344.4965	0.1148
344.706	0.125
344.9155	0.1184
345.125	0.1247
345.3345	0.1201
345.544	0.1149
345.7534	0.1186
345.9629	0.1232
346.1723	0.1308
346.3817	0.124
346.5911	0.1249
346.8005	0.1227
347.0099	0.1216
347.2193	0.126
347.4286	0.1325
347.638	0.1341
347.8473	0.1261
348.0566	0.1303
348.2659	0.1236
348.4752	0.1328
348.6845	0.1319
348.8937	0.131
349.103	0.1265
349.3122	0.1248
349.5214	0.1349
349.7306	0.126
349.9398	0.1375
350.149	0.1248
350.3582	0.1289
350.5674	0.1402
350.7765	0.1313
350.9856	0.1332
351.1948	0.1464
351.4039	0.1291
351.613	0.1339
351.822	0.1371
352.0311	0.1342
352.2402	0.1411
352.4492	0.1417
352.6582	0.142
352.8672	0.1451
353.0762	0.1435
353.2852	0.1475
353.4942	0.1562
353.7032	0.1488
353.9121	0.1458
354.1211	0.1412
354.33	0.1392
354.5389	0.146
354.7478	0.1514
354.9567	0.1448
355.1655	0.1511
355.3744	0.1475
355.5833	0.1475
355.7921	0.1459
356.0009	0.1507
356.2097	0.153
356.4185	0.1521
356.6273	0.1571
356.8361	0.1544
357.0448	0.1541
357.2536	0.154
357.4623	0.1517
357.671	0.1583
357.8797	0.1667
358.0884	0.1681
358.2971	0.165
358.5057	0.1635
358.7144	0.1724
358.923	0.1747
359.1316	0.1673
359.3402	0.1714
359.5488	0.1707
359.7574	0.1776
359.966	0.1722
360.1746	0.1749
360.3831	0.1769
360.5916	0.1793
360.8002	0.1815
361.0087	0.1792
361.2172	0.1792
361.4256	0.1832
361.6341	0.1776
361.8426	0.1794
362.051	0.1635
362.2594	0.1792
362.4678	0.1821
362.6762	0.1807
362.8846	0.1881
363.093	0.1786
363.3014	0.1874
363.5097	0.1835
363.718	0.1977
363.9264	0.1881
364.1347	0.1931
364.343	0.1858
364.5513	0.1887
364.7595	0.1934
364.9678	0.1973
365.176	0.2023
365.3842	0.1907
365.5925	0.2011
365.8007	0.1953
366.0089	0.2074
366.217	0.1988
366.4252	0.2052
366.6333	0.1941
366.8415	0.2055
367.0496	0.2093
367.2577	0.2049
367.4658	0.2123
367.6739	0.2088
367.882	0.2101
368.09	0.2072
368.2981	0.2136
368.5061	0.2134
368.7141	0.2065
368.9221	0.2086
369.1301	0.225
369.3381	0.2204
369.5461	0.2198
369.754	0.2228
369.962	0.2201
370.1699	0.223
370.3778	0.2184
370.5857	0.2224
370.7936	0.2155
371.0015	0.2179
371.2093	0.2164
371.4172	0.2315
371.625	0.2296
371.8328	0.2265
372.0406	0.2358
372.2484	0.2302
372.4562	0.2278
372.664	0.2317
372.8717	0.2208
373.0795	0.2284
373.2872	0.2273
373.4949	0.2274
373.7026	0.2369
373.9103	0.2278
374.118	0.2357
374.3256	0.2266
374.5333	0.2338
374.7409	0.242
374.9485	0.2289
375.1561	0.2406
375.3637	0.2342
375.5713	0.2425
375.7789	0.238
375.9864	0.2378
376.194	0.2481
376.4015	0.244
376.609	0.2484
376.8165	0.2347
377.024	0.2404
377.2315	0.2427
377.4389	0.244
377.6464	0.25
377.8538	0.2508
378.0612	0.2426
378.2686	0.2445
378.476	0.2424
378.6834	0.2529
378.8908	0.2677
379.0981	0.2525
379.3055	0.2575
379.5128	0.2505
379.7201	0.2467
379.9274	0.2637
380.1347	0.2568
380.342	0.2559
380.5492	0.2591
380.7565	0.2544
380.9637	0.2688
381.1709	0.2566
381.3781	0.2512
381.5853	0.2656
381.7925	0.2736
381.9997	0.2595
382.2068	0.2568
382.4139	0.2575
382.6211	0.2618
382.8282	0.2632
383.0353	0.2572
383.2424	0.2568
383.4494	0.269
383.6565	0.2655
383.8635	0.2741
384.0706	0.262
384.2776	0.2698
384.4846	0.2693
384.6916	0.2684
384.8986	0.265
385.1055	0.2806
385.3125	0.2756
385.5194	0.2816
385.7263	0.2765
385.9333	0.2682
386.1402	0.2764
386.347	0.2669
386.5539	0.2711
386.7608	0.2666
386.9676	0.2762
387.1744	0.2703
387.3813	0.2612
387.5881	0.2609
387.7948	0.2703
388.0016	0.2609
388.2084	0.286
388.4151	0.2628
388.6219	0.2767
388.8286	0.2762
389.0353	0.2668
389.242	0.2723
389.4487	0.2624
389.6553	0.2619
389.862	0.2601
390.0686	0.2546
390.2753	0.2575
390.4819	0.255
390.6885	0.259
390.8951	0.2637
391.1016	0.2638
391.3082	0.2669
391.5147	0.2559
391.7213	0.2521
391.9278	0.246
392.1343	0.2603
392.3408	0.241
392.5473	0.2501
392.7537	0.2511
392.9602	0.2401
393.1666	0.2502
393.373	0.2476
393.5794	0.2492
393.7858	0.2345
393.9922	0.2384
394.1986	0.2385
394.4049	0.2437
394.6113	0.2452
394.8176	0.2252
395.0239	0.2377
395.2302	0.2336
395.4365	0.2343
395.6428	0.2339
395.8491	0.2406
396.0553	0.2319
396.2615	0.2365
396.4678	0.2331
396.674	0.2295
396.8802	0.2294
397.0863	0.2304
397.2925	0.2267
397.4987	0.23
397.7048	0.2204
397.9109	0.2345
398.117	0.232
398.3231	0.2344
398.5292	0.2145
398.7353	0.2364
398.9413	0.2217
399.1474	0.2307
399.3534	0.2095
399.5594	0.2255
399.7654	0.2362
399.9714	0.2303
400.1774	0.2243
400.3833	0.2308
400.5893	0.228
400.7952	0.2107
401.0011	0.2211
401.207	0.2176
401.4129	0.2156
401.6188	0.2238
401.8247	0.2253
402.0305	0.2279
402.2364	0.2341
402.4422	0.2196
402.648	0.2306
402.8538	0.2293
403.0596	0.2089
403.2654	0.2233
403.4711	0.2214
403.6768	0.2395
403.8826	0.2258
404.0883	0.2251
404.294	0.2258
404.4997	0.2364
404.7054	0.2237
404.911	0.2242
405.1167	0.2295
405.3223	0.2339
405.5279	0.228
405.7335	0.2251
405.9391	0.2276
406.1447	0.2209
406.3502	0.2226
406.5558	0.2284
406.7613	0.2149
406.9668	0.2275
407.1724	0.2167
407.3778	0.2395
407.5833	0.2171
407.7888	0.2339
407.9942	0.2257
408.1997	0.2261
408.4051	0.2303
408.6105	0.2311
408.8159	0.2344
409.0213	0.2314
409.2267	0.2254
409.432	0.2288
409.6374	0.2292
409.8427	0.2304
410.048	0.217
410.2533	0.2251
410.4586	0.2336
410.6639	0.213
410.8691	0.2163
411.0744	0.2274
411.2796	0.2265
411.4848	0.2137
411.69	0.2268
411.8952	0.2183
412.1004	0.2077
412.3056	0.2295
412.5107	0.228
412.7158	0.2204
412.921	0.2228
413.1261	0.2212
413.3312	0.2312
413.5362	0.2166
413.7413	0.2132
413.9464	0.2272
414.1514	0.2145
414.3564	0.2349
414.5614	0.2277
414.7664	0.2264
414.9714	0.2169
415.1764	0.2234
415.3813	0.2153
415.5863	0.224
415.7912	0.2112
415.9961	0.2148
416.201	0.2225
416.4059	0.2216
416.6108	0.2274
416.8156	0.2182
417.0205	0.2203
417.2253	0.2062
417.4301	0.2243
417.6349	0.2209
417.8397	0.2143
418.0445	0.2163
418.2492	0.2232
418.454	0.2102
418.6587	0.2145
418.8634	0.2113
419.0681	0.2148
419.2728	0.2212
419.4775	0.206
419.6822	0.2153
419.8868	0.2077
420.0915	0.2154
420.2961	0.2153
420.5007	0.2059
420.7053	0.2023
420.9099	0.2042
421.1144	0.2123
421.319	0.1997
421.5235	0.2157
421.728	0.1961
421.9325	0.1987
422.137	0.2019
422.3415	0.2055
422.546	0.2031
422.7504	0.202
422.9549	0.2034
423.1593	0.1951
423.3637	0.1905
423.5681	0.2094
423.7725	0.1948
423.9769	0.2017
424.1812	0.1932
424.3856	0.2035
424.5899	0.1969
424.7942	0.1861
424.9985	0.1919
425.2028	0.1883
425.4071	0.1933
425.6113	0.1876
425.8156	0.1898
426.0198	0.2027
426.224	0.1706
426.4282	0.1794
426.6324	0.1831
