Data from MonoPyChalIsomerACN10uM450nmA_Absorbance_13-11-30-891.txt Node
Date: Tue Jul 09 13:11:30 BST 2024
User: LASERRRRR
Spectrometer: FLMT03099
Trigger mode: 0
Integration Time (sec): 2.000000E-1
Scans to average: 1
Electric dark correction enabled: true
Nonlinearity correction enabled: false
Boxcar width: 0
XAxis mode: Wavelengths
Number of Pixels in Spectrum: 3648
>>>>>Begin Spectral Data<<<<<
179.3399	-0
179.5586	-0
179.7771	-0
179.9957	0.2058
180.2143	-0
180.4329	0.4511
180.6514	0.8086
180.8699	0.2668
181.0885	0.1774
181.307	-0
181.5255	-0
181.744	-0.1009
181.9625	0.3506
182.181	-0.2973
182.3994	-0
182.6179	-0.1519
182.8363	-0
183.0547	0.2907
183.2732	0.1475
183.4916	0.1188
183.71	0.1058
183.9284	0.011
184.1467	0.1257
184.3651	0.1094
184.5835	0.0884
184.8018	0.128
185.0201	0.1724
185.2385	-0.0743
185.4568	0.0208
185.6751	0.123
185.8934	-0.0046
186.1117	0.008
186.3299	-0.1256
186.5482	0.0375
186.7664	-0.0582
186.9847	0.0698
187.2029	0.0327
187.4211	-0.0038
187.6393	-0.0126
187.8575	0.1638
188.0757	0.0791
188.2939	0.0285
188.512	0.0561
188.7302	0.0161
188.9483	0.0919
189.1665	0.1679
189.3846	0.1267
189.6027	0.1525
189.8208	0.2191
190.0389	0.1448
190.257	0.1828
190.475	0.302
190.6931	0.1605
190.9111	0.2671
191.1292	0.4704
191.3472	0.3785
191.5652	0.2782
191.7832	0.339
192.0012	0.4209
192.2192	0.5257
192.4371	0.4391
192.6551	0.3904
192.873	0.4514
193.091	0.4859
193.3089	0.5231
193.5268	0.6925
193.7447	0.5795
193.9626	0.5492
194.1805	0.6263
194.3984	0.5517
194.6162	0.5835
194.8341	0.6069
195.0519	0.6517
195.2697	0.5451
195.4875	0.5539
195.7054	0.6068
195.9231	0.5786
196.1409	0.6175
196.3587	0.7294
196.5765	0.6772
196.7942	0.7358
197.012	0.6283
197.2297	0.6765
197.4474	0.7594
197.6651	0.718
197.8828	0.8029
198.1005	0.8459
198.3182	0.7666
198.5358	0.7521
198.7535	0.8035
198.9711	0.8092
199.1888	0.7492
199.4064	0.7858
199.624	0.7071
199.8416	0.7815
200.0592	0.854
200.2767	0.8672
200.4943	0.8499
200.7119	0.887
200.9294	0.924
201.1469	0.9031
201.3645	0.814
201.582	0.9286
201.7995	0.7077
202.017	0.9677
202.2344	0.8964
202.4519	0.9872
202.6694	0.9359
202.8868	0.8626
203.1042	0.9778
203.3217	0.9941
203.5391	0.965
203.7565	0.9588
203.9739	0.8541
204.1913	0.8501
204.4086	0.8989
204.626	1.0815
204.8433	0.8828
205.0607	1.0338
205.278	0.8987
205.4953	1.0959
205.7126	0.8919
205.9299	1.06
206.1472	1.0126
206.3644	1.0011
206.5817	1.0792
206.7989	1.0251
207.0162	1.1632
207.2334	0.8922
207.4506	0.9335
207.6678	1.1327
207.885	1.1029
208.1022	1.0653
208.3194	1.0617
208.5365	1.0726
208.7537	0.9378
208.9708	1.053
209.1879	0.9535
209.405	1.1164
209.6222	1.0583
209.8392	1.0542
210.0563	1.0308
210.2734	0.9823
210.4905	1.1813
210.7075	0.9738
210.9245	0.9919
211.1416	1.1006
211.3586	1.133
211.5756	1.132
211.7926	1.0472
212.0096	1.0735
212.2265	0.997
212.4435	0.9928
212.6604	1.0659
212.8774	1.0248
213.0943	1.0062
213.3112	0.9317
213.5281	1.0682
213.745	1.0044
213.9619	0.9399
214.1788	1.0425
214.3956	0.9599
214.6125	0.9172
214.8293	0.8741
215.0461	0.9113
215.2629	0.891
215.4798	0.8485
215.6965	0.8524
215.9133	0.8816
216.1301	0.8232
216.3469	0.8268
216.5636	0.8017
216.7803	0.8031
216.9971	0.7579
217.2138	0.7537
217.4305	0.701
217.6472	0.6646
217.8639	0.64
218.0805	0.6123
218.2972	0.5619
218.5138	0.5401
218.7305	0.5125
218.9471	0.4889
219.1637	0.4479
219.3803	0.4198
219.5969	0.3884
219.8135	0.3762
220.0301	0.3546
220.2466	0.3574
220.4632	0.3329
220.6797	0.3301
220.8962	0.3089
221.1127	0.3117
221.3292	0.2959
221.5457	0.2926
221.7622	0.2847
221.9787	0.2707
222.1951	0.2784
222.4116	0.2672
222.628	0.2776
222.8444	0.261
223.0608	0.2658
223.2772	0.273
223.4936	0.2493
223.71	0.2624
223.9264	0.2755
224.1427	0.2556
224.3591	0.2786
224.5754	0.2798
224.7917	0.2703
225.008	0.2772
225.2243	0.2723
225.4406	0.2863
225.6569	0.2689
225.8732	0.2862
226.0894	0.2632
226.3057	0.2944
226.5219	0.2788
226.7381	0.2824
226.9543	0.2903
227.1705	0.2885
227.3867	0.3038
227.6029	0.2976
227.8191	0.2945
228.0352	0.2978
228.2513	0.315
228.4675	0.303
228.6836	0.3191
228.8997	0.3137
229.1158	0.311
229.3319	0.3091
229.548	0.3288
229.764	0.3167
229.9801	0.3302
230.1961	0.3198
230.4121	0.3293
230.6282	0.3355
230.8442	0.3444
231.0602	0.3365
231.2761	0.3421
231.4921	0.3484
231.7081	0.3544
231.924	0.3578
232.14	0.3529
232.3559	0.3637
232.5718	0.3602
232.7877	0.3626
233.0036	0.3685
233.2195	0.3818
233.4353	0.3631
233.6512	0.3673
233.867	0.3682
234.0829	0.3804
234.2987	0.3736
234.5145	0.3788
234.7303	0.3938
234.9461	0.392
235.1619	0.3814
235.3776	0.3835
235.5934	0.3936
235.8091	0.3866
236.0249	0.3795
236.2406	0.3891
236.4563	0.3871
236.672	0.3905
236.8877	0.4023
237.1034	0.4072
237.319	0.4167
237.5347	0.4076
237.7503	0.4105
237.966	0.4033
238.1816	0.4081
238.3972	0.4103
238.6128	0.4135
238.8284	0.4212
239.0439	0.3954
239.2595	0.4325
239.475	0.4151
239.6906	0.4125
239.9061	0.4139
240.1216	0.4153
240.3371	0.4197
240.5526	0.4191
240.7681	0.415
240.9836	0.4126
241.199	0.3997
241.4145	0.401
241.6299	0.4014
241.8453	0.3945
242.0607	0.3984
242.2761	0.3955
242.4915	0.3837
242.7069	0.3847
242.9223	0.3855
243.1376	0.373
243.353	0.3651
243.5683	0.3523
243.7836	0.3512
243.9989	0.354
244.2142	0.3469
244.4295	0.3395
244.6448	0.326
244.86	0.33
245.0753	0.3121
245.2905	0.3089
245.5057	0.3228
245.721	0.3066
245.9362	0.294
246.1514	0.2938
246.3665	0.2859
246.5817	0.2725
246.7969	0.277
247.012	0.2791
247.2271	0.274
247.4423	0.2752
247.6574	0.2706
247.8725	0.2559
248.0876	0.2522
248.3026	0.2527
248.5177	0.249
248.7328	0.2476
248.9478	0.2505
249.1628	0.2393
249.3779	0.2321
249.5929	0.2395
249.8079	0.231
250.0228	0.2371
250.2378	0.2303
250.4528	0.2178
250.6677	0.2185
250.8827	0.2196
251.0976	0.223
251.3125	0.2201
251.5274	0.2083
251.7423	0.2174
251.9572	0.2165
252.172	0.2063
252.3869	0.2072
252.6017	0.208
252.8166	0.2091
253.0314	0.2045
253.2462	0.2149
253.461	0.199
253.6758	0.1965
253.8906	0.202
254.1053	0.2026
254.3201	0.2026
254.5348	0.2023
254.7496	0.2031
254.9643	0.2033
255.179	0.2018
255.3937	0.2017
255.6083	0.1981
255.823	0.1902
256.0377	0.1935
256.2523	0.1898
256.467	0.1936
256.6816	0.1918
256.8962	0.1973
257.1108	0.2057
257.3254	0.1958
257.54	0.1908
257.7545	0.1897
257.9691	0.1999
258.1836	0.1966
258.3981	0.2014
258.6127	0.2
258.8272	0.1921
259.0417	0.1999
259.2561	0.1981
259.4706	0.1907
259.6851	0.1966
259.8995	0.1852
260.114	0.1924
260.3284	0.1969
260.5428	0.201
260.7572	0.1952
260.9716	0.1916
261.186	0.1984
261.4003	0.2047
261.6147	0.2054
261.829	0.205
262.0433	0.2003
262.2577	0.2025
262.472	0.1999
262.6863	0.1861
262.9005	0.2102
263.1148	0.194
263.3291	0.1919
263.5433	0.1894
263.7576	0.1965
263.9718	0.1955
264.186	0.1814
264.4002	0.1898
264.6144	0.1882
264.8286	0.181
265.0427	0.1836
265.2569	0.1774
265.471	0.1807
265.6851	0.1826
265.8993	0.1779
266.1134	0.1728
266.3275	0.1852
266.5415	0.1764
266.7556	0.1809
266.9697	0.1821
267.1837	0.1825
267.3978	0.1984
267.6118	0.1957
267.8258	0.191
268.0398	0.1956
268.2538	0.1987
268.4677	0.191
268.6817	0.1977
268.8957	0.1853
269.1096	0.1822
269.3235	0.1885
269.5374	0.1808
269.7514	0.1748
269.9652	0.1719
270.1791	0.1668
270.393	0.1581
270.6068	0.1604
270.8207	0.1538
271.0345	0.1574
271.2483	0.1592
271.4622	0.16
271.676	0.1444
271.8897	0.1489
272.1035	0.1484
272.3173	0.1541
272.531	0.1467
272.7448	0.1428
272.9585	0.1526
273.1722	0.1453
273.3859	0.1423
273.5996	0.1486
273.8133	0.1524
274.0269	0.1486
274.2406	0.1518
274.4542	0.1496
274.6679	0.1413
274.8815	0.147
275.0951	0.1432
275.3087	0.1499
275.5223	0.1468
275.7358	0.1536
275.9494	0.1524
276.1629	0.1483
276.3765	0.1479
276.59	0.1529
276.8035	0.1475
277.017	0.1418
277.2305	0.1514
277.444	0.1458
277.6574	0.1449
277.8709	0.1567
278.0843	0.1554
278.2978	0.1501
278.5112	0.1507
278.7246	0.1565
278.938	0.1563
279.1513	0.1552
279.3647	0.1528
279.5781	0.1532
279.7914	0.1588
280.0047	0.157
280.2181	0.1555
280.4314	0.1615
280.6447	0.1552
280.8579	0.1577
281.0712	0.157
281.2845	0.1547
281.4977	0.156
281.711	0.1604
281.9242	0.1599
282.1374	0.1589
282.3506	0.1528
282.5638	0.1616
282.7769	0.162
282.9901	0.1614
283.2033	0.1621
283.4164	0.1631
283.6295	0.1619
283.8426	0.1611
284.0557	0.1544
284.2688	0.1612
284.4819	0.1566
284.695	0.159
284.908	0.1653
285.1211	0.1639
285.3341	0.157
285.5471	0.1616
285.7601	0.1564
285.9731	0.1661
286.1861	0.1605
286.3991	0.1607
286.612	0.1613
286.825	0.155
287.0379	0.1635
287.2508	0.1562
287.4637	0.1535
287.6766	0.1496
287.8895	0.1573
288.1024	0.1571
288.3152	0.1585
288.5281	0.1521
288.7409	0.1523
288.9538	0.1619
289.1666	0.1682
289.3794	0.1539
289.5922	0.1574
289.8049	0.1581
290.0177	0.1627
290.2304	0.1674
290.4432	0.1609
290.6559	0.1551
290.8686	0.1587
291.0813	0.1669
291.294	0.1609
291.5067	0.1508
291.7194	0.1545
291.932	0.1634
292.1447	0.1579
292.3573	0.159
292.5699	0.1609
292.7825	0.1587
292.9951	0.1624
293.2077	0.1504
293.4203	0.1605
293.6328	0.1563
293.8454	0.1476
294.0579	0.1589
294.2704	0.1545
294.4829	0.1553
294.6954	0.1536
294.9079	0.1629
295.1204	0.153
295.3328	0.1571
295.5453	0.1512
295.7577	0.1403
295.9701	0.1493
296.1825	0.1513
296.3949	0.1494
296.6073	0.1614
296.8197	0.1631
297.0321	0.155
297.2444	0.1547
297.4567	0.1483
297.6691	0.1522
297.8814	0.1494
298.0937	0.1539
298.306	0.1534
298.5182	0.1504
298.7305	0.1484
298.9428	0.1452
299.155	0.1529
299.3672	0.1554
299.5794	0.1602
299.7916	0.1518
300.0038	0.1485
300.216	0.1617
300.4282	0.1536
300.6403	0.1508
300.8525	0.151
301.0646	0.145
301.2767	0.1521
301.4888	0.1397
301.7009	0.1624
301.913	0.1515
302.125	0.152
302.3371	0.1574
302.5491	0.1476
302.7612	0.1534
302.9732	0.1564
303.1852	0.1543
303.3972	0.154
303.6092	0.1505
303.8211	0.1555
304.0331	0.1467
304.245	0.1495
304.457	0.144
304.6689	0.1481
304.8808	0.1475
305.0927	0.1499
305.3046	0.1391
305.5164	0.1424
305.7283	0.1484
305.9401	0.1403
306.152	0.144
306.3638	0.1463
306.5756	0.1415
306.7874	0.138
306.9992	0.1425
307.2109	0.13
307.4227	0.1344
307.6344	0.1329
307.8462	0.132
308.0579	0.1258
308.2696	0.1279
308.4813	0.1329
308.693	0.1292
308.9046	0.1197
309.1163	0.1168
309.328	0.1156
309.5396	0.1178
309.7512	0.1228
309.9628	0.1166
310.1744	0.1197
310.386	0.1121
310.5976	0.1189
310.8091	0.1147
311.0207	0.1162
311.2322	0.1214
311.4437	0.1163
311.6552	0.1104
311.8667	0.1101
312.0782	0.1145
312.2897	0.1066
312.5012	0.1122
312.7126	0.1048
312.924	0.1041
313.1355	0.1065
313.3469	0.1081
313.5583	0.1112
313.7696	0.1062
313.981	0.1058
314.1924	0.0992
314.4037	0.1118
314.6151	0.0955
314.8264	0.0998
315.0377	0.1004
315.249	0.1078
315.4603	0.1052
315.6716	0.1036
315.8828	0.1036
316.0941	0.0993
316.3053	0.1036
316.5165	0.0984
316.7277	0.0923
316.9389	0.1035
317.1501	0.0939
317.3613	0.0977
317.5724	0.1009
317.7836	0.0979
317.9947	0.1043
318.2058	0.094
318.417	0.099
318.6281	0.1
318.8391	0.0917
319.0502	0.0889
319.2613	0.0995
319.4723	0.1034
319.6834	0.0923
319.8944	0.108
320.1054	0.1017
320.3164	0.1041
320.5274	0.1035
320.7383	0.0945
320.9493	0.1
321.1602	0.0918
321.3712	0.1067
321.5821	0.1034
321.793	0.0971
322.0039	0.0937
322.2148	0.1036
322.4257	0.094
322.6365	0.101
322.8474	0.1073
323.0582	0.1144
323.269	0.1
323.4798	0.1046
323.6906	0.1084
323.9014	0.1021
324.1122	0.1021
324.3229	0.1065
324.5337	0.1005
324.7444	0.1067
324.9551	0.11
325.1658	0.1075
325.3765	0.1006
325.5872	0.1022
325.7979	0.1117
326.0085	0.104
326.2192	0.1036
326.4298	0.111
326.6404	0.1057
326.851	0.101
327.0616	0.1097
327.2722	0.1088
327.4828	0.0965
327.6933	0.109
327.9039	0.1027
328.1144	0.1087
328.3249	0.1081
328.5354	0.1009
328.7459	0.1044
328.9564	0.1051
329.1669	0.1059
329.3773	0.1092
329.5878	0.108
329.7982	0.1108
330.0086	0.1071
330.219	0.1141
330.4294	0.1086
330.6398	0.11
330.8502	0.1171
331.0605	0.1151
331.2708	0.103
331.4812	0.1159
331.6915	0.1036
331.9018	0.1106
332.1121	0.1146
332.3224	0.1103
332.5326	0.1019
332.7429	0.1121
332.9531	0.1051
333.1633	0.1204
333.3735	0.113
333.5837	0.1135
333.7939	0.1198
334.0041	0.1139
334.2143	0.113
334.4244	0.1001
334.6346	0.1105
334.8447	0.1089
335.0548	0.1111
335.2649	0.1006
335.475	0.1081
335.685	0.1121
335.8951	0.1085
336.1051	0.1092
336.3152	0.1086
336.5252	0.1136
336.7352	0.1083
336.9452	0.1092
337.1552	0.1148
337.3652	0.1166
337.5751	0.1173
337.7851	0.1062
337.995	0.1171
338.2049	0.1127
338.4148	0.1156
338.6247	0.1145
338.8346	0.1163
339.0445	0.1117
339.2543	0.1218
339.4642	0.1172
339.674	0.1165
339.8838	0.1094
340.0936	0.121
340.3034	0.1216
340.5132	0.1227
340.7229	0.1216
340.9327	0.1209
341.1424	0.1232
341.3522	0.1146
341.5619	0.1258
341.7716	0.1299
341.9813	0.1266
342.1909	0.1221
342.4006	0.1128
342.6102	0.1181
342.8199	0.1126
343.0295	0.1237
343.2391	0.1268
343.4487	0.1233
343.6583	0.1309
343.8679	0.1277
344.0774	0.1298
344.287	0.1341
344.4965	0.1248
344.706	0.1326
344.9155	0.135
345.125	0.137
345.3345	0.1262
345.544	0.1178
345.7534	0.1309
345.9629	0.1341
346.1723	0.1342
346.3817	0.1403
346.5911	0.1369
346.8005	0.1294
347.0099	0.1368
347.2193	0.1387
347.4286	0.1352
347.638	0.1372
347.8473	0.1356
348.0566	0.139
348.2659	0.1294
348.4752	0.1413
348.6845	0.1286
348.8937	0.1417
349.103	0.1401
349.3122	0.1383
349.5214	0.1444
349.7306	0.1368
349.9398	0.133
350.149	0.1374
350.3582	0.1431
350.5674	0.1402
350.7765	0.1442
350.9856	0.1382
351.1948	0.138
351.4039	0.1431
351.613	0.1342
351.822	0.1512
352.0311	0.1383
352.2402	0.1555
352.4492	0.1362
352.6582	0.1386
352.8672	0.1469
353.0762	0.1493
353.2852	0.1459
353.4942	0.1529
353.7032	0.1465
353.9121	0.1593
354.1211	0.1501
354.33	0.1438
354.5389	0.1509
354.7478	0.1558
354.9567	0.1492
355.1655	0.1581
355.3744	0.1582
355.5833	0.1471
355.7921	0.1529
356.0009	0.1489
356.2097	0.1497
356.4185	0.1577
356.6273	0.16
356.8361	0.1417
357.0448	0.1573
357.2536	0.1597
357.4623	0.153
357.671	0.1679
357.8797	0.159
358.0884	0.1638
358.2971	0.1682
358.5057	0.162
358.7144	0.168
358.923	0.1717
359.1316	0.163
359.3402	0.1699
359.5488	0.1641
359.7574	0.1718
359.966	0.1715
360.1746	0.1725
360.3831	0.18
360.5916	0.1833
360.8002	0.1817
361.0087	0.1723
361.2172	0.1702
361.4256	0.1751
361.6341	0.1782
361.8426	0.1823
362.051	0.1851
362.2594	0.1775
362.4678	0.1797
362.6762	0.1812
362.8846	0.1868
363.093	0.1842
363.3014	0.1856
363.5097	0.1846
363.718	0.1776
363.9264	0.1796
364.1347	0.1914
364.343	0.1823
364.5513	0.1882
364.7595	0.1882
364.9678	0.1862
365.176	0.1891
365.3842	0.1852
365.5925	0.2016
365.8007	0.1861
366.0089	0.1917
366.217	0.1949
366.4252	0.1935
366.6333	0.1856
366.8415	0.1971
367.0496	0.1903
367.2577	0.2015
367.4658	0.1971
367.6739	0.195
367.882	0.199
368.09	0.1988
368.2981	0.2033
368.5061	0.2006
368.7141	0.1928
368.9221	0.1934
369.1301	0.2031
369.3381	0.2105
369.5461	0.2076
369.754	0.2051
369.962	0.2023
370.1699	0.2139
370.3778	0.1963
370.5857	0.2068
370.7936	0.2045
371.0015	0.2059
371.2093	0.2038
371.4172	0.204
371.625	0.208
371.8328	0.226
372.0406	0.2171
372.2484	0.2035
372.4562	0.2124
372.664	0.2142
372.8717	0.2044
373.0795	0.2155
373.2872	0.2196
373.4949	0.2053
373.7026	0.2087
373.9103	0.2095
374.118	0.2106
374.3256	0.22
374.5333	0.2002
374.7409	0.2172
374.9485	0.2096
375.1561	0.2136
375.3637	0.2134
375.5713	0.2123
375.7789	0.2119
375.9864	0.2103
376.194	0.2202
376.4015	0.2191
376.609	0.2209
376.8165	0.2204
377.024	0.2078
377.2315	0.2256
377.4389	0.2108
377.6464	0.213
377.8538	0.2239
378.0612	0.2243
378.2686	0.2105
378.476	0.2105
378.6834	0.2263
378.8908	0.2308
379.0981	0.2323
379.3055	0.2316
379.5128	0.2229
379.7201	0.223
379.9274	0.2261
380.1347	0.2348
380.342	0.2297
380.5492	0.2326
380.7565	0.2365
380.9637	0.2354
381.1709	0.2275
381.3781	0.2329
381.5853	0.229
381.7925	0.2365
381.9997	0.2271
382.2068	0.2289
382.4139	0.2295
382.6211	0.2281
382.8282	0.2245
383.0353	0.227
383.2424	0.231
383.4494	0.2476
383.6565	0.228
383.8635	0.2452
384.0706	0.2335
384.2776	0.2395
384.4846	0.2331
384.6916	0.2341
384.8986	0.2306
385.1055	0.2346
385.3125	0.2426
385.5194	0.2456
385.7263	0.2475
385.9333	0.2472
386.1402	0.2336
386.347	0.242
386.5539	0.2316
386.7608	0.2282
386.9676	0.2326
387.1744	0.2296
387.3813	0.2292
387.5881	0.2359
387.7948	0.2282
388.0016	0.245
388.2084	0.2464
388.4151	0.2203
388.6219	0.2318
388.8286	0.2312
389.0353	0.2231
389.242	0.2322
389.4487	0.2277
389.6553	0.2297
389.862	0.2229
390.0686	0.2193
390.2753	0.2232
390.4819	0.2235
390.6885	0.2202
390.8951	0.2228
391.1016	0.2234
391.3082	0.2187
391.5147	0.2189
391.7213	0.2196
391.9278	0.2144
392.1343	0.2215
392.3408	0.2083
392.5473	0.2161
392.7537	0.2242
392.9602	0.2054
393.1666	0.2149
393.373	0.2184
393.5794	0.2139
393.7858	0.2114
393.9922	0.1956
394.1986	0.2074
394.4049	0.2166
394.6113	0.21
394.8176	0.2031
395.0239	0.2012
395.2302	0.2007
395.4365	0.2037
395.6428	0.2088
395.8491	0.1989
396.0553	0.1909
396.2615	0.1961
396.4678	0.2093
396.674	0.1951
396.8802	0.2065
397.0863	0.2037
397.2925	0.1935
397.4987	0.202
397.7048	0.1832
397.9109	0.1954
398.117	0.1963
398.3231	0.2023
398.5292	0.1949
398.7353	0.1947
398.9413	0.1922
399.1474	0.1969
399.3534	0.1906
399.5594	0.1873
399.7654	0.1971
399.9714	0.1927
400.1774	0.1839
400.3833	0.1944
400.5893	0.1936
400.7952	0.1849
401.0011	0.1925
401.207	0.1868
401.4129	0.1782
401.6188	0.1865
401.8247	0.1941
402.0305	0.1868
402.2364	0.19
402.4422	0.1955
402.648	0.1948
402.8538	0.203
403.0596	0.178
403.2654	0.1941
403.4711	0.1852
403.6768	0.1999
403.8826	0.1941
404.0883	0.1848
404.294	0.1955
404.4997	0.1887
404.7054	0.1908
404.911	0.1898
405.1167	0.2015
405.3223	0.1919
405.5279	0.1891
405.7335	0.1954
405.9391	0.1955
406.1447	0.1884
406.3502	0.1961
406.5558	0.1891
406.7613	0.1826
406.9668	0.1856
407.1724	0.1936
407.3778	0.1959
407.5833	0.1977
407.7888	0.1943
407.9942	0.1894
408.1997	0.1949
408.4051	0.1876
408.6105	0.2015
408.8159	0.1997
409.0213	0.1874
409.2267	0.1904
409.432	0.2028
409.6374	0.1876
409.8427	0.1963
410.048	0.1941
410.2533	0.189
410.4586	0.1921
410.6639	0.1783
410.8691	0.1847
411.0744	0.1831
411.2796	0.1921
411.4848	0.1945
411.69	0.1961
411.8952	0.1889
412.1004	0.1786
412.3056	0.1947
412.5107	0.1918
412.7158	0.1856
412.921	0.1905
413.1261	0.182
413.3312	0.1918
413.5362	0.1891
413.7413	0.1777
413.9464	0.1875
414.1514	0.1817
414.3564	0.1865
414.5614	0.1866
414.7664	0.1934
414.9714	0.1807
415.1764	0.1793
415.3813	0.178
415.5863	0.1871
415.7912	0.1883
415.9961	0.1889
416.201	0.1922
416.4059	0.1899
416.6108	0.1927
416.8156	0.1765
417.0205	0.1883
417.2253	0.1872
417.4301	0.1852
417.6349	0.1878
417.8397	0.1861
418.0445	0.186
418.2492	0.1707
418.454	0.1785
418.6587	0.1778
418.8634	0.1843
419.0681	0.1698
419.2728	0.1808
419.4775	0.1772
419.6822	0.1765
419.8868	0.1669
420.0915	0.1753
420.2961	0.1701
420.5007	0.1721
420.7053	0.1675
420.9099	0.1676
421.1144	0.1761
421.319	0.1631
421.5235	0.18
421.728	0.1733
421.9325	0.1648
422.137	0.1626
422.3415	0.1757
422.546	0.1612
422.7504	0.1731
422.9549	0.1664
423.1593	0.158
423.3637	0.1641
423.5681	0.1667
423.7725	0.1707
423.9769	0.1621
424.1812	0.1624
424.3856	0.151
424.5899	0.1621
424.7942	0.1543
424.9985	0.1538
425.2028	0.1465
425.4071	0.1546
425.6113	0.1536
425.8156	0.1565
426.0198	0.16
426.224	0.1395
426.4282	0.1448
426.6324	0.1428
426.8366	0.1473
427.0407	0.1515
