Data from MonoPyChalIsomerACN10uM450nmA_Absorbance_13-11-25-891.txt Node
Date: Tue Jul 09 13:11:25 BST 2024
User: LASERRRRR
Spectrometer: FLMT03099
Trigger mode: 0
Integration Time (sec): 2.000000E-1
Scans to average: 1
Electric dark correction enabled: true
Nonlinearity correction enabled: false
Boxcar width: 0
XAxis mode: Wavelengths
Number of Pixels in Spectrum: 3648
>>>>>Begin Spectral Data<<<<<
179.3399	-0.2097
179.5586	-0.2097
179.7771	-0.2097
179.9957	-0.1821
180.2143	-0.1541
180.4329	0.5343
180.6514	-0.0103
180.8699	-0
181.0885	-0
181.307	0.5989
181.5255	-0.0855
181.744	-0.0675
181.9625	-0.0356
182.181	-0.0089
182.3994	0.0537
182.6179	0.2303
182.8363	-0.775
183.0547	0.04
183.2732	0.1309
183.4916	-0.0114
183.71	0.0966
183.9284	-0.001
184.1467	0.0729
184.3651	-0.0194
184.5835	0.091
184.8018	0.0491
185.0201	0.0907
185.2385	0.015
185.4568	-0.0581
185.6751	0.0966
185.8934	0.0699
186.1117	0.041
186.3299	-0.0885
186.5482	0.1191
186.7664	-0.0108
186.9847	0.0899
187.2029	0.2398
187.4211	0.1766
187.6393	-0.0274
187.8575	0.132
188.0757	0.0797
188.2939	0.0829
188.512	-0.0037
188.7302	0.0011
188.9483	0.063
189.1665	0.1473
189.3846	0.1083
189.6027	0.0692
189.8208	0.2106
190.0389	0.1722
190.257	0.204
190.475	0.2927
190.6931	0.1136
190.9111	0.2822
191.1292	0.3448
191.3472	0.2634
191.5652	0.327
191.7832	0.3538
192.0012	0.3347
192.2192	0.3777
192.4371	0.4055
192.6551	0.4697
192.873	0.4543
193.091	0.4312
193.3089	0.5504
193.5268	0.5678
193.7447	0.5445
193.9626	0.476
194.1805	0.5772
194.3984	0.5365
194.6162	0.4954
194.8341	0.5977
195.0519	0.6397
195.2697	0.5784
195.4875	0.5928
195.7054	0.6728
195.9231	0.6189
196.1409	0.5947
196.3587	0.6566
196.5765	0.7704
196.7942	0.6518
197.012	0.6144
197.2297	0.7299
197.4474	0.7181
197.6651	0.5982
197.8828	0.7518
198.1005	0.7233
198.3182	0.8646
198.5358	0.7637
198.7535	0.7495
198.9711	0.8359
199.1888	0.7814
199.4064	0.8217
199.624	0.8904
199.8416	0.8806
200.0592	0.7309
200.2767	0.775
200.4943	0.8832
200.7119	0.8448
200.9294	0.9595
201.1469	0.8187
201.3645	0.7507
201.582	0.9365
201.7995	0.7489
202.017	1.0194
202.2344	0.8348
202.4519	0.9324
202.6694	0.8715
202.8868	0.906
203.1042	0.8792
203.3217	0.9726
203.5391	0.8775
203.7565	0.9084
203.9739	0.9934
204.1913	0.829
204.4086	0.9738
204.626	0.9394
204.8433	0.9255
205.0607	0.895
205.278	0.8923
205.4953	1.0433
205.7126	0.9064
205.9299	1.0115
206.1472	1.0028
206.3644	0.9469
206.5817	1.0357
206.7989	1.0419
207.0162	0.9468
207.2334	0.945
207.4506	1.0121
207.6678	1.0961
207.885	1.0689
208.1022	1.1592
208.3194	1.0992
208.5365	0.9898
208.7537	1.0884
208.9708	1.0689
209.1879	1.029
209.405	1.1147
209.6222	1.0313
209.8392	1.1744
210.0563	0.9964
210.2734	1.126
210.4905	1.0978
210.7075	1.0415
210.9245	1.0372
211.1416	1.0577
211.3586	1.0268
211.5756	1.1047
211.7926	1.0979
212.0096	1.0046
212.2265	1.0428
212.4435	1.1098
212.6604	1.1022
212.8774	1.0306
213.0943	1.0375
213.3112	1.0019
213.5281	1.0529
213.745	0.9858
213.9619	0.9622
214.1788	0.9169
214.3956	0.9089
214.6125	0.9822
214.8293	0.8804
215.0461	0.8648
215.2629	0.893
215.4798	0.8583
215.6965	0.859
215.9133	0.8224
216.1301	0.8042
216.3469	0.7848
216.5636	0.7899
216.7803	0.7952
216.9971	0.7255
217.2138	0.6935
217.4305	0.7338
217.6472	0.6569
217.8639	0.6636
218.0805	0.635
218.2972	0.5768
218.5138	0.5429
218.7305	0.5125
218.9471	0.4661
219.1637	0.4428
219.3803	0.4221
219.5969	0.3941
219.8135	0.3696
220.0301	0.3492
220.2466	0.3703
220.4632	0.3302
220.6797	0.3305
220.8962	0.3098
221.1127	0.3144
221.3292	0.2955
221.5457	0.2817
221.7622	0.3007
221.9787	0.2912
222.1951	0.2807
222.4116	0.2703
222.628	0.2749
222.8444	0.2766
223.0608	0.2747
223.2772	0.2684
223.4936	0.2535
223.71	0.2578
223.9264	0.2826
224.1427	0.2677
224.3591	0.2595
224.5754	0.2783
224.7917	0.2716
225.008	0.2766
225.2243	0.2809
225.4406	0.2747
225.6569	0.2773
225.8732	0.2999
226.0894	0.2766
226.3057	0.2827
226.5219	0.2951
226.7381	0.2863
226.9543	0.282
227.1705	0.2977
227.3867	0.2959
227.6029	0.2943
227.8191	0.2984
228.0352	0.298
228.2513	0.3118
228.4675	0.3041
228.6836	0.318
228.8997	0.3293
229.1158	0.3107
229.3319	0.3213
229.548	0.3338
229.764	0.3084
229.9801	0.3281
230.1961	0.3435
230.4121	0.3355
230.6282	0.3344
230.8442	0.3374
231.0602	0.3512
231.2761	0.3464
231.4921	0.3423
231.7081	0.3435
231.924	0.3509
232.14	0.3627
232.3559	0.3645
232.5718	0.3609
232.7877	0.3532
233.0036	0.3686
233.2195	0.357
233.4353	0.3664
233.6512	0.3802
233.867	0.3775
234.0829	0.3796
234.2987	0.3824
234.5145	0.3854
234.7303	0.3811
234.9461	0.3955
235.1619	0.3861
235.3776	0.3767
235.5934	0.3879
235.8091	0.3902
236.0249	0.3929
236.2406	0.3987
236.4563	0.3842
236.672	0.4007
236.8877	0.3952
237.1034	0.3996
237.319	0.4009
237.5347	0.4081
237.7503	0.4119
237.966	0.421
238.1816	0.4087
238.3972	0.4053
238.6128	0.415
238.8284	0.4143
239.0439	0.4067
239.2595	0.4296
239.475	0.4154
239.6906	0.4171
239.9061	0.4198
240.1216	0.4112
240.3371	0.4223
240.5526	0.4201
240.7681	0.4057
240.9836	0.4257
241.199	0.4148
241.4145	0.3966
241.6299	0.4001
241.8453	0.4008
242.0607	0.3839
242.2761	0.3974
242.4915	0.3845
242.7069	0.3783
242.9223	0.3729
243.1376	0.3763
243.353	0.362
243.5683	0.38
243.7836	0.3438
243.9989	0.3366
244.2142	0.3428
244.4295	0.339
244.6448	0.3299
244.86	0.336
245.0753	0.3084
245.2905	0.3062
245.5057	0.3111
245.721	0.2987
245.9362	0.2816
246.1514	0.2954
246.3665	0.2921
246.5817	0.2739
246.7969	0.2771
247.012	0.2802
247.2271	0.258
247.4423	0.266
247.6574	0.2567
247.8725	0.2537
248.0876	0.2568
248.3026	0.2521
248.5177	0.2472
248.7328	0.2363
248.9478	0.2447
249.1628	0.2355
249.3779	0.2305
249.5929	0.227
249.8079	0.231
250.0228	0.2326
250.2378	0.234
250.4528	0.2231
250.6677	0.2169
250.8827	0.209
251.0976	0.217
251.3125	0.2171
251.5274	0.2007
251.7423	0.2116
251.9572	0.2073
252.172	0.2117
252.3869	0.2091
252.6017	0.2046
252.8166	0.2118
253.0314	0.2066
253.2462	0.2044
253.461	0.2023
253.6758	0.1948
253.8906	0.2001
254.1053	0.1952
254.3201	0.2086
254.5348	0.1987
254.7496	0.2072
254.9643	0.2039
255.179	0.197
255.3937	0.2046
255.6083	0.2032
255.823	0.2012
256.0377	0.1946
256.2523	0.1881
256.467	0.1996
256.6816	0.1977
256.8962	0.198
257.1108	0.189
257.3254	0.1919
257.54	0.1939
257.7545	0.1984
257.9691	0.1928
258.1836	0.1963
258.3981	0.1938
258.6127	0.1914
258.8272	0.1908
259.0417	0.1901
259.2561	0.1989
259.4706	0.1871
259.6851	0.1975
259.8995	0.1967
260.114	0.1922
260.3284	0.195
260.5428	0.1907
260.7572	0.2038
260.9716	0.1962
261.186	0.1961
261.4003	0.1953
261.6147	0.2063
261.829	0.1986
262.0433	0.197
262.2577	0.1952
262.472	0.1981
262.6863	0.1886
262.9005	0.1946
263.1148	0.1986
263.3291	0.1852
263.5433	0.1901
263.7576	0.1883
263.9718	0.1833
264.186	0.1845
264.4002	0.1842
264.6144	0.1835
264.8286	0.1815
265.0427	0.1835
265.2569	0.1802
265.471	0.1792
265.6851	0.1812
265.8993	0.1741
266.1134	0.1783
266.3275	0.1848
266.5415	0.1728
266.7556	0.1846
266.9697	0.1739
267.1837	0.1785
267.3978	0.1903
267.6118	0.1883
267.8258	0.1811
268.0398	0.1987
268.2538	0.1915
268.4677	0.1913
268.6817	0.2025
268.8957	0.1959
269.1096	0.1894
269.3235	0.1833
269.5374	0.1765
269.7514	0.167
269.9652	0.1695
270.1791	0.1573
270.393	0.158
270.6068	0.1487
270.8207	0.1582
271.0345	0.158
271.2483	0.1611
271.4622	0.1486
271.676	0.1464
271.8897	0.1456
272.1035	0.1406
272.3173	0.1508
272.531	0.1458
272.7448	0.1498
272.9585	0.1411
273.1722	0.1449
273.3859	0.144
273.5996	0.1417
273.8133	0.1498
274.0269	0.1479
274.2406	0.1438
274.4542	0.1438
274.6679	0.1471
274.8815	0.1537
275.0951	0.1492
275.3087	0.143
275.5223	0.1394
275.7358	0.1518
275.9494	0.1478
276.1629	0.147
276.3765	0.1442
276.59	0.1431
276.8035	0.1458
277.017	0.1449
277.2305	0.1531
277.444	0.1485
277.6574	0.1509
277.8709	0.148
278.0843	0.1538
278.2978	0.1445
278.5112	0.1386
278.7246	0.1455
278.938	0.1491
279.1513	0.1597
279.3647	0.1501
279.5781	0.1477
279.7914	0.1563
280.0047	0.1554
280.2181	0.153
280.4314	0.1486
280.6447	0.1506
280.8579	0.1561
281.0712	0.1542
281.2845	0.158
281.4977	0.1569
281.711	0.156
281.9242	0.1581
282.1374	0.1511
282.3506	0.1519
282.5638	0.1544
282.7769	0.1568
282.9901	0.1549
283.2033	0.1641
283.4164	0.1614
283.6295	0.162
283.8426	0.1575
284.0557	0.1562
284.2688	0.1508
284.4819	0.1524
284.695	0.1586
284.908	0.1603
285.1211	0.1573
285.3341	0.1575
285.5471	0.1639
285.7601	0.1559
285.9731	0.1557
286.1861	0.1615
286.3991	0.1615
286.612	0.1571
286.825	0.1614
287.0379	0.155
287.2508	0.1549
287.4637	0.1608
287.6766	0.1539
287.8895	0.1596
288.1024	0.168
288.3152	0.1598
288.5281	0.1566
288.7409	0.1566
288.9538	0.1563
289.1666	0.156
289.3794	0.1643
289.5922	0.1618
289.8049	0.1587
290.0177	0.1719
290.2304	0.1588
290.4432	0.1579
290.6559	0.1582
290.8686	0.1564
291.0813	0.1586
291.294	0.1609
291.5067	0.1617
291.7194	0.1657
291.932	0.1597
292.1447	0.1646
292.3573	0.1578
292.5699	0.1641
292.7825	0.1577
292.9951	0.1623
293.2077	0.1591
293.4203	0.1553
293.6328	0.1639
293.8454	0.1554
294.0579	0.1559
294.2704	0.1599
294.4829	0.1648
294.6954	0.1517
294.9079	0.1549
295.1204	0.1599
295.3328	0.1649
295.5453	0.154
295.7577	0.1423
295.9701	0.1493
296.1825	0.1587
296.3949	0.1538
296.6073	0.1619
296.8197	0.1574
297.0321	0.1625
297.2444	0.1573
297.4567	0.1498
297.6691	0.1677
297.8814	0.1504
298.0937	0.1481
298.306	0.154
298.5182	0.1518
298.7305	0.1504
298.9428	0.1488
299.155	0.1525
299.3672	0.1533
299.5794	0.1582
299.7916	0.1561
300.0038	0.1528
300.216	0.1546
300.4282	0.1561
300.6403	0.1532
300.8525	0.1515
301.0646	0.1512
301.2767	0.1518
301.4888	0.154
301.7009	0.1591
301.913	0.159
302.125	0.1541
302.3371	0.156
302.5491	0.1571
302.7612	0.1579
302.9732	0.1603
303.1852	0.154
303.3972	0.1582
303.6092	0.1502
303.8211	0.1604
304.0331	0.1494
304.245	0.1555
304.457	0.1537
304.6689	0.1499
304.8808	0.1512
305.0927	0.1464
305.3046	0.1498
305.5164	0.151
305.7283	0.1543
305.9401	0.1501
306.152	0.1501
306.3638	0.1515
306.5756	0.1449
306.7874	0.1426
306.9992	0.1411
307.2109	0.1373
307.4227	0.1348
307.6344	0.1286
307.8462	0.1343
308.0579	0.1357
308.2696	0.1249
308.4813	0.1333
308.693	0.1302
308.9046	0.1264
309.1163	0.1212
309.328	0.1243
309.5396	0.1222
309.7512	0.1222
309.9628	0.1185
310.1744	0.1172
310.386	0.1096
310.5976	0.1165
310.8091	0.1164
311.0207	0.1214
311.2322	0.1107
311.4437	0.1239
311.6552	0.1155
311.8667	0.1111
312.0782	0.1078
312.2897	0.1018
312.5012	0.1162
312.7126	0.1051
312.924	0.0979
313.1355	0.105
313.3469	0.1062
313.5583	0.1066
313.7696	0.102
313.981	0.1017
314.1924	0.1014
314.4037	0.1011
314.6151	0.0876
314.8264	0.1032
315.0377	0.0978
315.249	0.1012
315.4603	0.102
315.6716	0.0998
315.8828	0.0991
316.0941	0.1033
316.3053	0.0947
316.5165	0.0902
316.7277	0.0979
316.9389	0.1003
317.1501	0.0965
317.3613	0.0939
317.5724	0.0967
317.7836	0.0991
317.9947	0.0985
318.2058	0.0942
318.417	0.0917
318.6281	0.1
318.8391	0.0974
319.0502	0.093
319.2613	0.1002
319.4723	0.0971
319.6834	0.0876
319.8944	0.1028
320.1054	0.0945
320.3164	0.1058
320.5274	0.095
320.7383	0.0921
320.9493	0.0906
321.1602	0.0977
321.3712	0.1087
321.5821	0.0995
321.793	0.0897
322.0039	0.0994
322.2148	0.0953
322.4257	0.0948
322.6365	0.0972
322.8474	0.1011
323.0582	0.1087
323.269	0.0959
323.4798	0.101
323.6906	0.1005
323.9014	0.1008
324.1122	0.1056
324.3229	0.0992
324.5337	0.0982
324.7444	0.1008
324.9551	0.1022
325.1658	0.1054
325.3765	0.103
325.5872	0.0988
325.7979	0.0997
326.0085	0.1028
326.2192	0.1036
326.4298	0.104
326.6404	0.104
326.851	0.0986
327.0616	0.1051
327.2722	0.1063
327.4828	0.1002
327.6933	0.1107
327.9039	0.101
328.1144	0.1037
328.3249	0.0991
328.5354	0.1098
328.7459	0.111
328.9564	0.1032
329.1669	0.1124
329.3773	0.1066
329.5878	0.1025
329.7982	0.1089
330.0086	0.1046
330.219	0.0991
330.4294	0.1075
330.6398	0.1097
330.8502	0.1106
331.0605	0.1115
331.2708	0.1084
331.4812	0.1125
331.6915	0.1082
331.9018	0.0944
332.1121	0.1057
332.3224	0.1001
332.5326	0.1005
332.7429	0.1103
332.9531	0.1053
333.1633	0.116
333.3735	0.1068
333.5837	0.1061
333.7939	0.1058
334.0041	0.1105
334.2143	0.1103
334.4244	0.1038
334.6346	0.1005
334.8447	0.1154
335.0548	0.1116
335.2649	0.1031
335.475	0.1013
335.685	0.1114
335.8951	0.1104
336.1051	0.1044
336.3152	0.1088
336.5252	0.1098
336.7352	0.1146
336.9452	0.1073
337.1552	0.1085
337.3652	0.1078
337.5751	0.1164
337.7851	0.1093
337.995	0.1118
338.2049	0.1069
338.4148	0.1091
338.6247	0.1118
338.8346	0.1119
339.0445	0.1164
339.2543	0.1121
339.4642	0.1156
339.674	0.1077
339.8838	0.1071
340.0936	0.1168
340.3034	0.1207
340.5132	0.1109
340.7229	0.1197
340.9327	0.1236
341.1424	0.1133
341.3522	0.1157
341.5619	0.1319
341.7716	0.1214
341.9813	0.1228
342.1909	0.1217
342.4006	0.1182
342.6102	0.1188
342.8199	0.1179
343.0295	0.1182
343.2391	0.1251
343.4487	0.1131
343.6583	0.1226
343.8679	0.1246
344.0774	0.1219
344.287	0.1317
344.4965	0.1197
344.706	0.1264
344.9155	0.124
345.125	0.1313
345.3345	0.1338
345.544	0.1204
345.7534	0.1255
345.9629	0.1242
346.1723	0.127
346.3817	0.1355
346.5911	0.1338
346.8005	0.1256
347.0099	0.12
347.2193	0.1361
347.4286	0.1346
347.638	0.1367
347.8473	0.131
348.0566	0.1374
348.2659	0.1345
348.4752	0.1419
348.6845	0.1294
348.8937	0.1397
349.103	0.1335
349.3122	0.1415
349.5214	0.1407
349.7306	0.1366
349.9398	0.1359
350.149	0.1354
350.3582	0.135
350.5674	0.1385
350.7765	0.1318
350.9856	0.1363
351.1948	0.1378
351.4039	0.1428
351.613	0.1311
351.822	0.1389
352.0311	0.1377
352.2402	0.1571
352.4492	0.143
352.6582	0.145
352.8672	0.1419
353.0762	0.1496
353.2852	0.1499
353.4942	0.1532
353.7032	0.1443
353.9121	0.1501
354.1211	0.1479
354.33	0.1458
354.5389	0.1501
354.7478	0.1469
354.9567	0.15
355.1655	0.1489
355.3744	0.1529
355.5833	0.1505
355.7921	0.1488
356.0009	0.1509
356.2097	0.1494
356.4185	0.1497
356.6273	0.1617
356.8361	0.1511
357.0448	0.1657
357.2536	0.1521
357.4623	0.1556
357.671	0.1617
357.8797	0.1573
358.0884	0.1594
358.2971	0.1596
358.5057	0.164
358.7144	0.1753
358.923	0.1658
359.1316	0.1672
359.3402	0.1715
359.5488	0.1615
359.7574	0.1742
359.966	0.1692
360.1746	0.172
360.3831	0.1706
360.5916	0.1863
360.8002	0.1781
361.0087	0.1696
361.2172	0.1732
361.4256	0.1701
361.6341	0.1815
361.8426	0.1841
362.051	0.1673
362.2594	0.1743
362.4678	0.1824
362.6762	0.1822
362.8846	0.1771
363.093	0.1791
363.3014	0.1827
363.5097	0.1792
363.718	0.1879
363.9264	0.18
364.1347	0.1951
364.343	0.1736
364.5513	0.1871
364.7595	0.189
364.9678	0.1819
365.176	0.195
365.3842	0.1788
365.5925	0.1914
365.8007	0.1869
366.0089	0.1911
366.217	0.1914
366.4252	0.1976
366.6333	0.1872
366.8415	0.1965
367.0496	0.2002
367.2577	0.202
367.4658	0.2025
367.6739	0.2006
367.882	0.203
368.09	0.2069
368.2981	0.217
368.5061	0.199
368.7141	0.1947
368.9221	0.1959
369.1301	0.2155
369.3381	0.2112
369.5461	0.2155
369.754	0.2104
369.962	0.2069
370.1699	0.2191
370.3778	0.2087
370.5857	0.2145
370.7936	0.2102
371.0015	0.2131
371.2093	0.2023
371.4172	0.2111
371.625	0.2037
371.8328	0.2218
372.0406	0.2208
372.2484	0.2095
372.4562	0.221
372.664	0.2166
372.8717	0.2205
373.0795	0.2156
373.2872	0.2227
373.4949	0.2167
373.7026	0.2233
373.9103	0.2113
374.118	0.2267
374.3256	0.2154
374.5333	0.2152
374.7409	0.2109
374.9485	0.216
375.1561	0.2206
375.3637	0.2157
375.5713	0.2241
375.7789	0.221
375.9864	0.2269
376.194	0.2233
376.4015	0.2305
376.609	0.2259
376.8165	0.2164
377.024	0.2218
377.2315	0.2323
377.4389	0.2123
377.6464	0.2213
377.8538	0.229
378.0612	0.2318
378.2686	0.2255
378.476	0.23
378.6834	0.2333
378.8908	0.2393
379.0981	0.2421
379.3055	0.2508
379.5128	0.224
379.7201	0.2308
379.9274	0.2343
380.1347	0.2305
380.342	0.2502
380.5492	0.2354
380.7565	0.2392
380.9637	0.2453
381.1709	0.242
381.3781	0.2255
381.5853	0.2397
381.7925	0.2554
381.9997	0.2484
382.2068	0.2381
382.4139	0.238
382.6211	0.2353
382.8282	0.2365
383.0353	0.2408
383.2424	0.2411
383.4494	0.2542
383.6565	0.2331
383.8635	0.2548
384.0706	0.2444
384.2776	0.2514
384.4846	0.2431
384.6916	0.2469
384.8986	0.2509
385.1055	0.2516
385.3125	0.2474
385.5194	0.2433
385.7263	0.25
385.9333	0.2411
386.1402	0.2481
386.347	0.251
386.5539	0.2456
386.7608	0.2531
386.9676	0.2421
387.1744	0.2446
387.3813	0.2455
387.5881	0.2425
387.7948	0.2475
388.0016	0.248
388.2084	0.2483
388.4151	0.2364
388.6219	0.2397
388.8286	0.2466
389.0353	0.2338
389.242	0.2467
389.4487	0.2332
389.6553	0.2396
389.862	0.2239
390.0686	0.2259
390.2753	0.2327
390.4819	0.2258
390.6885	0.2368
390.8951	0.2328
391.1016	0.2351
391.3082	0.2244
391.5147	0.2321
391.7213	0.2374
391.9278	0.2095
392.1343	0.2278
392.3408	0.2224
392.5473	0.2364
392.7537	0.2253
392.9602	0.2148
393.1666	0.2243
393.373	0.2137
393.5794	0.2205
393.7858	0.2195
393.9922	0.2151
394.1986	0.2157
394.4049	0.2313
394.6113	0.2217
394.8176	0.2056
395.0239	0.2171
395.2302	0.2133
395.4365	0.2085
395.6428	0.206
395.8491	0.1998
396.0553	0.2056
396.2615	0.2115
396.4678	0.2215
396.674	0.2075
396.8802	0.2078
397.0863	0.2193
397.2925	0.2086
397.4987	0.2007
397.7048	0.1987
397.9109	0.2111
398.117	0.2087
398.3231	0.2094
398.5292	0.1953
398.7353	0.2008
398.9413	0.2124
399.1474	0.2029
399.3534	0.1954
399.5594	0.1925
399.7654	0.2017
399.9714	0.2084
400.1774	0.2174
400.3833	0.2035
400.5893	0.2016
400.7952	0.1925
401.0011	0.1954
401.207	0.2051
401.4129	0.1889
401.6188	0.1956
401.8247	0.2059
402.0305	0.2008
402.2364	0.211
402.4422	0.2004
402.648	0.2023
402.8538	0.2008
403.0596	0.1896
403.2654	0.1892
403.4711	0.1978
403.6768	0.2023
403.8826	0.1983
404.0883	0.1982
404.294	0.2023
404.4997	0.199
404.7054	0.2039
404.911	0.2021
405.1167	0.2002
405.3223	0.1924
405.5279	0.2059
405.7335	0.2013
405.9391	0.2031
406.1447	0.1997
406.3502	0.1976
406.5558	0.2069
406.7613	0.193
406.9668	0.2109
407.1724	0.1979
407.3778	0.2107
407.5833	0.2082
407.7888	0.2149
407.9942	0.2102
408.1997	0.2021
408.4051	0.2115
408.6105	0.2022
408.8159	0.2048
409.0213	0.1963
409.2267	0.2053
409.432	0.2068
409.6374	0.1978
409.8427	0.2165
410.048	0.1859
410.2533	0.1919
410.4586	0.2058
410.6639	0.1935
410.8691	0.1962
411.0744	0.1931
411.2796	0.2011
411.4848	0.1869
411.69	0.1957
411.8952	0.1959
412.1004	0.1906
412.3056	0.2047
412.5107	0.2073
412.7158	0.1886
412.921	0.1959
413.1261	0.1814
413.3312	0.2015
413.5362	0.1905
413.7413	0.1902
413.9464	0.1866
414.1514	0.1906
414.3564	0.2029
414.5614	0.1905
414.7664	0.2031
414.9714	0.1896
415.1764	0.1955
415.3813	0.1912
415.5863	0.1916
415.7912	0.1958
415.9961	0.2005
416.201	0.1903
416.4059	0.1845
416.6108	0.1874
416.8156	0.1867
417.0205	0.1882
417.2253	0.1992
417.4301	0.1995
417.6349	0.2022
417.8397	0.1923
418.0445	0.1853
418.2492	0.1963
418.454	0.1894
418.6587	0.1898
418.8634	0.1749
419.0681	0.1815
419.2728	0.1908
419.4775	0.1876
419.6822	0.1908
419.8868	0.185
420.0915	0.1917
420.2961	0.1762
420.5007	0.1811
420.7053	0.1803
420.9099	0.1827
421.1144	0.1817
421.319	0.1773
421.5235	0.1897
421.728	0.176
421.9325	0.1755
422.137	0.1724
422.3415	0.1926
422.546	0.1711
422.7504	0.1823
422.9549	0.191
423.1593	0.1782
423.3637	0.1688
423.5681	0.1758
423.7725	0.1804
423.9769	0.1647
424.1812	0.1645
424.3856	0.1633
424.5899	0.1771
424.7942	0.1711
424.9985	0.1687
425.2028	0.1571
425.4071	0.1614
425.6113	0.1744
425.8156	0.1595
426.0198	0.1746
426.224	0.1589
