Data from MonoPyChalIsomerACN10uM450nmA_Absorbance_13-11-20-891.txt Node
Date: Tue Jul 09 13:11:20 BST 2024
User: LASERRRRR
Spectrometer: FLMT03099
Trigger mode: 0
Integration Time (sec): 2.000000E-1
Scans to average: 1
Electric dark correction enabled: true
Nonlinearity correction enabled: false
Boxcar width: 0
XAxis mode: Wavelengths
Number of Pixels in Spectrum: 3648
>>>>>Begin Spectral Data<<<<<
179.3399	0.0962
179.5586	0.0962
179.7771	0.0962
179.9957	-0.0161
180.2143	-0.2128
180.4329	0.1557
180.6514	-0.1578
180.8699	-0
181.0885	-0
181.307	-0
181.5255	-0
181.744	-0
181.9625	-0
182.181	-0
182.3994	0.1182
182.6179	-0.2987
182.8363	-0
183.0547	0.2609
183.2732	0.1193
183.4916	0.0154
183.71	0.0705
183.9284	0.0902
184.1467	0.0449
184.3651	0.0443
184.5835	0.0391
184.8018	0.0783
185.0201	0.2495
185.2385	-0.0282
185.4568	0.0145
185.6751	0.0931
185.8934	0.0348
186.1117	0.0324
186.3299	-0.0341
186.5482	-0.0144
186.7664	0.0658
186.9847	0.1389
187.2029	0.1298
187.4211	0.0167
187.6393	-0.0685
187.8575	0.1265
188.0757	0.0656
188.2939	0.0846
188.512	0.1491
188.7302	0.0025
188.9483	0.1276
189.1665	0.1866
189.3846	0.1036
189.6027	0.1765
189.8208	0.1465
190.0389	0.2546
190.257	0.2915
190.475	0.3324
190.6931	0.1868
190.9111	0.2464
191.1292	0.2604
191.3472	0.3262
191.5652	0.3835
191.7832	0.2938
192.0012	0.4486
192.2192	0.4571
192.4371	0.4515
192.6551	0.3922
192.873	0.4292
193.091	0.4458
193.3089	0.4901
193.5268	0.5531
193.7447	0.6084
193.9626	0.4677
194.1805	0.6029
194.3984	0.7629
194.6162	0.714
194.8341	0.6214
195.0519	0.7396
195.2697	0.6114
195.4875	0.5789
195.7054	0.628
195.9231	0.7432
196.1409	0.594
196.3587	0.6559
196.5765	0.6621
196.7942	0.7964
197.012	0.6408
197.2297	0.7608
197.4474	0.7195
197.6651	0.7026
197.8828	0.7831
198.1005	0.7647
198.3182	0.7554
198.5358	0.801
198.7535	0.6656
198.9711	0.8762
199.1888	0.7015
199.4064	0.7333
199.624	0.6622
199.8416	0.7567
200.0592	0.7495
200.2767	0.8493
200.4943	0.7983
200.7119	0.9043
200.9294	0.877
201.1469	0.9194
201.3645	0.8483
201.582	0.8535
201.7995	0.7312
202.017	0.9523
202.2344	0.8247
202.4519	0.8442
202.6694	0.7857
202.8868	0.8641
203.1042	1.0118
203.3217	0.9718
203.5391	0.9341
203.7565	1.0708
203.9739	0.8812
204.1913	0.8811
204.4086	1.0169
204.626	0.9271
204.8433	0.8826
205.0607	0.9842
205.278	0.9521
205.4953	1.0875
205.7126	0.9607
205.9299	0.9765
206.1472	0.9407
206.3644	0.9709
206.5817	1.1386
206.7989	1.1263
207.0162	1.092
207.2334	1.0518
207.4506	0.901
207.6678	1.011
207.885	1.0981
208.1022	1.0221
208.3194	1.0135
208.5365	1.0849
208.7537	1.0179
208.9708	1.034
209.1879	1.1638
209.405	1.0895
209.6222	0.9928
209.8392	1.1553
210.0563	1.0051
210.2734	1.1195
210.4905	1.0773
210.7075	0.9859
210.9245	1.0136
211.1416	1.0441
211.3586	1.1604
211.5756	1.1298
211.7926	1.1351
212.0096	1.0365
212.2265	1.0226
212.4435	1.1313
212.6604	1.0472
212.8774	1.04
213.0943	0.9868
213.3112	0.9793
213.5281	1.0192
213.745	0.9879
213.9619	0.9067
214.1788	0.9413
214.3956	0.9291
214.6125	0.928
214.8293	0.8766
215.0461	0.8909
215.2629	0.8954
215.4798	0.8491
215.6965	0.8653
215.9133	0.8691
216.1301	0.8166
216.3469	0.8148
216.5636	0.8009
216.7803	0.7566
216.9971	0.7609
217.2138	0.7392
217.4305	0.7129
217.6472	0.6541
217.8639	0.6484
218.0805	0.6357
218.2972	0.573
218.5138	0.5518
218.7305	0.5162
218.9471	0.4778
219.1637	0.447
219.3803	0.4478
219.5969	0.3815
219.8135	0.3826
220.0301	0.3606
220.2466	0.3537
220.4632	0.3342
220.6797	0.3315
220.8962	0.3237
221.1127	0.3001
221.3292	0.3009
221.5457	0.2786
221.7622	0.2906
221.9787	0.2778
222.1951	0.2857
222.4116	0.2728
222.628	0.2831
222.8444	0.2696
223.0608	0.2692
223.2772	0.2714
223.4936	0.2728
223.71	0.2704
223.9264	0.2848
224.1427	0.2645
224.3591	0.2835
224.5754	0.2599
224.7917	0.2739
225.008	0.2769
225.2243	0.2704
225.4406	0.2798
225.6569	0.271
225.8732	0.2855
226.0894	0.276
226.3057	0.2925
226.5219	0.2855
226.7381	0.2817
226.9543	0.2911
227.1705	0.283
227.3867	0.3102
227.6029	0.2898
227.8191	0.3091
228.0352	0.3086
228.2513	0.3082
228.4675	0.2998
228.6836	0.3101
228.8997	0.3164
229.1158	0.3158
229.3319	0.3179
229.548	0.3288
229.764	0.3234
229.9801	0.3204
230.1961	0.3358
230.4121	0.3308
230.6282	0.3541
230.8442	0.3355
231.0602	0.34
231.2761	0.3488
231.4921	0.3441
231.7081	0.3606
231.924	0.3606
232.14	0.3611
232.3559	0.3631
232.5718	0.3586
232.7877	0.3616
233.0036	0.3557
233.2195	0.368
233.4353	0.3733
233.6512	0.3713
233.867	0.3771
234.0829	0.3835
234.2987	0.3882
234.5145	0.3808
234.7303	0.3884
234.9461	0.4027
235.1619	0.3837
235.3776	0.3839
235.5934	0.3907
235.8091	0.3983
236.0249	0.3867
236.2406	0.3911
236.4563	0.3808
236.672	0.4003
236.8877	0.4083
237.1034	0.4073
237.319	0.4175
237.5347	0.4109
237.7503	0.4159
237.966	0.4249
238.1816	0.4057
238.3972	0.4213
238.6128	0.4136
238.8284	0.4151
239.0439	0.4195
239.2595	0.4153
239.475	0.4136
239.6906	0.4235
239.9061	0.4211
240.1216	0.4243
240.3371	0.4254
240.5526	0.4232
240.7681	0.4122
240.9836	0.4093
241.199	0.4149
241.4145	0.4079
241.6299	0.4077
241.8453	0.4007
242.0607	0.3896
242.2761	0.3994
242.4915	0.3885
242.7069	0.3821
242.9223	0.3681
243.1376	0.3735
243.353	0.3538
243.5683	0.3539
243.7836	0.3492
243.9989	0.3326
244.2142	0.3291
244.4295	0.3266
244.6448	0.3236
244.86	0.3231
245.0753	0.3093
245.2905	0.2908
245.5057	0.2967
245.721	0.2906
245.9362	0.2912
246.1514	0.2828
246.3665	0.2884
246.5817	0.2687
246.7969	0.2707
247.012	0.2748
247.2271	0.2603
247.4423	0.2583
247.6574	0.2654
247.8725	0.257
248.0876	0.2542
248.3026	0.2477
248.5177	0.2518
248.7328	0.2372
248.9478	0.2398
249.1628	0.238
249.3779	0.2311
249.5929	0.2266
249.8079	0.2276
250.0228	0.2277
250.2378	0.2307
250.4528	0.221
250.6677	0.2186
250.8827	0.2057
251.0976	0.2113
251.3125	0.2137
251.5274	0.2047
251.7423	0.2131
251.9572	0.206
252.172	0.2101
252.3869	0.2012
252.6017	0.2046
252.8166	0.2143
253.0314	0.2108
253.2462	0.2112
253.461	0.2058
253.6758	0.2029
253.8906	0.1989
254.1053	0.2083
254.3201	0.2098
254.5348	0.2029
254.7496	0.2104
254.9643	0.1954
255.179	0.1997
255.3937	0.1999
255.6083	0.2032
255.823	0.1903
256.0377	0.1893
256.2523	0.1879
256.467	0.1986
256.6816	0.1889
256.8962	0.194
257.1108	0.2038
257.3254	0.1938
257.54	0.199
257.7545	0.1941
257.9691	0.1981
258.1836	0.1972
258.3981	0.1982
258.6127	0.2005
258.8272	0.193
259.0417	0.1984
259.2561	0.1979
259.4706	0.1866
259.6851	0.1833
259.8995	0.1928
260.114	0.1864
260.3284	0.202
260.5428	0.1898
260.7572	0.1972
260.9716	0.199
261.186	0.1976
261.4003	0.1998
261.6147	0.196
261.829	0.2023
262.0433	0.2018
262.2577	0.2018
262.472	0.1997
262.6863	0.1889
262.9005	0.1928
263.1148	0.1879
263.3291	0.1868
263.5433	0.1932
263.7576	0.1828
263.9718	0.1915
264.186	0.1886
264.4002	0.1936
264.6144	0.1871
264.8286	0.1819
265.0427	0.1818
265.2569	0.1809
265.471	0.1758
265.6851	0.1777
265.8993	0.1732
266.1134	0.1753
266.3275	0.1844
266.5415	0.179
266.7556	0.1845
266.9697	0.1774
267.1837	0.1816
267.3978	0.1833
267.6118	0.1847
267.8258	0.1934
268.0398	0.1976
268.2538	0.1908
268.4677	0.1902
268.6817	0.1874
268.8957	0.1887
269.1096	0.1831
269.3235	0.1806
269.5374	0.1745
269.7514	0.1637
269.9652	0.1699
270.1791	0.1585
270.393	0.1566
270.6068	0.1596
270.8207	0.1525
271.0345	0.154
271.2483	0.1493
271.4622	0.1586
271.676	0.1414
271.8897	0.1441
272.1035	0.1402
272.3173	0.147
272.531	0.1414
272.7448	0.1387
272.9585	0.1462
273.1722	0.1334
273.3859	0.1384
273.5996	0.1392
273.8133	0.1484
274.0269	0.1419
274.2406	0.1384
274.4542	0.1383
274.6679	0.142
274.8815	0.1382
275.0951	0.145
275.3087	0.1349
275.5223	0.1367
275.7358	0.1407
275.9494	0.1408
276.1629	0.1454
276.3765	0.1368
276.59	0.1449
276.8035	0.1473
277.017	0.142
277.2305	0.142
277.444	0.1363
277.6574	0.1455
277.8709	0.1468
278.0843	0.1486
278.2978	0.1385
278.5112	0.1451
278.7246	0.1409
278.938	0.1499
279.1513	0.1492
279.3647	0.1459
279.5781	0.1454
279.7914	0.1483
280.0047	0.1485
280.2181	0.1584
280.4314	0.1569
280.6447	0.1424
280.8579	0.1521
281.0712	0.1515
281.2845	0.1418
281.4977	0.1492
281.711	0.1521
281.9242	0.1526
282.1374	0.1502
282.3506	0.1434
282.5638	0.1572
282.7769	0.1523
282.9901	0.1509
283.2033	0.1534
283.4164	0.1528
283.6295	0.1618
283.8426	0.1505
284.0557	0.1468
284.2688	0.1496
284.4819	0.1471
284.695	0.1545
284.908	0.1559
285.1211	0.1606
285.3341	0.1513
285.5471	0.1575
285.7601	0.1538
285.9731	0.1565
286.1861	0.1651
286.3991	0.1564
286.612	0.1557
286.825	0.1593
287.0379	0.158
287.2508	0.1583
287.4637	0.1601
287.6766	0.1522
287.8895	0.1577
288.1024	0.156
288.3152	0.1612
288.5281	0.1635
288.7409	0.1544
288.9538	0.1622
289.1666	0.1609
289.3794	0.1568
289.5922	0.1599
289.8049	0.1587
290.0177	0.1617
290.2304	0.1611
290.4432	0.1583
290.6559	0.1642
290.8686	0.1622
291.0813	0.163
291.294	0.1627
291.5067	0.1575
291.7194	0.1613
291.932	0.1591
292.1447	0.1643
292.3573	0.1576
292.5699	0.1679
292.7825	0.1638
292.9951	0.1656
293.2077	0.1598
293.4203	0.159
293.6328	0.1598
293.8454	0.1634
294.0579	0.1632
294.2704	0.1655
294.4829	0.1681
294.6954	0.1626
294.9079	0.1674
295.1204	0.1627
295.3328	0.1632
295.5453	0.1544
295.7577	0.153
295.9701	0.167
296.1825	0.159
296.3949	0.1516
296.6073	0.1651
296.8197	0.1605
297.0321	0.1675
297.2444	0.1551
297.4567	0.1557
297.6691	0.1614
297.8814	0.1609
298.0937	0.1601
298.306	0.1577
298.5182	0.1488
298.7305	0.1598
298.9428	0.1568
299.155	0.1601
299.3672	0.1552
299.5794	0.155
299.7916	0.1582
300.0038	0.1568
300.216	0.1602
300.4282	0.1518
300.6403	0.1619
300.8525	0.1597
301.0646	0.1573
301.2767	0.1607
301.4888	0.1501
301.7009	0.161
301.913	0.1669
302.125	0.1627
302.3371	0.1638
302.5491	0.1513
302.7612	0.1681
302.9732	0.166
303.1852	0.1567
303.3972	0.1533
303.6092	0.1541
303.8211	0.1652
304.0331	0.1514
304.245	0.1521
304.457	0.1545
304.6689	0.1576
304.8808	0.1513
305.0927	0.1468
305.3046	0.1537
305.5164	0.1483
305.7283	0.1531
305.9401	0.1481
306.152	0.1446
306.3638	0.1557
306.5756	0.1468
306.7874	0.143
306.9992	0.1417
307.2109	0.141
307.4227	0.1403
307.6344	0.1377
307.8462	0.1369
308.0579	0.129
308.2696	0.1319
308.4813	0.1351
308.693	0.133
308.9046	0.1247
309.1163	0.1202
309.328	0.1174
309.5396	0.1273
309.7512	0.1235
309.9628	0.1181
310.1744	0.1226
310.386	0.1082
310.5976	0.1142
310.8091	0.1157
311.0207	0.119
311.2322	0.1177
311.4437	0.1141
311.6552	0.1148
311.8667	0.1053
312.0782	0.1093
312.2897	0.1068
312.5012	0.1097
312.7126	0.1007
312.924	0.1028
313.1355	0.1053
313.3469	0.111
313.5583	0.105
313.7696	0.1034
313.981	0.0953
314.1924	0.0932
314.4037	0.1
314.6151	0.0933
314.8264	0.0983
315.0377	0.0994
315.249	0.1002
315.4603	0.0956
315.6716	0.1
315.8828	0.1037
316.0941	0.101
316.3053	0.0975
316.5165	0.0899
316.7277	0.0936
316.9389	0.0953
317.1501	0.0933
317.3613	0.0919
317.5724	0.0934
317.7836	0.0967
317.9947	0.0954
318.2058	0.0963
318.417	0.0846
318.6281	0.0987
318.8391	0.0923
319.0502	0.0923
319.2613	0.0972
319.4723	0.0961
319.6834	0.0939
319.8944	0.1042
320.1054	0.0939
320.3164	0.1026
320.5274	0.1018
320.7383	0.0913
320.9493	0.0913
321.1602	0.0916
321.3712	0.1031
321.5821	0.0963
321.793	0.0924
322.0039	0.0893
322.2148	0.0979
322.4257	0.0895
322.6365	0.0963
322.8474	0.0969
323.0582	0.1062
323.269	0.0924
323.4798	0.0964
323.6906	0.0984
323.9014	0.0978
324.1122	0.1002
324.3229	0.1051
324.5337	0.0893
324.7444	0.0949
324.9551	0.0977
325.1658	0.0976
325.3765	0.0946
325.5872	0.1008
325.7979	0.0926
326.0085	0.1069
326.2192	0.0983
326.4298	0.1005
326.6404	0.1028
326.851	0.1011
327.0616	0.0907
327.2722	0.1005
327.4828	0.0992
327.6933	0.0971
327.9039	0.1035
328.1144	0.101
328.3249	0.0973
328.5354	0.0991
328.7459	0.0955
328.9564	0.099
329.1669	0.1043
329.3773	0.1021
329.5878	0.1084
329.7982	0.1088
330.0086	0.1042
330.219	0.1023
330.4294	0.0973
330.6398	0.1088
330.8502	0.1041
331.0605	0.1024
331.2708	0.0996
331.4812	0.1003
331.6915	0.1039
331.9018	0.0943
332.1121	0.1029
332.3224	0.1011
332.5326	0.0976
332.7429	0.1033
332.9531	0.1072
333.1633	0.1127
333.3735	0.1078
333.5837	0.0998
333.7939	0.1073
334.0041	0.104
334.2143	0.0994
334.4244	0.0995
334.6346	0.0973
334.8447	0.1015
335.0548	0.1019
335.2649	0.0971
335.475	0.0944
335.685	0.1103
335.8951	0.109
336.1051	0.0973
336.3152	0.1056
336.5252	0.1033
336.7352	0.104
336.9452	0.1033
337.1552	0.1023
337.3652	0.1088
337.5751	0.1102
337.7851	0.1036
337.995	0.1138
338.2049	0.1078
338.4148	0.1099
338.6247	0.1082
338.8346	0.1073
339.0445	0.1175
339.2543	0.1137
339.4642	0.1151
339.674	0.1111
339.8838	0.1
340.0936	0.1078
340.3034	0.1175
340.5132	0.116
340.7229	0.1154
340.9327	0.1168
341.1424	0.1153
341.3522	0.1122
341.5619	0.1198
341.7716	0.1162
341.9813	0.128
342.1909	0.1249
342.4006	0.1172
342.6102	0.1184
342.8199	0.1182
343.0295	0.12
343.2391	0.119
343.4487	0.1215
343.6583	0.1222
343.8679	0.1242
344.0774	0.1229
344.287	0.1242
344.4965	0.1236
344.706	0.1287
344.9155	0.1211
345.125	0.1246
345.3345	0.122
345.544	0.1173
345.7534	0.1164
345.9629	0.122
346.1723	0.1253
346.3817	0.1268
346.5911	0.1368
346.8005	0.1285
347.0099	0.1182
347.2193	0.1303
347.4286	0.1335
347.638	0.1321
347.8473	0.1248
348.0566	0.133
348.2659	0.1208
348.4752	0.1298
348.6845	0.1306
348.8937	0.1389
349.103	0.1231
349.3122	0.1351
349.5214	0.1353
349.7306	0.1308
349.9398	0.127
350.149	0.1399
350.3582	0.1324
350.5674	0.1378
350.7765	0.1344
350.9856	0.1332
351.1948	0.1397
351.4039	0.1333
351.613	0.1276
351.822	0.1424
352.0311	0.1395
352.2402	0.1427
352.4492	0.1309
352.6582	0.1427
352.8672	0.1386
353.0762	0.1503
353.2852	0.1557
353.4942	0.1487
353.7032	0.1481
353.9121	0.1433
354.1211	0.1515
354.33	0.1415
354.5389	0.1417
354.7478	0.1424
354.9567	0.1505
355.1655	0.1507
355.3744	0.1461
355.5833	0.1473
355.7921	0.1451
356.0009	0.1548
356.2097	0.1549
356.4185	0.15
356.6273	0.1552
356.8361	0.1472
357.0448	0.1566
357.2536	0.1538
357.4623	0.161
357.671	0.1566
357.8797	0.1636
358.0884	0.1618
358.2971	0.1654
358.5057	0.1574
358.7144	0.165
358.923	0.1753
359.1316	0.1625
359.3402	0.1759
359.5488	0.1638
359.7574	0.1717
359.966	0.1758
360.1746	0.1722
360.3831	0.1869
360.5916	0.181
360.8002	0.1773
361.0087	0.1724
361.2172	0.172
361.4256	0.173
361.6341	0.1729
361.8426	0.1793
362.051	0.1792
362.2594	0.1755
362.4678	0.1818
362.6762	0.1866
362.8846	0.1761
363.093	0.1811
363.3014	0.1926
363.5097	0.1844
363.718	0.1934
363.9264	0.1852
364.1347	0.1941
364.343	0.183
364.5513	0.1966
364.7595	0.1952
364.9678	0.196
365.176	0.1918
365.3842	0.1893
365.5925	0.1887
365.8007	0.1882
366.0089	0.2028
366.217	0.1992
366.4252	0.1975
366.6333	0.195
366.8415	0.1954
367.0496	0.2014
367.2577	0.2031
367.4658	0.2066
367.6739	0.2036
367.882	0.2192
368.09	0.1966
368.2981	0.2173
368.5061	0.2031
368.7141	0.2094
368.9221	0.2126
369.1301	0.214
369.3381	0.21
369.5461	0.2139
369.754	0.206
369.962	0.2081
370.1699	0.2156
370.3778	0.2058
370.5857	0.2139
370.7936	0.206
371.0015	0.2147
371.2093	0.2102
371.4172	0.2069
371.625	0.2191
371.8328	0.2213
372.0406	0.2232
372.2484	0.2165
372.4562	0.2258
372.664	0.219
372.8717	0.2109
373.0795	0.221
373.2872	0.2251
373.4949	0.2253
373.7026	0.2221
373.9103	0.2151
374.118	0.2219
374.3256	0.2175
374.5333	0.2243
374.7409	0.2182
374.9485	0.2216
375.1561	0.224
375.3637	0.2266
375.5713	0.2332
375.7789	0.2326
375.9864	0.232
376.194	0.2311
376.4015	0.2487
376.609	0.2408
376.8165	0.2316
377.024	0.2217
377.2315	0.2474
377.4389	0.2327
377.6464	0.2269
377.8538	0.2381
378.0612	0.2372
378.2686	0.2376
378.476	0.2272
378.6834	0.2401
378.8908	0.2344
379.0981	0.2522
379.3055	0.2498
379.5128	0.2385
379.7201	0.2471
379.9274	0.2404
380.1347	0.2462
380.342	0.2485
380.5492	0.243
380.7565	0.2499
380.9637	0.2575
381.1709	0.2458
381.3781	0.2483
381.5853	0.2504
381.7925	0.2567
381.9997	0.2511
382.2068	0.2583
382.4139	0.2558
382.6211	0.2545
382.8282	0.2595
383.0353	0.2548
383.2424	0.2466
383.4494	0.2621
383.6565	0.2511
383.8635	0.2645
384.0706	0.2421
384.2776	0.2558
384.4846	0.2591
384.6916	0.2462
384.8986	0.2563
385.1055	0.2652
385.3125	0.2686
385.5194	0.2595
385.7263	0.2532
385.9333	0.2632
386.1402	0.2614
386.347	0.2689
386.5539	0.2543
386.7608	0.2553
386.9676	0.2572
387.1744	0.255
387.3813	0.252
387.5881	0.254
387.7948	0.2625
388.0016	0.2503
388.2084	0.2532
388.4151	0.2457
388.6219	0.2528
388.8286	0.2614
389.0353	0.2438
389.242	0.2546
389.4487	0.2412
389.6553	0.258
389.862	0.2317
390.0686	0.2391
390.2753	0.2511
390.4819	0.2414
390.6885	0.2494
390.8951	0.2406
391.1016	0.2553
391.3082	0.2434
391.5147	0.2489
391.7213	0.2378
391.9278	0.2337
392.1343	0.2395
392.3408	0.2375
392.5473	0.2323
392.7537	0.241
392.9602	0.2202
393.1666	0.2294
393.373	0.2367
393.5794	0.2326
393.7858	0.2243
393.9922	0.222
394.1986	0.2168
394.4049	0.2312
394.6113	0.2364
394.8176	0.2206
395.0239	0.2188
395.2302	0.2187
395.4365	0.2257
395.6428	0.218
395.8491	0.2054
396.0553	0.2131
396.2615	0.2232
396.4678	0.2328
396.674	0.2038
396.8802	0.2169
397.0863	0.2221
397.2925	0.2197
397.4987	0.2194
397.7048	0.2153
397.9109	0.2169
398.117	0.2119
398.3231	0.2208
398.5292	0.2094
398.7353	0.2196
398.9413	0.211
399.1474	0.2075
399.3534	0.2072
399.5594	0.2074
399.7654	0.2105
399.9714	0.2156
400.1774	0.2198
400.3833	0.2214
400.5893	0.2211
400.7952	0.2127
401.0011	0.2132
401.207	0.1956
401.4129	0.1988
401.6188	0.206
401.8247	0.2084
402.0305	0.2057
402.2364	0.2181
402.4422	0.21
402.648	0.2151
402.8538	0.211
403.0596	0.2045
403.2654	0.2068
403.4711	0.2023
403.6768	0.2244
403.8826	0.2124
404.0883	0.2068
404.294	0.2176
404.4997	0.212
404.7054	0.2099
404.911	0.21
405.1167	0.2099
405.3223	0.2135
405.5279	0.2159
405.7335	0.2065
405.9391	0.2175
406.1447	0.2077
406.3502	0.2037
406.5558	0.2079
406.7613	0.2072
406.9668	0.2078
407.1724	0.2068
407.3778	0.2099
407.5833	0.2128
407.7888	0.2224
407.9942	0.216
408.1997	0.2139
408.4051	0.2098
408.6105	0.2272
408.8159	0.2204
409.0213	0.2051
409.2267	0.2086
409.432	0.2119
409.6374	0.2259
409.8427	0.2218
410.048	0.1981
410.2533	0.205
410.4586	0.2053
410.6639	0.2078
410.8691	0.2107
411.0744	0.2039
411.2796	0.2049
411.4848	0.2073
411.69	0.2142
411.8952	0.2093
412.1004	0.199
412.3056	0.2126
412.5107	0.2139
412.7158	0.2065
412.921	0.2159
413.1261	0.1934
413.3312	0.2258
413.5362	0.2038
413.7413	0.1954
413.9464	0.1987
414.1514	0.2009
414.3564	0.2044
414.5614	0.204
414.7664	0.2081
414.9714	0.1954
415.1764	0.2067
415.3813	0.2105
415.5863	0.2045
415.7912	0.2058
415.9961	0.2073
416.201	0.201
416.4059	0.1992
416.6108	0.202
416.8156	0.2092
417.0205	0.2183
417.2253	0.2157
417.4301	0.2029
417.6349	0.1923
417.8397	0.187
418.0445	0.1997
418.2492	0.1963
418.454	0.1993
418.6587	0.192
418.8634	0.2074
419.0681	0.1982
419.2728	0.1961
419.4775	0.1999
419.6822	0.1945
419.8868	0.1959
420.0915	0.1944
420.2961	0.1899
420.5007	0.1942
420.7053	0.1895
420.9099	0.1822
421.1144	0.1972
421.319	0.1835
421.5235	0.194
421.728	0.1866
421.9325	0.1841
422.137	0.1735
422.3415	0.2032
422.546	0.1926
422.7504	0.1972
422.9549	0.1928
423.1593	0.1833
423.3637	0.1822
423.5681	0.1824
423.7725	0.1902
423.9769	0.1719
424.1812	0.1786
424.3856	0.1809
424.5899	0.1885
424.7942	0.1736
424.9985	0.1845
425.2028	0.1656
425.4071	0.1756
425.6113	0.1666
425.8156	0.1591
426.0198	0.183
426.224	0.1654
426.4282	0.1636
426.6324	0.1751
