Data from MonoPyChalIsomerACN10uM450nmA_Absorbance_13-11-29-491.txt Node
Date: Tue Jul 09 13:11:29 BST 2024
User: LASERRRRR
Spectrometer: FLMT03099
Trigger mode: 0
Integration Time (sec): 2.000000E-1
Scans to average: 1
Electric dark correction enabled: true
Nonlinearity correction enabled: false
Boxcar width: 0
XAxis mode: Wavelengths
Number of Pixels in Spectrum: 3648
>>>>>Begin Spectral Data<<<<<
179.3399	0.0217
179.5586	0.0217
179.7771	0.0217
179.9957	-0.5198
180.2143	-0
180.4329	0.2319
180.6514	-0.0203
180.8699	-0.4426
181.0885	0.0324
181.307	0.1885
181.5255	-0
181.744	0.6677
181.9625	0.3586
182.181	-0
182.3994	-0.028
182.6179	-0.4568
182.8363	-0
183.0547	0.3596
183.2732	0.1208
183.4916	0.0194
183.71	0.0931
183.9284	0.0208
184.1467	-0.0387
184.3651	0.075
184.5835	0.0877
184.8018	0.0651
185.0201	0.1348
185.2385	-0.0112
185.4568	0.0112
185.6751	0.1657
185.8934	0.0403
186.1117	0.0024
186.3299	0.0112
186.5482	0.1411
186.7664	0.0885
186.9847	0.1094
187.2029	0.1268
187.4211	0.0092
187.6393	-0.0551
187.8575	0.0565
188.0757	-0.0266
188.2939	0.1432
188.512	-0
188.7302	-0.0431
188.9483	0.1272
189.1665	0.0523
189.3846	0.1388
189.6027	0.1545
189.8208	0.1024
190.0389	0.2511
190.257	0.1694
190.475	0.2568
190.6931	0.0867
190.9111	0.2192
191.1292	0.2848
191.3472	0.2862
191.5652	0.2961
191.7832	0.4269
192.0012	0.3933
192.2192	0.387
192.4371	0.4563
192.6551	0.4414
192.873	0.5352
193.091	0.4826
193.3089	0.4849
193.5268	0.5342
193.7447	0.4938
193.9626	0.5197
194.1805	0.4672
194.3984	0.5601
194.6162	0.5727
194.8341	0.5895
195.0519	0.5023
195.2697	0.6543
195.4875	0.5235
195.7054	0.5623
195.9231	0.6305
196.1409	0.6125
196.3587	0.7029
196.5765	0.6475
196.7942	0.655
197.012	0.6259
197.2297	0.6758
197.4474	0.8155
197.6651	0.6266
197.8828	0.7107
198.1005	0.7245
198.3182	0.7593
198.5358	0.6689
198.7535	0.778
198.9711	0.8016
199.1888	0.7153
199.4064	0.7109
199.624	0.7214
199.8416	0.7766
200.0592	0.7674
200.2767	0.7687
200.4943	0.7745
200.7119	0.7888
200.9294	0.7719
201.1469	0.7917
201.3645	0.8313
201.582	0.9303
201.7995	0.6972
202.017	0.9121
202.2344	0.7331
202.4519	0.8366
202.6694	0.8359
202.8868	0.8733
203.1042	0.9323
203.3217	1.0784
203.5391	0.9032
203.7565	0.8999
203.9739	0.8716
204.1913	0.7901
204.4086	0.804
204.626	1.0129
204.8433	0.868
205.0607	0.9297
205.278	0.8198
205.4953	1.0665
205.7126	0.8171
205.9299	0.9498
206.1472	0.9654
206.3644	0.9133
206.5817	1.0195
206.7989	1.0225
207.0162	1.0158
207.2334	0.8719
207.4506	0.9835
207.6678	1.1567
207.885	1.0458
208.1022	1.0485
208.3194	1.0082
208.5365	0.9958
208.7537	1.0076
208.9708	0.9854
209.1879	1.0694
209.405	1.0717
209.6222	1.0405
209.8392	1.0414
210.0563	0.9911
210.2734	1.0313
210.4905	1.0462
210.7075	0.9747
210.9245	1
211.1416	1.0946
211.3586	1.0428
211.5756	1.0519
211.7926	1.0436
212.0096	1.0096
212.2265	1.0757
212.4435	1.0265
212.6604	1.047
212.8774	0.999
213.0943	1.0841
213.3112	0.9791
213.5281	1.072
213.745	0.9707
213.9619	1.0019
214.1788	0.9266
214.3956	0.9114
214.6125	0.9593
214.8293	0.85
215.0461	0.8256
215.2629	0.8999
215.4798	0.8037
215.6965	0.8457
215.9133	0.7993
216.1301	0.7816
216.3469	0.8068
216.5636	0.7678
216.7803	0.7405
216.9971	0.7429
217.2138	0.7292
217.4305	0.6594
217.6472	0.6938
217.8639	0.6425
218.0805	0.6166
218.2972	0.5664
218.5138	0.539
218.7305	0.5139
218.9471	0.4657
219.1637	0.4503
219.3803	0.4177
219.5969	0.3648
219.8135	0.3699
220.0301	0.3505
220.2466	0.3553
220.4632	0.3205
220.6797	0.3291
220.8962	0.3141
221.1127	0.3053
221.3292	0.2953
221.5457	0.282
221.7622	0.2918
221.9787	0.2769
222.1951	0.2761
222.4116	0.2613
222.628	0.2666
222.8444	0.2648
223.0608	0.2677
223.2772	0.2647
223.4936	0.264
223.71	0.2594
223.9264	0.2623
224.1427	0.2677
224.3591	0.2622
224.5754	0.2764
224.7917	0.2763
225.008	0.2765
225.2243	0.268
225.4406	0.2828
225.6569	0.2737
225.8732	0.2908
226.0894	0.2694
226.3057	0.2845
226.5219	0.2886
226.7381	0.2768
226.9543	0.2782
227.1705	0.2826
227.3867	0.2867
227.6029	0.2932
227.8191	0.2848
228.0352	0.2988
228.2513	0.3181
228.4675	0.3119
228.6836	0.3203
228.8997	0.3045
229.1158	0.3169
229.3319	0.3286
229.548	0.3237
229.764	0.3147
229.9801	0.3242
230.1961	0.3214
230.4121	0.3269
230.6282	0.3408
230.8442	0.3388
231.0602	0.3402
231.2761	0.3402
231.4921	0.3422
231.7081	0.3516
231.924	0.348
232.14	0.3545
232.3559	0.3614
232.5718	0.3581
232.7877	0.3615
233.0036	0.3743
233.2195	0.3723
233.4353	0.3728
233.6512	0.379
233.867	0.3729
234.0829	0.387
234.2987	0.3764
234.5145	0.3684
234.7303	0.3854
234.9461	0.3972
235.1619	0.3835
235.3776	0.378
235.5934	0.393
235.8091	0.3797
236.0249	0.3823
236.2406	0.3844
236.4563	0.3814
236.672	0.3945
236.8877	0.3953
237.1034	0.394
237.319	0.4043
237.5347	0.4003
237.7503	0.4124
237.966	0.4141
238.1816	0.4057
238.3972	0.4153
238.6128	0.4012
238.8284	0.4012
239.0439	0.4066
239.2595	0.428
239.475	0.4222
239.6906	0.4322
239.9061	0.4136
240.1216	0.4206
240.3371	0.4191
240.5526	0.429
240.7681	0.4097
240.9836	0.4174
241.199	0.4051
241.4145	0.3974
241.6299	0.4033
241.8453	0.4044
242.0607	0.391
242.2761	0.3912
242.4915	0.3845
242.7069	0.3827
242.9223	0.371
243.1376	0.3738
243.353	0.3676
243.5683	0.3626
243.7836	0.3503
243.9989	0.339
244.2142	0.3346
244.4295	0.3359
244.6448	0.3371
244.86	0.3293
245.0753	0.3053
245.2905	0.3025
245.5057	0.3002
245.721	0.3134
245.9362	0.2977
246.1514	0.2889
246.3665	0.2917
246.5817	0.2763
246.7969	0.2823
247.012	0.2757
247.2271	0.2601
247.4423	0.2784
247.6574	0.255
247.8725	0.2584
248.0876	0.2536
248.3026	0.2552
248.5177	0.2547
248.7328	0.2403
248.9478	0.2416
249.1628	0.2431
249.3779	0.2343
249.5929	0.2256
249.8079	0.2397
250.0228	0.2232
250.2378	0.23
250.4528	0.2262
250.6677	0.2186
250.8827	0.2169
251.0976	0.2155
251.3125	0.2141
251.5274	0.2014
251.7423	0.2166
251.9572	0.2101
252.172	0.2082
252.3869	0.2053
252.6017	0.2106
252.8166	0.2008
253.0314	0.2079
253.2462	0.2088
253.461	0.1994
253.6758	0.1982
253.8906	0.2058
254.1053	0.2077
254.3201	0.21
254.5348	0.2035
254.7496	0.1995
254.9643	0.1911
255.179	0.1979
255.3937	0.2004
255.6083	0.1949
255.823	0.1896
256.0377	0.192
256.2523	0.1912
256.467	0.1942
256.6816	0.1835
256.8962	0.1988
257.1108	0.1975
257.3254	0.1888
257.54	0.2
257.7545	0.2031
257.9691	0.1906
258.1836	0.1964
258.3981	0.1934
258.6127	0.1944
258.8272	0.1946
259.0417	0.1929
259.2561	0.2004
259.4706	0.1929
259.6851	0.1921
259.8995	0.195
260.114	0.1854
260.3284	0.1976
260.5428	0.197
260.7572	0.1984
260.9716	0.1974
261.186	0.1989
261.4003	0.2054
261.6147	0.1958
261.829	0.2072
262.0433	0.1937
262.2577	0.2013
262.472	0.2003
262.6863	0.1928
262.9005	0.1943
263.1148	0.1857
263.3291	0.1941
263.5433	0.1854
263.7576	0.1855
263.9718	0.1852
264.186	0.1919
264.4002	0.1862
264.6144	0.1857
264.8286	0.1875
265.0427	0.1825
265.2569	0.1785
265.471	0.1855
265.6851	0.174
265.8993	0.1756
266.1134	0.1713
266.3275	0.1841
266.5415	0.1737
266.7556	0.1829
266.9697	0.1831
267.1837	0.181
267.3978	0.1942
267.6118	0.1889
267.8258	0.188
268.0398	0.198
268.2538	0.1925
268.4677	0.1886
268.6817	0.1942
268.8957	0.1948
269.1096	0.1867
269.3235	0.1905
269.5374	0.1878
269.7514	0.1716
269.9652	0.1752
270.1791	0.1632
270.393	0.1618
270.6068	0.1546
270.8207	0.1501
271.0345	0.1594
271.2483	0.1521
271.4622	0.1555
271.676	0.153
271.8897	0.1475
272.1035	0.1464
272.3173	0.1513
272.531	0.1524
272.7448	0.1439
272.9585	0.1488
273.1722	0.1449
273.3859	0.1522
273.5996	0.1384
273.8133	0.1415
274.0269	0.1511
274.2406	0.1483
274.4542	0.1526
274.6679	0.1441
274.8815	0.1479
275.0951	0.1499
275.3087	0.1419
275.5223	0.1408
275.7358	0.1451
275.9494	0.1553
276.1629	0.1451
276.3765	0.144
276.59	0.158
276.8035	0.1453
277.017	0.1465
277.2305	0.1514
277.444	0.1477
277.6574	0.1504
277.8709	0.1582
278.0843	0.1537
278.2978	0.1437
278.5112	0.1508
278.7246	0.1433
278.938	0.1474
279.1513	0.1556
279.3647	0.155
279.5781	0.1497
279.7914	0.1524
280.0047	0.1495
280.2181	0.1572
280.4314	0.1543
280.6447	0.1505
280.8579	0.1549
281.0712	0.1609
281.2845	0.1501
281.4977	0.1585
281.711	0.1563
281.9242	0.1535
282.1374	0.1537
282.3506	0.152
282.5638	0.1505
282.7769	0.1644
282.9901	0.152
283.2033	0.1677
283.4164	0.1638
283.6295	0.1649
283.8426	0.1543
284.0557	0.1519
284.2688	0.1574
284.4819	0.1563
284.695	0.1563
284.908	0.1565
285.1211	0.1629
285.3341	0.16
285.5471	0.1553
285.7601	0.1556
285.9731	0.1554
286.1861	0.1671
286.3991	0.1603
286.612	0.1617
286.825	0.1599
287.0379	0.1583
287.2508	0.1556
287.4637	0.1638
287.6766	0.1476
287.8895	0.1581
288.1024	0.1575
288.3152	0.1633
288.5281	0.1582
288.7409	0.1529
288.9538	0.156
289.1666	0.1561
289.3794	0.1574
289.5922	0.1614
289.8049	0.1598
290.0177	0.1512
290.2304	0.1579
290.4432	0.1549
290.6559	0.1537
290.8686	0.1546
291.0813	0.1551
291.294	0.1606
291.5067	0.1538
291.7194	0.1579
291.932	0.1599
292.1447	0.1554
292.3573	0.1564
292.5699	0.1574
292.7825	0.1601
292.9951	0.1548
293.2077	0.1533
293.4203	0.1568
293.6328	0.1596
293.8454	0.1507
294.0579	0.1541
294.2704	0.1615
294.4829	0.161
294.6954	0.1467
294.9079	0.1584
295.1204	0.1564
295.3328	0.1568
295.5453	0.1579
295.7577	0.1517
295.9701	0.1572
296.1825	0.155
296.3949	0.148
296.6073	0.1569
296.8197	0.1494
297.0321	0.1578
297.2444	0.1534
297.4567	0.1482
297.6691	0.1549
297.8814	0.1505
298.0937	0.1511
298.306	0.1551
298.5182	0.1474
298.7305	0.1557
298.9428	0.1492
299.155	0.1521
299.3672	0.16
299.5794	0.1559
299.7916	0.1509
300.0038	0.1532
300.216	0.1596
300.4282	0.1512
300.6403	0.1492
300.8525	0.1525
301.0646	0.1487
301.2767	0.1561
301.4888	0.1497
301.7009	0.1553
301.913	0.1607
302.125	0.1482
302.3371	0.1583
302.5491	0.1521
302.7612	0.1598
302.9732	0.1613
303.1852	0.1508
303.3972	0.1585
303.6092	0.1401
303.8211	0.1575
304.0331	0.1476
304.245	0.1507
304.457	0.1509
304.6689	0.1453
304.8808	0.152
305.0927	0.1498
305.3046	0.1432
305.5164	0.1422
305.7283	0.1385
305.9401	0.1473
306.152	0.1413
306.3638	0.1552
306.5756	0.1359
306.7874	0.1376
306.9992	0.1388
307.2109	0.1304
307.4227	0.1364
307.6344	0.1332
307.8462	0.1306
308.0579	0.1326
308.2696	0.1246
308.4813	0.1278
308.693	0.1249
308.9046	0.1202
309.1163	0.1193
309.328	0.1155
309.5396	0.1221
309.7512	0.1171
309.9628	0.1149
310.1744	0.1268
310.386	0.1069
310.5976	0.1183
310.8091	0.1148
311.0207	0.1214
311.2322	0.1014
311.4437	0.1164
311.6552	0.1176
311.8667	0.1099
312.0782	0.1143
312.2897	0.1018
312.5012	0.1148
312.7126	0.1038
312.924	0.1013
313.1355	0.1056
313.3469	0.1089
313.5583	0.107
313.7696	0.1022
313.981	0.1089
314.1924	0.0967
314.4037	0.0998
314.6151	0.0963
314.8264	0.1056
315.0377	0.1054
315.249	0.1026
315.4603	0.1024
315.6716	0.1051
315.8828	0.1027
316.0941	0.0947
316.3053	0.0975
316.5165	0.1011
316.7277	0.0959
316.9389	0.0978
317.1501	0.0977
317.3613	0.0937
317.5724	0.0958
317.7836	0.0964
317.9947	0.1081
318.2058	0.103
318.417	0.0918
318.6281	0.0999
318.8391	0.0941
319.0502	0.0949
319.2613	0.1009
319.4723	0.0974
319.6834	0.0981
319.8944	0.1034
320.1054	0.0993
320.3164	0.1046
320.5274	0.1045
320.7383	0.0983
320.9493	0.0953
321.1602	0.1014
321.3712	0.1055
321.5821	0.1034
321.793	0.0986
322.0039	0.0975
322.2148	0.1028
322.4257	0.1013
322.6365	0.1005
322.8474	0.1
323.0582	0.1182
323.269	0.102
323.4798	0.1037
323.6906	0.1074
323.9014	0.0981
324.1122	0.1029
324.3229	0.1001
324.5337	0.091
324.7444	0.1014
324.9551	0.1023
325.1658	0.1011
325.3765	0.103
325.5872	0.0998
325.7979	0.1025
326.0085	0.1094
326.2192	0.1036
326.4298	0.1094
326.6404	0.1052
326.851	0.1041
327.0616	0.1044
327.2722	0.1061
327.4828	0.1005
327.6933	0.1065
327.9039	0.1035
328.1144	0.101
328.3249	0.1026
328.5354	0.1001
328.7459	0.1033
328.9564	0.1094
329.1669	0.1006
329.3773	0.1071
329.5878	0.1051
329.7982	0.1057
330.0086	0.111
330.219	0.1083
330.4294	0.1054
330.6398	0.1171
330.8502	0.1106
331.0605	0.1069
331.2708	0.1039
331.4812	0.1103
331.6915	0.1037
331.9018	0.1013
332.1121	0.1132
332.3224	0.1089
332.5326	0.1061
332.7429	0.1079
332.9531	0.1093
333.1633	0.1154
333.3735	0.11
333.5837	0.107
333.7939	0.106
334.0041	0.1082
334.2143	0.1114
334.4244	0.1036
334.6346	0.1062
334.8447	0.1147
335.0548	0.1056
335.2649	0.1018
335.475	0.1056
335.685	0.1131
335.8951	0.1076
336.1051	0.1055
336.3152	0.1003
336.5252	0.1031
336.7352	0.1103
336.9452	0.1107
337.1552	0.1113
337.3652	0.1119
337.5751	0.1131
337.7851	0.1067
337.995	0.1106
338.2049	0.1156
338.4148	0.1164
338.6247	0.1144
338.8346	0.1128
339.0445	0.1171
339.2543	0.1125
339.4642	0.1177
339.674	0.1112
339.8838	0.1109
340.0936	0.1138
340.3034	0.1175
340.5132	0.1139
340.7229	0.1237
340.9327	0.117
341.1424	0.1236
341.3522	0.121
341.5619	0.128
341.7716	0.1354
341.9813	0.1206
342.1909	0.1324
342.4006	0.121
342.6102	0.1223
342.8199	0.12
343.0295	0.1214
343.2391	0.1243
343.4487	0.1237
343.6583	0.1248
343.8679	0.1199
344.0774	0.1326
344.287	0.1326
344.4965	0.1206
344.706	0.1345
344.9155	0.1249
345.125	0.1343
345.3345	0.1293
345.544	0.1164
345.7534	0.1275
345.9629	0.1215
346.1723	0.1293
346.3817	0.1329
346.5911	0.136
346.8005	0.1269
347.0099	0.1218
347.2193	0.1345
347.4286	0.1325
347.638	0.1334
347.8473	0.1295
348.0566	0.1397
348.2659	0.1358
348.4752	0.142
348.6845	0.1295
348.8937	0.1408
349.103	0.1339
349.3122	0.1356
349.5214	0.1499
349.7306	0.1335
349.9398	0.1317
350.149	0.139
350.3582	0.1348
350.5674	0.1409
350.7765	0.134
350.9856	0.134
351.1948	0.1457
351.4039	0.1446
351.613	0.1354
351.822	0.1403
352.0311	0.1332
352.2402	0.1493
352.4492	0.1352
352.6582	0.1357
352.8672	0.1365
353.0762	0.153
353.2852	0.15
353.4942	0.1487
353.7032	0.1415
353.9121	0.1511
354.1211	0.1485
354.33	0.1452
354.5389	0.1458
354.7478	0.1427
354.9567	0.1431
355.1655	0.1536
355.3744	0.1536
355.5833	0.1478
355.7921	0.1511
356.0009	0.1498
356.2097	0.153
356.4185	0.1556
356.6273	0.1589
356.8361	0.1469
357.0448	0.1545
357.2536	0.1437
357.4623	0.1499
357.671	0.1622
357.8797	0.1664
358.0884	0.163
358.2971	0.1512
358.5057	0.1658
358.7144	0.1647
358.923	0.1668
359.1316	0.1649
359.3402	0.1708
359.5488	0.1601
359.7574	0.1705
359.966	0.1736
360.1746	0.1628
360.3831	0.1827
360.5916	0.1777
360.8002	0.1748
361.0087	0.1642
361.2172	0.1717
361.4256	0.1659
361.6341	0.1685
361.8426	0.182
362.051	0.1761
362.2594	0.1787
362.4678	0.178
362.6762	0.1816
362.8846	0.1842
363.093	0.1825
363.3014	0.1887
363.5097	0.1752
363.718	0.1882
363.9264	0.1794
364.1347	0.2014
364.343	0.1807
364.5513	0.188
364.7595	0.1829
364.9678	0.1848
365.176	0.1846
365.3842	0.194
365.5925	0.192
365.8007	0.1821
366.0089	0.1926
366.217	0.1938
366.4252	0.1949
366.6333	0.1845
366.8415	0.1889
367.0496	0.1923
367.2577	0.1943
367.4658	0.2006
367.6739	0.1902
367.882	0.2009
368.09	0.1864
368.2981	0.2055
368.5061	0.1966
368.7141	0.1962
368.9221	0.1958
369.1301	0.2038
369.3381	0.2074
369.5461	0.2182
369.754	0.202
369.962	0.198
370.1699	0.196
370.3778	0.207
370.5857	0.2017
370.7936	0.2086
371.0015	0.2073
371.2093	0.1985
371.4172	0.2033
371.625	0.2064
371.8328	0.2214
372.0406	0.2161
372.2484	0.2136
372.4562	0.2181
372.664	0.215
372.8717	0.2096
373.0795	0.2079
373.2872	0.2126
373.4949	0.2129
373.7026	0.2227
373.9103	0.2095
374.118	0.2096
374.3256	0.2127
374.5333	0.2
374.7409	0.2155
374.9485	0.2127
375.1561	0.2165
375.3637	0.2121
375.5713	0.2225
375.7789	0.212
375.9864	0.2124
376.194	0.2144
376.4015	0.2291
376.609	0.2142
376.8165	0.2204
377.024	0.2173
377.2315	0.2273
377.4389	0.2168
377.6464	0.2231
377.8538	0.2132
378.0612	0.2158
378.2686	0.223
378.476	0.2186
378.6834	0.225
378.8908	0.2271
379.0981	0.2347
379.3055	0.2279
379.5128	0.2182
379.7201	0.2114
379.9274	0.2414
380.1347	0.2329
380.342	0.2324
380.5492	0.2383
380.7565	0.2413
380.9637	0.2322
381.1709	0.2242
381.3781	0.2275
381.5853	0.2268
381.7925	0.2283
381.9997	0.2321
382.2068	0.2418
382.4139	0.2427
382.6211	0.2333
382.8282	0.2316
383.0353	0.232
383.2424	0.2338
383.4494	0.2546
383.6565	0.2328
383.8635	0.2512
384.0706	0.235
384.2776	0.2383
384.4846	0.2425
384.6916	0.2371
384.8986	0.2393
385.1055	0.2481
385.3125	0.2499
385.5194	0.2436
385.7263	0.2378
385.9333	0.2453
386.1402	0.2368
386.347	0.2372
386.5539	0.2395
386.7608	0.2407
386.9676	0.241
387.1744	0.2315
387.3813	0.2224
387.5881	0.231
387.7948	0.2297
388.0016	0.2346
388.2084	0.2412
388.4151	0.2325
388.6219	0.232
388.8286	0.239
389.0353	0.2272
389.242	0.2277
389.4487	0.2253
389.6553	0.2313
389.862	0.2259
390.0686	0.2333
390.2753	0.2366
390.4819	0.226
390.6885	0.2251
390.8951	0.2265
391.1016	0.2302
391.3082	0.2311
391.5147	0.2272
391.7213	0.2137
391.9278	0.2177
392.1343	0.2161
392.3408	0.21
392.5473	0.2252
392.7537	0.2181
392.9602	0.2069
393.1666	0.2173
393.373	0.2115
393.5794	0.2078
393.7858	0.2117
393.9922	0.2059
394.1986	0.2055
394.4049	0.2216
394.6113	0.2131
394.8176	0.1994
395.0239	0.2094
395.2302	0.2003
395.4365	0.199
395.6428	0.2052
395.8491	0.1997
396.0553	0.1949
396.2615	0.2036
396.4678	0.1959
396.674	0.1953
396.8802	0.1987
397.0863	0.1998
397.2925	0.1981
397.4987	0.1948
397.7048	0.1944
397.9109	0.2098
398.117	0.1981
398.3231	0.1999
398.5292	0.188
398.7353	0.201
398.9413	0.2064
399.1474	0.2004
399.3534	0.1932
399.5594	0.1911
399.7654	0.1895
399.9714	0.1924
400.1774	0.1977
400.3833	0.2079
400.5893	0.2032
400.7952	0.1812
401.0011	0.1969
401.207	0.1893
401.4129	0.1714
401.6188	0.1876
401.8247	0.1873
402.0305	0.1986
402.2364	0.199
402.4422	0.1836
402.648	0.2033
402.8538	0.2
403.0596	0.1941
403.2654	0.1898
403.4711	0.1944
403.6768	0.1997
403.8826	0.2038
404.0883	0.2044
404.294	0.1927
404.4997	0.1951
404.7054	0.1833
404.911	0.1915
405.1167	0.1988
405.3223	0.1949
405.5279	0.1931
405.7335	0.1948
405.9391	0.1963
406.1447	0.1933
406.3502	0.194
406.5558	0.1845
406.7613	0.188
406.9668	0.1954
407.1724	0.1958
407.3778	0.1932
407.5833	0.1885
407.7888	0.2052
407.9942	0.1919
408.1997	0.1983
408.4051	0.1867
408.6105	0.1997
408.8159	0.2031
409.0213	0.1909
409.2267	0.1915
409.432	0.1901
409.6374	0.1975
409.8427	0.1969
410.048	0.202
410.2533	0.1911
410.4586	0.1942
410.6639	0.1751
410.8691	0.1961
411.0744	0.1851
411.2796	0.191
411.4848	0.1755
411.69	0.1937
411.8952	0.1863
412.1004	0.1868
412.3056	0.1904
412.5107	0.2008
412.7158	0.1777
412.921	0.1823
413.1261	0.1758
413.3312	0.1961
413.5362	0.1927
413.7413	0.1832
413.9464	0.1858
414.1514	0.1894
414.3564	0.185
414.5614	0.1911
414.7664	0.1998
414.9714	0.1713
415.1764	0.1813
415.3813	0.1927
415.5863	0.1792
415.7912	0.185
415.9961	0.1851
416.201	0.1855
416.4059	0.184
416.6108	0.188
416.8156	0.1874
417.0205	0.192
417.2253	0.1823
417.4301	0.191
417.6349	0.1786
417.8397	0.1777
418.0445	0.184
418.2492	0.1785
418.454	0.1713
418.6587	0.1823
418.8634	0.1878
419.0681	0.1861
419.2728	0.1768
419.4775	0.1811
419.6822	0.1878
419.8868	0.1721
420.0915	0.1764
420.2961	0.1705
420.5007	0.1794
420.7053	0.1661
420.9099	0.1589
421.1144	0.1859
421.319	0.1741
421.5235	0.1921
421.728	0.1654
421.9325	0.1547
422.137	0.1622
422.3415	0.1731
422.546	0.1611
422.7504	0.1688
422.9549	0.1728
423.1593	0.1683
423.3637	0.1662
423.5681	0.1721
423.7725	0.1622
423.9769	0.1595
424.1812	0.1597
424.3856	0.1591
424.5899	0.1651
424.7942	0.1606
424.9985	0.1506
425.2028	0.1598
425.4071	0.1583
425.6113	0.1625
425.8156	0.1542
426.0198	0.1676
426.224	0.145
426.4282	0.1467
426.6324	0.1542
