Data from MonoPyChalIsomerACN10uM450nmA_Absorbance_13-11-23-292.txt Node
Date: Tue Jul 09 13:11:23 BST 2024
User: LASERRRRR
Spectrometer: FLMT03099
Trigger mode: 0
Integration Time (sec): 2.000000E-1
Scans to average: 1
Electric dark correction enabled: true
Nonlinearity correction enabled: false
Boxcar width: 0
XAxis mode: Wavelengths
Number of Pixels in Spectrum: 3648
>>>>>Begin Spectral Data<<<<<
179.3399	-0.3106
179.5586	-0.3106
179.7771	-0.3106
179.9957	-0.0709
180.2143	-0
180.4329	0.7077
180.6514	-0
180.8699	-0
181.0885	-0
181.307	-0
181.5255	-0
181.744	-0.7574
181.9625	0.0208
182.181	-0
182.3994	-0.1237
182.6179	-0.4562
182.8363	-0
183.0547	0.2604
183.2732	0.105
183.4916	0.076
183.71	0.165
183.9284	-0.0725
184.1467	0.0875
184.3651	0.0129
184.5835	0.1358
184.8018	0.0089
185.0201	0.1036
185.2385	0.0117
185.4568	-0.0803
185.6751	0.0929
185.8934	-0.0106
186.1117	-0.0738
186.3299	-0.0214
186.5482	0.0341
186.7664	0.1458
186.9847	0.0912
187.2029	0.1592
187.4211	0.2071
187.6393	-0.0931
187.8575	0.101
188.0757	0.0917
188.2939	0.0391
188.512	-0.0618
188.7302	0.0315
188.9483	0.0542
189.1665	0.1239
189.3846	0.2074
189.6027	0.0934
189.8208	0.1337
190.0389	0.1686
190.257	0.2137
190.475	0.2692
190.6931	0.0655
190.9111	0.187
191.1292	0.2275
191.3472	0.282
191.5652	0.326
191.7832	0.3132
192.0012	0.3685
192.2192	0.4414
192.4371	0.3316
192.6551	0.4815
192.873	0.3863
193.091	0.478
193.3089	0.4551
193.5268	0.6663
193.7447	0.4757
193.9626	0.4791
194.1805	0.5491
194.3984	0.6223
194.6162	0.5779
194.8341	0.5669
195.0519	0.5433
195.2697	0.5393
195.4875	0.568
195.7054	0.5662
195.9231	0.7212
196.1409	0.653
196.3587	0.5827
196.5765	0.724
196.7942	0.8367
197.012	0.5883
197.2297	0.6459
197.4474	0.6894
197.6651	0.6431
197.8828	0.699
198.1005	0.7429
198.3182	0.7861
198.5358	0.7093
198.7535	0.6705
198.9711	0.9275
199.1888	0.7847
199.4064	0.7789
199.624	0.7984
199.8416	0.7185
200.0592	0.8336
200.2767	0.7565
200.4943	0.8702
200.7119	0.799
200.9294	0.8498
201.1469	0.8624
201.3645	0.7925
201.582	0.9405
201.7995	0.6861
202.017	0.9056
202.2344	0.8079
202.4519	0.9247
202.6694	0.771
202.8868	0.967
203.1042	0.9454
203.3217	0.9097
203.5391	0.886
203.7565	0.9626
203.9739	0.9064
204.1913	0.8236
204.4086	0.9931
204.626	0.9753
204.8433	0.8635
205.0607	0.9183
205.278	0.8899
205.4953	1.026
205.7126	0.8993
205.9299	1.057
206.1472	0.9656
206.3644	0.9892
206.5817	1.0218
206.7989	1.0873
207.0162	1.0465
207.2334	0.9142
207.4506	0.9174
207.6678	1.0611
207.885	1.0325
208.1022	0.988
208.3194	1.0963
208.5365	1.0138
208.7537	1.0028
208.9708	1.0525
209.1879	1.0317
209.405	0.9889
209.6222	1.0208
209.8392	1.0021
210.0563	0.9853
210.2734	1.1666
210.4905	1.0701
210.7075	0.9957
210.9245	0.9456
211.1416	1.1819
211.3586	0.9848
211.5756	1.0381
211.7926	1.0972
212.0096	0.9969
212.2265	0.9981
212.4435	1.0476
212.6604	1.0831
212.8774	1.0231
213.0943	0.9955
213.3112	0.9792
213.5281	1.0294
213.745	0.9557
213.9619	0.955
214.1788	0.9541
214.3956	0.9333
214.6125	0.9444
214.8293	0.8459
215.0461	0.8825
215.2629	0.8862
215.4798	0.7994
215.6965	0.7936
215.9133	0.8484
216.1301	0.8484
216.3469	0.7752
216.5636	0.7922
216.7803	0.7523
216.9971	0.7554
217.2138	0.7253
217.4305	0.7129
217.6472	0.6581
217.8639	0.6413
218.0805	0.6013
218.2972	0.5474
218.5138	0.556
218.7305	0.5055
218.9471	0.4572
219.1637	0.4561
219.3803	0.4295
219.5969	0.3982
219.8135	0.3797
220.0301	0.3498
220.2466	0.3696
220.4632	0.3473
220.6797	0.3241
220.8962	0.3072
221.1127	0.3006
221.3292	0.3244
221.5457	0.2818
221.7622	0.287
221.9787	0.2757
222.1951	0.2855
222.4116	0.2725
222.628	0.2636
222.8444	0.259
223.0608	0.2687
223.2772	0.2662
223.4936	0.2603
223.71	0.2762
223.9264	0.2758
224.1427	0.2724
224.3591	0.2645
224.5754	0.2628
224.7917	0.276
225.008	0.2874
225.2243	0.2685
225.4406	0.2876
225.6569	0.2719
225.8732	0.2946
226.0894	0.2705
226.3057	0.2862
226.5219	0.3002
226.7381	0.2845
226.9543	0.2886
227.1705	0.2917
227.3867	0.2922
227.6029	0.287
227.8191	0.3019
228.0352	0.2914
228.2513	0.3151
228.4675	0.3036
228.6836	0.3233
228.8997	0.3104
229.1158	0.3173
229.3319	0.316
229.548	0.3192
229.764	0.3288
229.9801	0.3209
230.1961	0.3275
230.4121	0.3282
230.6282	0.3414
230.8442	0.3414
231.0602	0.3358
231.2761	0.3476
231.4921	0.3477
231.7081	0.3588
231.924	0.3602
232.14	0.3624
232.3559	0.3657
232.5718	0.3597
232.7877	0.3523
233.0036	0.3566
233.2195	0.3632
233.4353	0.3711
233.6512	0.3747
233.867	0.3686
234.0829	0.3743
234.2987	0.3844
234.5145	0.3811
234.7303	0.3863
234.9461	0.3931
235.1619	0.3888
235.3776	0.3814
235.5934	0.3898
235.8091	0.3944
236.0249	0.3822
236.2406	0.3882
236.4563	0.3779
236.672	0.406
236.8877	0.4015
237.1034	0.3976
237.319	0.4118
237.5347	0.4014
237.7503	0.4042
237.966	0.4162
238.1816	0.4049
238.3972	0.4077
238.6128	0.4081
238.8284	0.4081
239.0439	0.4068
239.2595	0.414
239.475	0.4179
239.6906	0.4276
239.9061	0.4124
240.1216	0.4186
240.3371	0.4311
240.5526	0.4299
240.7681	0.4058
240.9836	0.4176
241.199	0.4087
241.4145	0.4039
241.6299	0.3933
241.8453	0.4005
242.0607	0.3822
242.2761	0.3917
242.4915	0.3809
242.7069	0.3893
242.9223	0.3748
243.1376	0.3739
243.353	0.354
243.5683	0.3568
243.7836	0.3479
243.9989	0.3425
244.2142	0.3323
244.4295	0.3346
244.6448	0.3306
244.86	0.3346
245.0753	0.3093
245.2905	0.3035
245.5057	0.305
245.721	0.2963
245.9362	0.2826
246.1514	0.2833
246.3665	0.2886
246.5817	0.2738
246.7969	0.2719
247.012	0.2676
247.2271	0.2642
247.4423	0.2714
247.6574	0.2572
247.8725	0.2465
248.0876	0.2589
248.3026	0.2552
248.5177	0.2485
248.7328	0.2418
248.9478	0.2364
249.1628	0.2345
249.3779	0.2322
249.5929	0.2209
249.8079	0.229
250.0228	0.2269
250.2378	0.2297
250.4528	0.2193
250.6677	0.2209
250.8827	0.2072
251.0976	0.2146
251.3125	0.2112
251.5274	0.2017
251.7423	0.2109
251.9572	0.2076
252.172	0.2015
252.3869	0.2021
252.6017	0.2068
252.8166	0.2115
253.0314	0.2017
253.2462	0.2113
253.461	0.205
253.6758	0.2075
253.8906	0.1984
254.1053	0.2071
254.3201	0.1997
254.5348	0.1991
254.7496	0.2058
254.9643	0.1989
255.179	0.2018
255.3937	0.1989
255.6083	0.1973
255.823	0.1878
256.0377	0.1903
256.2523	0.1904
256.467	0.195
256.6816	0.198
256.8962	0.2014
257.1108	0.1906
257.3254	0.1924
257.54	0.1972
257.7545	0.1942
257.9691	0.2029
258.1836	0.1906
258.3981	0.1877
258.6127	0.1996
258.8272	0.1942
259.0417	0.1989
259.2561	0.1966
259.4706	0.1879
259.6851	0.1938
259.8995	0.1888
260.114	0.1944
260.3284	0.2019
260.5428	0.1852
260.7572	0.2038
260.9716	0.1925
261.186	0.1952
261.4003	0.1996
261.6147	0.1968
261.829	0.2086
262.0433	0.2033
262.2577	0.1986
262.472	0.1971
262.6863	0.1894
262.9005	0.1966
263.1148	0.1946
263.3291	0.1837
263.5433	0.1873
263.7576	0.1855
263.9718	0.1895
264.186	0.187
264.4002	0.1873
264.6144	0.1837
264.8286	0.1881
265.0427	0.1781
265.2569	0.171
265.471	0.1826
265.6851	0.1796
265.8993	0.1757
266.1134	0.1672
266.3275	0.1754
266.5415	0.1717
266.7556	0.1859
266.9697	0.182
267.1837	0.167
267.3978	0.1887
267.6118	0.1932
267.8258	0.1825
268.0398	0.1896
268.2538	0.1954
268.4677	0.1932
268.6817	0.1881
268.8957	0.1869
269.1096	0.1857
269.3235	0.1741
269.5374	0.185
269.7514	0.1638
269.9652	0.1677
270.1791	0.1518
270.393	0.1542
270.6068	0.153
270.8207	0.153
271.0345	0.1596
271.2483	0.154
271.4622	0.1523
271.676	0.1382
271.8897	0.1395
272.1035	0.146
272.3173	0.1447
272.531	0.1454
272.7448	0.1341
272.9585	0.1439
273.1722	0.139
273.3859	0.1385
273.5996	0.1408
273.8133	0.1438
274.0269	0.1434
274.2406	0.1389
274.4542	0.144
274.6679	0.1413
274.8815	0.1417
275.0951	0.1483
275.3087	0.1419
275.5223	0.14
275.7358	0.136
275.9494	0.1456
276.1629	0.1413
276.3765	0.1428
276.59	0.1457
276.8035	0.1416
277.017	0.1421
277.2305	0.1471
277.444	0.1449
277.6574	0.1468
277.8709	0.147
278.0843	0.1537
278.2978	0.1427
278.5112	0.1409
278.7246	0.146
278.938	0.1419
279.1513	0.1518
279.3647	0.1425
279.5781	0.1432
279.7914	0.1497
280.0047	0.1446
280.2181	0.1513
280.4314	0.1501
280.6447	0.1489
280.8579	0.1549
281.0712	0.1558
281.2845	0.1472
281.4977	0.1508
281.711	0.1458
281.9242	0.15
282.1374	0.1471
282.3506	0.1506
282.5638	0.1555
282.7769	0.1599
282.9901	0.1491
283.2033	0.1534
283.4164	0.1525
283.6295	0.1582
283.8426	0.16
284.0557	0.1495
284.2688	0.1578
284.4819	0.1456
284.695	0.1546
284.908	0.1536
285.1211	0.158
285.3341	0.1533
285.5471	0.1512
285.7601	0.151
285.9731	0.1533
286.1861	0.1599
286.3991	0.1597
286.612	0.1621
286.825	0.1651
287.0379	0.1592
287.2508	0.1578
287.4637	0.1635
287.6766	0.1478
287.8895	0.1599
288.1024	0.1551
288.3152	0.1557
288.5281	0.154
288.7409	0.155
288.9538	0.1605
289.1666	0.1578
289.3794	0.1545
289.5922	0.1621
289.8049	0.1502
290.0177	0.1644
290.2304	0.1614
290.4432	0.1595
290.6559	0.1605
290.8686	0.1592
291.0813	0.1559
291.294	0.1595
291.5067	0.1554
291.7194	0.1584
291.932	0.1571
292.1447	0.155
292.3573	0.1633
292.5699	0.159
292.7825	0.1571
292.9951	0.1594
293.2077	0.1525
293.4203	0.1569
293.6328	0.1596
293.8454	0.1585
294.0579	0.1566
294.2704	0.1652
294.4829	0.1624
294.6954	0.1547
294.9079	0.1646
295.1204	0.1616
295.3328	0.1569
295.5453	0.1548
295.7577	0.1583
295.9701	0.1612
296.1825	0.1593
296.3949	0.1539
296.6073	0.1637
296.8197	0.1656
297.0321	0.1652
297.2444	0.1519
297.4567	0.1497
297.6691	0.1542
297.8814	0.1544
298.0937	0.1578
298.306	0.1633
298.5182	0.1495
298.7305	0.1625
298.9428	0.1562
299.155	0.1542
299.3672	0.1636
299.5794	0.1591
299.7916	0.1466
300.0038	0.1576
300.216	0.1629
300.4282	0.1568
300.6403	0.1554
300.8525	0.1529
301.0646	0.1585
301.2767	0.1589
301.4888	0.1507
301.7009	0.154
301.913	0.1659
302.125	0.1574
302.3371	0.1631
302.5491	0.1532
302.7612	0.1559
302.9732	0.1659
303.1852	0.1565
303.3972	0.1511
303.6092	0.1514
303.8211	0.1554
304.0331	0.1561
304.245	0.1564
304.457	0.1559
304.6689	0.1482
304.8808	0.1543
305.0927	0.1519
305.3046	0.1442
305.5164	0.1555
305.7283	0.151
305.9401	0.1453
306.152	0.1437
306.3638	0.1541
306.5756	0.1383
306.7874	0.1476
306.9992	0.1386
307.2109	0.1371
307.4227	0.1388
307.6344	0.1297
307.8462	0.1328
308.0579	0.134
308.2696	0.1247
308.4813	0.1328
308.693	0.1264
308.9046	0.1208
309.1163	0.1222
309.328	0.1212
309.5396	0.1207
309.7512	0.1225
309.9628	0.1193
310.1744	0.1231
310.386	0.1112
310.5976	0.1129
310.8091	0.1101
311.0207	0.1134
311.2322	0.1095
311.4437	0.1138
311.6552	0.1139
311.8667	0.1121
312.0782	0.1127
312.2897	0.1001
312.5012	0.1092
312.7126	0.1017
312.924	0.0972
313.1355	0.097
313.3469	0.1021
313.5583	0.1057
313.7696	0.1107
313.981	0.1026
314.1924	0.1
314.4037	0.0933
314.6151	0.0954
314.8264	0.1039
315.0377	0.0957
315.249	0.0955
315.4603	0.1003
315.6716	0.098
315.8828	0.099
316.0941	0.0991
316.3053	0.0935
316.5165	0.0919
316.7277	0.0884
316.9389	0.0877
317.1501	0.0911
317.3613	0.0938
317.5724	0.0927
317.7836	0.0945
317.9947	0.1004
318.2058	0.0987
318.417	0.0876
318.6281	0.1001
318.8391	0.0954
319.0502	0.0902
319.2613	0.1017
319.4723	0.0944
319.6834	0.0973
319.8944	0.1
320.1054	0.0948
320.3164	0.1009
320.5274	0.1003
320.7383	0.0972
320.9493	0.0934
321.1602	0.0905
321.3712	0.1041
321.5821	0.0944
321.793	0.0866
322.0039	0.0929
322.2148	0.0945
322.4257	0.0971
322.6365	0.0978
322.8474	0.0991
323.0582	0.1086
323.269	0.101
323.4798	0.0992
323.6906	0.0943
323.9014	0.1012
324.1122	0.1011
324.3229	0.0944
324.5337	0.0953
324.7444	0.0966
324.9551	0.0974
325.1658	0.1065
325.3765	0.0921
325.5872	0.0918
325.7979	0.0987
326.0085	0.1077
326.2192	0.1002
326.4298	0.1128
326.6404	0.0981
326.851	0.0901
327.0616	0.0996
327.2722	0.1016
327.4828	0.0978
327.6933	0.0986
327.9039	0.107
328.1144	0.1006
328.3249	0.0998
328.5354	0.0965
328.7459	0.1011
328.9564	0.1009
329.1669	0.0971
329.3773	0.1003
329.5878	0.1054
329.7982	0.1054
330.0086	0.1082
330.219	0.1073
330.4294	0.1028
330.6398	0.1092
330.8502	0.1073
331.0605	0.1043
331.2708	0.1042
331.4812	0.1066
331.6915	0.1008
331.9018	0.0978
332.1121	0.1126
332.3224	0.1014
332.5326	0.0936
332.7429	0.1079
332.9531	0.1073
333.1633	0.1106
333.3735	0.1119
333.5837	0.0996
333.7939	0.1045
334.0041	0.1045
334.2143	0.1029
334.4244	0.1024
334.6346	0.1008
334.8447	0.1077
335.0548	0.1047
335.2649	0.0909
335.475	0.1061
335.685	0.1108
335.8951	0.1045
336.1051	0.0993
336.3152	0.1055
336.5252	0.1091
336.7352	0.1066
336.9452	0.1044
337.1552	0.1035
337.3652	0.1105
337.5751	0.1076
337.7851	0.104
337.995	0.1096
338.2049	0.1029
338.4148	0.1119
338.6247	0.1163
338.8346	0.1055
339.0445	0.1103
339.2543	0.114
339.4642	0.1157
339.674	0.1055
339.8838	0.1063
340.0936	0.1145
340.3034	0.1239
340.5132	0.1145
340.7229	0.1246
340.9327	0.1143
341.1424	0.1238
341.3522	0.1168
341.5619	0.1246
341.7716	0.1236
341.9813	0.1169
342.1909	0.1136
342.4006	0.1164
342.6102	0.1128
342.8199	0.1139
343.0295	0.116
343.2391	0.1231
343.4487	0.1236
343.6583	0.1198
343.8679	0.1209
344.0774	0.1249
344.287	0.1251
344.4965	0.1214
344.706	0.1251
344.9155	0.125
345.125	0.1268
345.3345	0.135
345.544	0.1148
345.7534	0.127
345.9629	0.1255
346.1723	0.1321
346.3817	0.1307
346.5911	0.1356
346.8005	0.1325
347.0099	0.1158
347.2193	0.1262
347.4286	0.1322
347.638	0.1369
347.8473	0.131
348.0566	0.14
348.2659	0.1262
348.4752	0.1395
348.6845	0.1305
348.8937	0.1298
349.103	0.1306
349.3122	0.1432
349.5214	0.1397
349.7306	0.1322
349.9398	0.1327
350.149	0.1268
350.3582	0.1329
350.5674	0.1387
350.7765	0.1341
350.9856	0.1371
351.1948	0.1362
351.4039	0.1427
351.613	0.1293
351.822	0.1426
352.0311	0.1412
352.2402	0.1341
352.4492	0.1416
352.6582	0.1484
352.8672	0.1424
353.0762	0.1466
353.2852	0.1514
353.4942	0.1468
353.7032	0.1437
353.9121	0.147
354.1211	0.1431
354.33	0.1413
354.5389	0.1428
354.7478	0.1443
354.9567	0.1446
355.1655	0.1544
355.3744	0.1517
355.5833	0.1473
355.7921	0.1529
356.0009	0.1493
356.2097	0.1592
356.4185	0.1509
356.6273	0.1552
356.8361	0.1373
357.0448	0.156
357.2536	0.1562
357.4623	0.1505
357.671	0.1628
357.8797	0.1687
358.0884	0.1665
358.2971	0.16
358.5057	0.1626
358.7144	0.1575
358.923	0.1692
359.1316	0.1611
359.3402	0.1721
359.5488	0.1664
359.7574	0.172
359.966	0.1756
360.1746	0.1693
360.3831	0.1788
360.5916	0.1821
360.8002	0.1852
361.0087	0.1768
361.2172	0.1804
361.4256	0.1711
361.6341	0.1855
361.8426	0.1905
362.051	0.1777
362.2594	0.1823
362.4678	0.1841
362.6762	0.1879
362.8846	0.1708
363.093	0.1829
363.3014	0.1878
363.5097	0.1707
363.718	0.1886
363.9264	0.1853
364.1347	0.1996
364.343	0.1796
364.5513	0.1779
364.7595	0.1916
364.9678	0.1979
365.176	0.1899
365.3842	0.1884
365.5925	0.1848
365.8007	0.1985
366.0089	0.2052
366.217	0.1996
366.4252	0.2029
366.6333	0.1901
366.8415	0.1867
367.0496	0.1949
367.2577	0.1992
367.4658	0.1976
367.6739	0.2014
367.882	0.1952
368.09	0.2006
368.2981	0.2174
368.5061	0.1973
368.7141	0.2062
368.9221	0.1956
369.1301	0.211
369.3381	0.2095
369.5461	0.2101
369.754	0.2066
369.962	0.2091
370.1699	0.204
370.3778	0.2193
370.5857	0.2102
370.7936	0.2023
371.0015	0.2052
371.2093	0.2097
371.4172	0.221
371.625	0.211
371.8328	0.2302
372.0406	0.2113
372.2484	0.2164
372.4562	0.2186
372.664	0.2209
372.8717	0.2244
373.0795	0.2217
373.2872	0.2256
373.4949	0.2159
373.7026	0.2268
373.9103	0.2084
374.118	0.2279
374.3256	0.2276
374.5333	0.2164
374.7409	0.2199
374.9485	0.2215
375.1561	0.2242
375.3637	0.2149
375.5713	0.2256
375.7789	0.2141
375.9864	0.2267
376.194	0.2264
376.4015	0.2325
376.609	0.2352
376.8165	0.2358
377.024	0.2281
377.2315	0.237
377.4389	0.2252
377.6464	0.2294
377.8538	0.2304
378.0612	0.2259
378.2686	0.2345
378.476	0.237
378.6834	0.2365
378.8908	0.2359
379.0981	0.2383
379.3055	0.2395
379.5128	0.2249
379.7201	0.2369
379.9274	0.2406
380.1347	0.2331
380.342	0.2455
380.5492	0.241
380.7565	0.2414
380.9637	0.2451
381.1709	0.234
381.3781	0.2299
381.5853	0.2519
381.7925	0.2407
381.9997	0.2491
382.2068	0.2485
382.4139	0.2426
382.6211	0.2436
382.8282	0.2476
383.0353	0.2346
383.2424	0.2465
383.4494	0.2515
383.6565	0.2401
383.8635	0.246
384.0706	0.2513
384.2776	0.2426
384.4846	0.2492
384.6916	0.2409
384.8986	0.2546
385.1055	0.2632
385.3125	0.2588
385.5194	0.2468
385.7263	0.2669
385.9333	0.2518
386.1402	0.2498
386.347	0.2634
386.5539	0.2593
386.7608	0.2459
386.9676	0.2547
387.1744	0.2434
387.3813	0.2419
387.5881	0.2491
387.7948	0.2416
388.0016	0.2459
388.2084	0.2569
388.4151	0.2387
388.6219	0.2526
388.8286	0.2441
389.0353	0.2377
389.242	0.2438
389.4487	0.2308
389.6553	0.2412
389.862	0.2356
390.0686	0.2341
390.2753	0.2384
390.4819	0.2398
390.6885	0.241
390.8951	0.2441
391.1016	0.2401
391.3082	0.2281
391.5147	0.2439
391.7213	0.2223
391.9278	0.2262
392.1343	0.231
392.3408	0.2185
392.5473	0.2285
392.7537	0.2272
392.9602	0.2193
393.1666	0.2249
393.373	0.2248
393.5794	0.2338
393.7858	0.2236
393.9922	0.2115
394.1986	0.2156
394.4049	0.2352
394.6113	0.2254
394.8176	0.2117
395.0239	0.2169
395.2302	0.2125
395.4365	0.2186
395.6428	0.2086
395.8491	0.204
396.0553	0.2162
396.2615	0.2183
396.4678	0.2204
396.674	0.2094
396.8802	0.2118
397.0863	0.2165
397.2925	0.1967
397.4987	0.2112
397.7048	0.1978
397.9109	0.2023
398.117	0.2075
398.3231	0.2072
398.5292	0.1957
398.7353	0.2102
398.9413	0.2048
399.1474	0.2086
399.3534	0.2098
399.5594	0.1995
399.7654	0.2034
399.9714	0.2112
400.1774	0.2052
400.3833	0.2112
400.5893	0.2038
400.7952	0.1943
401.0011	0.197
401.207	0.2101
401.4129	0.1888
401.6188	0.1999
401.8247	0.2173
402.0305	0.2047
402.2364	0.2115
402.4422	0.2011
402.648	0.2093
402.8538	0.1962
403.0596	0.2042
403.2654	0.2037
403.4711	0.1991
403.6768	0.2066
403.8826	0.2044
404.0883	0.2056
404.294	0.2011
404.4997	0.203
404.7054	0.2087
404.911	0.2071
405.1167	0.212
405.3223	0.2122
405.5279	0.2016
405.7335	0.2017
405.9391	0.214
406.1447	0.2016
406.3502	0.2059
406.5558	0.202
406.7613	0.1975
406.9668	0.2076
407.1724	0.2089
407.3778	0.1996
407.5833	0.1991
407.7888	0.2185
407.9942	0.206
408.1997	0.2118
408.4051	0.2054
408.6105	0.2179
408.8159	0.2197
409.0213	0.1927
409.2267	0.2075
409.432	0.2012
409.6374	0.2114
409.8427	0.2135
410.048	0.2083
410.2533	0.1924
410.4586	0.2164
410.6639	0.1974
410.8691	0.217
411.0744	0.2084
411.2796	0.2003
411.4848	0.1859
411.69	0.2014
411.8952	0.2022
412.1004	0.1974
412.3056	0.2137
412.5107	0.2126
412.7158	0.2067
412.921	0.2106
413.1261	0.1901
413.3312	0.2097
413.5362	0.2002
413.7413	0.1997
413.9464	0.2001
414.1514	0.1893
414.3564	0.2015
414.5614	0.2179
414.7664	0.204
414.9714	0.1951
415.1764	0.1923
415.3813	0.2045
415.5863	0.1937
415.7912	0.2132
415.9961	0.1907
416.201	0.1991
416.4059	0.1935
416.6108	0.1953
416.8156	0.1874
417.0205	0.2064
417.2253	0.1863
417.4301	0.1925
417.6349	0.1943
417.8397	0.1924
418.0445	0.2022
418.2492	0.1947
418.454	0.1887
418.6587	0.1893
418.8634	0.1842
419.0681	0.1922
419.2728	0.1997
419.4775	0.1838
419.6822	0.1932
419.8868	0.1697
420.0915	0.1911
420.2961	0.1858
420.5007	0.1908
420.7053	0.1788
420.9099	0.1814
421.1144	0.2009
421.319	0.1784
421.5235	0.1933
421.728	0.177
421.9325	0.1859
422.137	0.1786
422.3415	0.1809
422.546	0.1822
422.7504	0.1738
422.9549	0.1857
423.1593	0.1847
423.3637	0.1673
423.5681	0.1871
423.7725	0.1798
423.9769	0.168
424.1812	0.1783
424.3856	0.1762
424.5899	0.1839
424.7942	0.16
424.9985	0.1777
425.2028	0.1642
425.4071	0.1646
425.6113	0.1742
425.8156	0.1696
426.0198	0.1736
426.224	0.1585
426.4282	0.1663
