Data from MonoPyChalIsomerACN10uM450nmA_Absorbance_13-11-24-491.txt Node
Date: Tue Jul 09 13:11:24 BST 2024
User: LASERRRRR
Spectrometer: FLMT03099
Trigger mode: 0
Integration Time (sec): 2.000000E-1
Scans to average: 1
Electric dark correction enabled: true
Nonlinearity correction enabled: false
Boxcar width: 0
XAxis mode: Wavelengths
Number of Pixels in Spectrum: 3648
>>>>>Begin Spectral Data<<<<<
179.3399	0.0534
179.5586	0.0534
179.7771	0.0534
179.9957	1.8212
180.2143	-0.1826
180.4329	0.6339
180.6514	-0.0889
180.8699	-0
181.0885	-0
181.307	-0
181.5255	-0
181.744	-0.0778
181.9625	-0
182.181	-0
182.3994	0.322
182.6179	-0.2735
182.8363	-0.4708
183.0547	0.3441
183.2732	0.1701
183.4916	0.0277
183.71	0.0373
183.9284	-0.0184
184.1467	0.0339
184.3651	0.0364
184.5835	0.2198
184.8018	-0.0027
185.0201	0.1267
185.2385	0.0576
185.4568	-0.1509
185.6751	0.1354
185.8934	0.0365
186.1117	0.0417
186.3299	-0.0924
186.5482	0.0305
186.7664	0.0269
186.9847	0.0904
187.2029	0.0939
187.4211	0.0502
187.6393	0.0155
187.8575	0.0937
188.0757	-0.04
188.2939	0.1147
188.512	-0.0406
188.7302	-0.0494
188.9483	0.0304
189.1665	0.1939
189.3846	0.1297
189.6027	0.1221
189.8208	0.2856
190.0389	0.2626
190.257	0.1311
190.475	0.3101
190.6931	0.1755
190.9111	0.3605
191.1292	0.3081
191.3472	0.2747
191.5652	0.259
191.7832	0.3214
192.0012	0.3188
192.2192	0.3836
192.4371	0.4583
192.6551	0.4064
192.873	0.4728
193.091	0.5199
193.3089	0.5374
193.5268	0.5713
193.7447	0.5172
193.9626	0.5548
194.1805	0.4834
194.3984	0.5619
194.6162	0.4838
194.8341	0.5936
195.0519	0.6167
195.2697	0.6723
195.4875	0.5507
195.7054	0.5561
195.9231	0.605
196.1409	0.6407
196.3587	0.6069
196.5765	0.7554
196.7942	0.8659
197.012	0.6768
197.2297	0.7235
197.4474	0.8492
197.6651	0.7146
197.8828	0.7704
198.1005	0.7064
198.3182	0.7808
198.5358	0.7168
198.7535	0.7885
198.9711	0.8172
199.1888	0.7657
199.4064	0.7761
199.624	0.716
199.8416	0.7761
200.0592	0.7632
200.2767	0.794
200.4943	0.8577
200.7119	0.9326
200.9294	0.9048
201.1469	0.8925
201.3645	0.7528
201.582	0.9321
201.7995	0.824
202.017	1.0116
202.2344	0.8127
202.4519	1.012
202.6694	0.8354
202.8868	0.8541
203.1042	0.9513
203.3217	0.95
203.5391	1.0216
203.7565	0.9051
203.9739	0.9261
204.1913	0.8122
204.4086	0.981
204.626	1.0193
204.8433	0.9536
205.0607	0.883
205.278	0.8637
205.4953	1.0916
205.7126	0.8863
205.9299	0.9796
206.1472	0.9469
206.3644	1.0665
206.5817	0.9903
206.7989	1.0466
207.0162	1.2387
207.2334	0.9309
207.4506	0.9725
207.6678	1.0404
207.885	1.0928
208.1022	1.1232
208.3194	1.07
208.5365	1.0551
208.7537	1.0581
208.9708	1.0875
209.1879	1.094
209.405	1.0808
209.6222	0.9759
209.8392	1.118
210.0563	1.0201
210.2734	1.1034
210.4905	1.0837
210.7075	1.0451
210.9245	0.9968
211.1416	1.1536
211.3586	1.1096
211.5756	1.0453
211.7926	1.0764
212.0096	1.015
212.2265	1.0309
212.4435	1.0358
212.6604	1.0451
212.8774	1.0268
213.0943	1.0407
213.3112	0.9386
213.5281	1.0303
213.745	0.944
213.9619	0.9763
214.1788	0.943
214.3956	0.9592
214.6125	0.9612
214.8293	0.8878
215.0461	0.8546
215.2629	0.9024
215.4798	0.888
215.6965	0.8439
215.9133	0.8314
216.1301	0.7828
216.3469	0.7871
216.5636	0.8067
216.7803	0.7754
216.9971	0.7558
217.2138	0.7177
217.4305	0.7138
217.6472	0.6684
217.8639	0.6415
218.0805	0.6207
218.2972	0.5882
218.5138	0.5382
218.7305	0.5158
218.9471	0.4783
219.1637	0.4557
219.3803	0.4336
219.5969	0.4078
219.8135	0.3699
220.0301	0.3657
220.2466	0.3366
220.4632	0.3316
220.6797	0.3206
220.8962	0.3024
221.1127	0.3095
221.3292	0.3018
221.5457	0.2923
221.7622	0.2803
221.9787	0.2804
222.1951	0.2865
222.4116	0.278
222.628	0.2701
222.8444	0.2634
223.0608	0.2626
223.2772	0.2723
223.4936	0.2654
223.71	0.2703
223.9264	0.2726
224.1427	0.2634
224.3591	0.2649
224.5754	0.2593
224.7917	0.266
225.008	0.2763
225.2243	0.2755
225.4406	0.2888
225.6569	0.28
225.8732	0.2943
226.0894	0.2619
226.3057	0.2907
226.5219	0.2838
226.7381	0.2951
226.9543	0.2848
227.1705	0.2804
227.3867	0.2941
227.6029	0.2919
227.8191	0.3062
228.0352	0.3082
228.2513	0.3107
228.4675	0.305
228.6836	0.3153
228.8997	0.3135
229.1158	0.3096
229.3319	0.314
229.548	0.3278
229.764	0.3272
229.9801	0.3226
230.1961	0.3345
230.4121	0.3318
230.6282	0.339
230.8442	0.3352
231.0602	0.3502
231.2761	0.3332
231.4921	0.3499
231.7081	0.3563
231.924	0.3649
232.14	0.365
232.3559	0.3555
232.5718	0.3558
232.7877	0.3537
233.0036	0.3719
233.2195	0.3634
233.4353	0.3645
233.6512	0.3774
233.867	0.3746
234.0829	0.3827
234.2987	0.3867
234.5145	0.3747
234.7303	0.3886
234.9461	0.3992
235.1619	0.3923
235.3776	0.3954
235.5934	0.3931
235.8091	0.396
236.0249	0.3911
236.2406	0.3863
236.4563	0.3779
236.672	0.4016
236.8877	0.403
237.1034	0.4029
237.319	0.414
237.5347	0.4025
237.7503	0.4072
237.966	0.4076
238.1816	0.4063
238.3972	0.4034
238.6128	0.4033
238.8284	0.4076
239.0439	0.4049
239.2595	0.4318
239.475	0.4251
239.6906	0.4233
239.9061	0.4173
240.1216	0.4086
240.3371	0.4312
240.5526	0.4299
240.7681	0.4104
240.9836	0.4144
241.199	0.4133
241.4145	0.3995
241.6299	0.4098
241.8453	0.4088
242.0607	0.3822
242.2761	0.3995
242.4915	0.3912
242.7069	0.3866
242.9223	0.383
243.1376	0.3728
243.353	0.3669
243.5683	0.3628
243.7836	0.343
243.9989	0.3432
244.2142	0.3348
244.4295	0.3285
244.6448	0.3327
244.86	0.3222
245.0753	0.3036
245.2905	0.3122
245.5057	0.3055
245.721	0.3021
245.9362	0.2869
246.1514	0.2897
246.3665	0.2885
246.5817	0.2813
246.7969	0.2722
247.012	0.278
247.2271	0.2641
247.4423	0.2682
247.6574	0.2601
247.8725	0.2651
248.0876	0.2577
248.3026	0.2543
248.5177	0.2517
248.7328	0.2315
248.9478	0.2443
249.1628	0.2363
249.3779	0.2328
249.5929	0.2216
249.8079	0.2323
250.0228	0.2294
250.2378	0.2331
250.4528	0.2188
250.6677	0.226
250.8827	0.2172
251.0976	0.2215
251.3125	0.2188
251.5274	0.2052
251.7423	0.2127
251.9572	0.21
252.172	0.2073
252.3869	0.2076
252.6017	0.2134
252.8166	0.2048
253.0314	0.2048
253.2462	0.207
253.461	0.2084
253.6758	0.1955
253.8906	0.2028
254.1053	0.2026
254.3201	0.2094
254.5348	0.2055
254.7496	0.2056
254.9643	0.1971
255.179	0.1993
255.3937	0.2022
255.6083	0.2052
255.823	0.194
256.0377	0.1929
256.2523	0.1932
256.467	0.2017
256.6816	0.1964
256.8962	0.1987
257.1108	0.2
257.3254	0.1988
257.54	0.1856
257.7545	0.2003
257.9691	0.1967
258.1836	0.1974
258.3981	0.1983
258.6127	0.2019
258.8272	0.1875
259.0417	0.1955
259.2561	0.196
259.4706	0.1944
259.6851	0.2001
259.8995	0.1944
260.114	0.1921
260.3284	0.1993
260.5428	0.1923
260.7572	0.2042
260.9716	0.1974
261.186	0.2019
261.4003	0.2045
261.6147	0.1999
261.829	0.2064
262.0433	0.1962
262.2577	0.1957
262.472	0.1934
262.6863	0.1925
262.9005	0.2014
263.1148	0.1928
263.3291	0.1904
263.5433	0.1932
263.7576	0.1876
263.9718	0.1865
264.186	0.1924
264.4002	0.1852
264.6144	0.1924
264.8286	0.1837
265.0427	0.1824
265.2569	0.1864
265.471	0.1819
265.6851	0.1757
265.8993	0.1767
266.1134	0.1709
266.3275	0.18
266.5415	0.1759
266.7556	0.1864
266.9697	0.182
267.1837	0.1821
267.3978	0.1867
267.6118	0.1832
267.8258	0.1903
268.0398	0.1968
268.2538	0.1948
268.4677	0.1939
268.6817	0.1901
268.8957	0.1972
269.1096	0.1868
269.3235	0.181
269.5374	0.1812
269.7514	0.1668
269.9652	0.1721
270.1791	0.1586
270.393	0.1593
270.6068	0.151
270.8207	0.1594
271.0345	0.1642
271.2483	0.1497
271.4622	0.1557
271.676	0.1465
271.8897	0.1413
272.1035	0.1362
272.3173	0.1455
272.531	0.1457
272.7448	0.1456
272.9585	0.1476
273.1722	0.1444
273.3859	0.1425
273.5996	0.1391
273.8133	0.1531
274.0269	0.1484
274.2406	0.1412
274.4542	0.1433
274.6679	0.1402
274.8815	0.147
275.0951	0.1436
275.3087	0.1356
275.5223	0.1393
275.7358	0.1386
275.9494	0.1513
276.1629	0.1486
276.3765	0.1466
276.59	0.1378
276.8035	0.1485
277.017	0.1449
277.2305	0.1509
277.444	0.1466
277.6574	0.1443
277.8709	0.1574
278.0843	0.1573
278.2978	0.1497
278.5112	0.1474
278.7246	0.1415
278.938	0.1463
279.1513	0.1456
279.3647	0.1535
279.5781	0.1428
279.7914	0.1537
280.0047	0.1484
280.2181	0.1534
280.4314	0.15
280.6447	0.1468
280.8579	0.1517
281.0712	0.1553
281.2845	0.1495
281.4977	0.1542
281.711	0.1545
281.9242	0.1531
282.1374	0.1504
282.3506	0.1471
282.5638	0.1523
282.7769	0.155
282.9901	0.1451
283.2033	0.1624
283.4164	0.1582
283.6295	0.1647
283.8426	0.1563
284.0557	0.1506
284.2688	0.1651
284.4819	0.1525
284.695	0.1591
284.908	0.1619
285.1211	0.1681
285.3341	0.1592
285.5471	0.1605
285.7601	0.1541
285.9731	0.1554
286.1861	0.1612
286.3991	0.1581
286.612	0.1617
286.825	0.1653
287.0379	0.1569
287.2508	0.1586
287.4637	0.1635
287.6766	0.1485
287.8895	0.1606
288.1024	0.164
288.3152	0.1571
288.5281	0.1573
288.7409	0.1562
288.9538	0.1585
289.1666	0.1616
289.3794	0.1522
289.5922	0.163
289.8049	0.1548
290.0177	0.1635
290.2304	0.1558
290.4432	0.1656
290.6559	0.1553
290.8686	0.1549
291.0813	0.164
291.294	0.1607
291.5067	0.1606
291.7194	0.1639
291.932	0.1612
292.1447	0.1596
292.3573	0.1604
292.5699	0.1644
292.7825	0.1673
292.9951	0.1657
293.2077	0.1569
293.4203	0.1522
293.6328	0.164
293.8454	0.1549
294.0579	0.1585
294.2704	0.1654
294.4829	0.1592
294.6954	0.1602
294.9079	0.1588
295.1204	0.1591
295.3328	0.1564
295.5453	0.1575
295.7577	0.1566
295.9701	0.1548
296.1825	0.1629
296.3949	0.1581
296.6073	0.1616
296.8197	0.1564
297.0321	0.1598
297.2444	0.1537
297.4567	0.1456
297.6691	0.1545
297.8814	0.1572
298.0937	0.1572
298.306	0.1624
298.5182	0.1479
298.7305	0.1615
298.9428	0.1573
299.155	0.1599
299.3672	0.1587
299.5794	0.1517
299.7916	0.1564
300.0038	0.1582
300.216	0.162
300.4282	0.1492
300.6403	0.1579
300.8525	0.1608
301.0646	0.1552
301.2767	0.1549
301.4888	0.1551
301.7009	0.1611
301.913	0.1626
302.125	0.158
302.3371	0.1605
302.5491	0.1563
302.7612	0.1544
302.9732	0.1657
303.1852	0.1518
303.3972	0.1576
303.6092	0.1551
303.8211	0.1572
304.0331	0.1547
304.245	0.1562
304.457	0.1537
304.6689	0.1522
304.8808	0.1522
305.0927	0.1449
305.3046	0.1508
305.5164	0.1513
305.7283	0.1455
305.9401	0.1503
306.152	0.1522
306.3638	0.1549
306.5756	0.1428
306.7874	0.1389
306.9992	0.1395
307.2109	0.1356
307.4227	0.1349
307.6344	0.1337
307.8462	0.1411
308.0579	0.1292
308.2696	0.1338
308.4813	0.1334
308.693	0.1277
308.9046	0.1215
309.1163	0.1238
309.328	0.125
309.5396	0.1205
309.7512	0.1215
309.9628	0.1203
310.1744	0.1233
310.386	0.1146
310.5976	0.1144
310.8091	0.1126
311.0207	0.1198
311.2322	0.1169
311.4437	0.1206
311.6552	0.1104
311.8667	0.1081
312.0782	0.1121
312.2897	0.1007
312.5012	0.1075
312.7126	0.0968
312.924	0.0981
313.1355	0.1022
313.3469	0.1055
313.5583	0.1095
313.7696	0.106
313.981	0.1037
314.1924	0.1024
314.4037	0.1005
314.6151	0.0943
314.8264	0.1019
315.0377	0.0997
315.249	0.1045
315.4603	0.1034
315.6716	0.1017
315.8828	0.101
316.0941	0.0966
316.3053	0.0947
316.5165	0.0918
316.7277	0.0932
316.9389	0.0933
317.1501	0.0926
317.3613	0.0988
317.5724	0.0989
317.7836	0.0927
317.9947	0.0944
318.2058	0.097
318.417	0.091
318.6281	0.0962
318.8391	0.0943
319.0502	0.0939
319.2613	0.0944
319.4723	0.1005
319.6834	0.0961
319.8944	0.1014
320.1054	0.0939
320.3164	0.0982
320.5274	0.0938
320.7383	0.0935
320.9493	0.1
321.1602	0.0983
321.3712	0.1033
321.5821	0.0921
321.793	0.0919
322.0039	0.0971
322.2148	0.0912
322.4257	0.093
322.6365	0.0981
322.8474	0.0971
323.0582	0.1068
323.269	0.0992
323.4798	0.0975
323.6906	0.1054
323.9014	0.0946
324.1122	0.1033
324.3229	0.0983
324.5337	0.093
324.7444	0.0959
324.9551	0.1033
325.1658	0.101
325.3765	0.0974
325.5872	0.1006
325.7979	0.1053
326.0085	0.1072
326.2192	0.1045
326.4298	0.1098
326.6404	0.1018
326.851	0.0941
327.0616	0.1014
327.2722	0.1023
327.4828	0.098
327.6933	0.1014
327.9039	0.1111
328.1144	0.0993
328.3249	0.1072
328.5354	0.1065
328.7459	0.1041
328.9564	0.1043
329.1669	0.1004
329.3773	0.0995
329.5878	0.1112
329.7982	0.107
330.0086	0.1012
330.219	0.1017
330.4294	0.104
330.6398	0.1088
330.8502	0.1105
331.0605	0.109
331.2708	0.1035
331.4812	0.1001
331.6915	0.104
331.9018	0.101
332.1121	0.111
332.3224	0.0998
332.5326	0.098
332.7429	0.1046
332.9531	0.1071
333.1633	0.1114
333.3735	0.1079
333.5837	0.1005
333.7939	0.1076
334.0041	0.1035
334.2143	0.1007
334.4244	0.1015
334.6346	0.1
334.8447	0.1068
335.0548	0.1072
335.2649	0.0982
335.475	0.0978
335.685	0.1172
335.8951	0.1063
336.1051	0.0953
336.3152	0.1108
336.5252	0.1015
336.7352	0.1035
336.9452	0.1046
337.1552	0.1064
337.3652	0.1055
337.5751	0.1177
337.7851	0.1032
337.995	0.103
338.2049	0.1105
338.4148	0.1159
338.6247	0.1115
338.8346	0.1097
339.0445	0.1097
339.2543	0.1143
339.4642	0.107
339.674	0.1102
339.8838	0.1129
340.0936	0.1183
340.3034	0.1165
340.5132	0.1174
340.7229	0.1209
340.9327	0.1161
341.1424	0.1173
341.3522	0.117
341.5619	0.1294
341.7716	0.122
341.9813	0.1274
342.1909	0.1214
342.4006	0.1207
342.6102	0.1223
342.8199	0.1232
343.0295	0.1245
343.2391	0.1242
343.4487	0.1202
343.6583	0.1263
343.8679	0.1189
344.0774	0.1287
344.287	0.1364
344.4965	0.1192
344.706	0.1308
344.9155	0.1258
345.125	0.1378
345.3345	0.1285
345.544	0.1197
345.7534	0.1239
345.9629	0.1214
346.1723	0.1295
346.3817	0.1334
346.5911	0.1309
346.8005	0.1283
347.0099	0.1263
347.2193	0.1354
347.4286	0.1295
347.638	0.1314
347.8473	0.1244
348.0566	0.1414
348.2659	0.1275
348.4752	0.1367
348.6845	0.1287
348.8937	0.1416
349.103	0.1277
349.3122	0.1352
349.5214	0.1411
349.7306	0.1376
349.9398	0.1334
350.149	0.1355
350.3582	0.1296
350.5674	0.1443
350.7765	0.141
350.9856	0.1333
351.1948	0.1336
351.4039	0.1369
351.613	0.1291
351.822	0.1396
352.0311	0.1369
352.2402	0.1451
352.4492	0.1459
352.6582	0.1434
352.8672	0.1426
353.0762	0.1498
353.2852	0.1475
353.4942	0.1548
353.7032	0.1463
353.9121	0.1499
354.1211	0.145
354.33	0.1473
354.5389	0.1478
354.7478	0.1501
354.9567	0.1475
355.1655	0.1539
355.3744	0.1591
355.5833	0.1499
355.7921	0.1475
356.0009	0.1569
356.2097	0.1518
356.4185	0.148
356.6273	0.1603
356.8361	0.1474
357.0448	0.1602
357.2536	0.1543
357.4623	0.1621
357.671	0.1641
357.8797	0.1592
358.0884	0.1579
358.2971	0.161
358.5057	0.1712
358.7144	0.1578
358.923	0.1705
359.1316	0.1745
359.3402	0.168
359.5488	0.1597
359.7574	0.175
359.966	0.1786
360.1746	0.1671
360.3831	0.1791
360.5916	0.1834
360.8002	0.1719
361.0087	0.1796
361.2172	0.1786
361.4256	0.1726
361.6341	0.1757
361.8426	0.1814
362.051	0.1713
362.2594	0.1806
362.4678	0.1885
362.6762	0.1765
362.8846	0.1848
363.093	0.1849
363.3014	0.1831
363.5097	0.1865
363.718	0.1931
363.9264	0.1902
364.1347	0.1936
364.343	0.1781
364.5513	0.1898
364.7595	0.1871
364.9678	0.1967
365.176	0.1876
365.3842	0.1821
365.5925	0.1979
365.8007	0.196
366.0089	0.2025
366.217	0.1954
366.4252	0.2069
366.6333	0.1949
366.8415	0.1967
367.0496	0.2018
367.2577	0.2103
367.4658	0.2008
367.6739	0.2041
367.882	0.1968
368.09	0.2038
368.2981	0.2205
368.5061	0.2017
368.7141	0.2012
368.9221	0.1992
369.1301	0.2126
369.3381	0.2057
369.5461	0.2143
369.754	0.2037
369.962	0.2061
370.1699	0.2157
370.3778	0.2028
370.5857	0.2076
370.7936	0.2066
371.0015	0.2105
371.2093	0.2095
371.4172	0.2151
371.625	0.2142
371.8328	0.2196
372.0406	0.224
372.2484	0.2076
372.4562	0.213
372.664	0.22
372.8717	0.2187
373.0795	0.2104
373.2872	0.2268
373.4949	0.2088
373.7026	0.2143
373.9103	0.2192
374.118	0.2287
374.3256	0.2173
374.5333	0.2157
374.7409	0.2212
374.9485	0.2169
375.1561	0.2287
375.3637	0.2223
375.5713	0.2343
375.7789	0.2181
375.9864	0.2347
376.194	0.2307
376.4015	0.2225
376.609	0.2319
376.8165	0.218
377.024	0.2186
377.2315	0.2354
377.4389	0.2311
377.6464	0.2267
377.8538	0.231
378.0612	0.236
378.2686	0.2295
378.476	0.2308
378.6834	0.2413
378.8908	0.2445
379.0981	0.2358
379.3055	0.229
379.5128	0.2337
379.7201	0.24
379.9274	0.246
380.1347	0.2468
380.342	0.2375
380.5492	0.2436
380.7565	0.2365
380.9637	0.2543
381.1709	0.2404
381.3781	0.235
381.5853	0.2477
381.7925	0.24
381.9997	0.2365
382.2068	0.2384
382.4139	0.2471
382.6211	0.244
382.8282	0.2492
383.0353	0.2401
383.2424	0.2497
383.4494	0.2597
383.6565	0.2467
383.8635	0.2588
384.0706	0.2453
384.2776	0.2451
384.4846	0.2488
384.6916	0.2566
384.8986	0.2506
385.1055	0.2491
385.3125	0.256
385.5194	0.2515
385.7263	0.2597
385.9333	0.2516
386.1402	0.2556
386.347	0.2657
386.5539	0.2472
386.7608	0.2425
386.9676	0.2519
387.1744	0.2413
387.3813	0.249
387.5881	0.2409
387.7948	0.2486
388.0016	0.2421
388.2084	0.25
388.4151	0.2317
388.6219	0.2458
388.8286	0.2518
389.0353	0.23
389.242	0.2378
389.4487	0.2366
389.6553	0.2314
389.862	0.2424
390.0686	0.2365
390.2753	0.2379
390.4819	0.2318
390.6885	0.2335
390.8951	0.2442
391.1016	0.2467
391.3082	0.2426
391.5147	0.2404
391.7213	0.232
391.9278	0.2292
392.1343	0.2274
392.3408	0.2259
392.5473	0.2263
392.7537	0.2274
392.9602	0.2185
393.1666	0.2275
393.373	0.2163
393.5794	0.2275
393.7858	0.2195
393.9922	0.2168
394.1986	0.2152
394.4049	0.2287
394.6113	0.2202
394.8176	0.2069
395.0239	0.2121
395.2302	0.2163
395.4365	0.2156
395.6428	0.2173
395.8491	0.2206
396.0553	0.2217
396.2615	0.2141
396.4678	0.2189
396.674	0.208
396.8802	0.2066
397.0863	0.2024
397.2925	0.2067
397.4987	0.2099
397.7048	0.2028
397.9109	0.2093
398.117	0.2111
398.3231	0.2078
398.5292	0.2018
398.7353	0.204
398.9413	0.2119
399.1474	0.2109
399.3534	0.1931
399.5594	0.2085
399.7654	0.2062
399.9714	0.1976
400.1774	0.2054
400.3833	0.2138
400.5893	0.2085
400.7952	0.1974
401.0011	0.2167
401.207	0.2036
401.4129	0.1882
401.6188	0.1949
401.8247	0.1951
402.0305	0.1917
402.2364	0.2042
402.4422	0.2058
402.648	0.2083
402.8538	0.1987
403.0596	0.2026
403.2654	0.2031
403.4711	0.2004
403.6768	0.216
403.8826	0.2088
404.0883	0.2041
404.294	0.2106
404.4997	0.2061
404.7054	0.2078
404.911	0.2092
405.1167	0.2012
405.3223	0.2156
405.5279	0.2098
405.7335	0.2088
405.9391	0.2074
406.1447	0.1955
406.3502	0.2038
406.5558	0.1986
406.7613	0.1943
406.9668	0.1974
407.1724	0.1999
407.3778	0.2113
407.5833	0.1932
407.7888	0.2083
407.9942	0.1934
408.1997	0.2033
408.4051	0.1991
408.6105	0.2071
408.8159	0.2167
409.0213	0.1972
409.2267	0.206
409.432	0.2129
409.6374	0.2098
409.8427	0.2051
410.048	0.2039
410.2533	0.199
410.4586	0.2078
410.6639	0.1912
410.8691	0.2037
411.0744	0.2105
411.2796	0.1983
411.4848	0.1959
411.69	0.2058
411.8952	0.2072
412.1004	0.1952
412.3056	0.2106
412.5107	0.2088
412.7158	0.211
412.921	0.1973
413.1261	0.1883
413.3312	0.2066
413.5362	0.2038
413.7413	0.1927
413.9464	0.1969
414.1514	0.1902
414.3564	0.2068
414.5614	0.1995
414.7664	0.1989
414.9714	0.188
415.1764	0.1955
415.3813	0.1894
415.5863	0.1999
415.7912	0.2102
415.9961	0.2034
416.201	0.2033
416.4059	0.193
416.6108	0.2003
416.8156	0.1907
417.0205	0.2039
417.2253	0.1998
417.4301	0.1994
417.6349	0.2066
417.8397	0.1903
418.0445	0.1988
418.2492	0.1875
418.454	0.194
418.6587	0.1874
418.8634	0.1903
419.0681	0.2001
419.2728	0.1957
419.4775	0.1851
419.6822	0.1875
419.8868	0.1884
420.0915	0.2019
420.2961	0.185
420.5007	0.1858
420.7053	0.1764
420.9099	0.1736
421.1144	0.1831
421.319	0.1758
421.5235	0.1872
421.728	0.1824
421.9325	0.1773
422.137	0.1614
422.3415	0.1892
422.546	0.1833
422.7504	0.1784
422.9549	0.1874
423.1593	0.1625
423.3637	0.178
423.5681	0.1775
423.7725	0.1706
423.9769	0.1713
424.1812	0.1699
424.3856	0.1797
424.5899	0.1784
424.7942	0.1667
424.9985	0.1722
425.2028	0.1558
425.4071	0.1612
425.6113	0.1692
425.8156	0.1555
426.0198	0.1655
426.224	0.1529
426.4282	0.1536
426.6324	0.1618
