Data from MonoPyChalIsomerACN10uM450nmA_Absorbance_13-11-23-491.txt Node
Date: Tue Jul 09 13:11:23 BST 2024
User: LASERRRRR
Spectrometer: FLMT03099
Trigger mode: 0
Integration Time (sec): 2.000000E-1
Scans to average: 1
Electric dark correction enabled: true
Nonlinearity correction enabled: false
Boxcar width: 0
XAxis mode: Wavelengths
Number of Pixels in Spectrum: 3648
>>>>>Begin Spectral Data<<<<<
179.3399	0.2201
179.5586	0.2201
179.7771	0.2201
179.9957	-0.4535
180.2143	-0
180.4329	0.1812
180.6514	0.0141
180.8699	-0
181.0885	-0.1409
181.307	-0
181.5255	-0
181.744	-0
181.9625	1.515
182.181	0.1844
182.3994	0.0197
182.6179	-0.3335
182.8363	-1.1022
183.0547	0.176
183.2732	0.1306
183.4916	0.0999
183.71	0.0664
183.9284	-0.0094
184.1467	0.116
184.3651	0.0808
184.5835	0.1437
184.8018	0.0972
185.0201	0.2185
185.2385	0.0514
185.4568	-0.0537
185.6751	0.0833
185.8934	-0.07
186.1117	0.0902
186.3299	0.0355
186.5482	0.1528
186.7664	-0.0112
186.9847	0.0174
187.2029	0.177
187.4211	-0.0038
187.6393	-0.0148
187.8575	0.0715
188.0757	0.1429
188.2939	0.1109
188.512	-0.0279
188.7302	0.0051
188.9483	0.0985
189.1665	0.1469
189.3846	0.0862
189.6027	0.1379
189.8208	0.1815
190.0389	0.2613
190.257	0.1509
190.475	0.3121
190.6931	0.1665
190.9111	0.3039
191.1292	0.2206
191.3472	0.2781
191.5652	0.381
191.7832	0.3917
192.0012	0.3693
192.2192	0.5294
192.4371	0.5016
192.6551	0.4928
192.873	0.346
193.091	0.5241
193.3089	0.5417
193.5268	0.5198
193.7447	0.504
193.9626	0.4605
194.1805	0.5792
194.3984	0.6047
194.6162	0.6285
194.8341	0.5719
195.0519	0.5825
195.2697	0.5819
195.4875	0.588
195.7054	0.6604
195.9231	0.5473
196.1409	0.6132
196.3587	0.6562
196.5765	0.7059
196.7942	0.749
197.012	0.7138
197.2297	0.8477
197.4474	0.6899
197.6651	0.6945
197.8828	0.8285
198.1005	0.7904
198.3182	0.7229
198.5358	0.739
198.7535	0.7809
198.9711	0.8379
199.1888	0.8045
199.4064	0.886
199.624	0.7624
199.8416	0.7226
200.0592	0.7516
200.2767	0.7657
200.4943	0.7907
200.7119	0.9047
200.9294	0.9562
201.1469	0.8694
201.3645	0.7453
201.582	0.9839
201.7995	0.7766
202.017	0.9265
202.2344	0.7508
202.4519	0.9821
202.6694	0.6983
202.8868	0.929
203.1042	1.0123
203.3217	0.9165
203.5391	0.9473
203.7565	0.9043
203.9739	0.9467
204.1913	0.8336
204.4086	0.9178
204.626	0.9822
204.8433	0.9253
205.0607	0.9304
205.278	0.9124
205.4953	1.1068
205.7126	0.9396
205.9299	1.0049
206.1472	1.0315
206.3644	0.9518
206.5817	1.0353
206.7989	1.0608
207.0162	1.0165
207.2334	0.9824
207.4506	0.9614
207.6678	1.0168
207.885	1.0407
208.1022	1.0261
208.3194	1.038
208.5365	1.0623
208.7537	1.0901
208.9708	0.9575
209.1879	1.1348
209.405	1.022
209.6222	1.0038
209.8392	1.0893
210.0563	0.9946
210.2734	1.1198
210.4905	1.0337
210.7075	0.9644
210.9245	1.0579
211.1416	1.0557
211.3586	1.1369
211.5756	1.1514
211.7926	1.0994
212.0096	1.0652
212.2265	1.1733
212.4435	1.0523
212.6604	1.0597
212.8774	1.0289
213.0943	1.0167
213.3112	0.9807
213.5281	1.0105
213.745	1.0083
213.9619	0.9782
214.1788	0.9632
214.3956	0.9158
214.6125	0.9152
214.8293	0.9003
215.0461	0.892
215.2629	0.8688
215.4798	0.8902
215.6965	0.8789
215.9133	0.8356
216.1301	0.8225
216.3469	0.8443
216.5636	0.7963
216.7803	0.7905
216.9971	0.7905
217.2138	0.7382
217.4305	0.6953
217.6472	0.679
217.8639	0.6462
218.0805	0.626
218.2972	0.5597
218.5138	0.5391
218.7305	0.5059
218.9471	0.4689
219.1637	0.4276
219.3803	0.4334
219.5969	0.3988
219.8135	0.3795
220.0301	0.3609
220.2466	0.352
220.4632	0.3144
220.6797	0.324
220.8962	0.3066
221.1127	0.3073
221.3292	0.3136
221.5457	0.2922
221.7622	0.277
221.9787	0.2905
222.1951	0.2713
222.4116	0.273
222.628	0.2881
222.8444	0.2698
223.0608	0.278
223.2772	0.2763
223.4936	0.2582
223.71	0.263
223.9264	0.2914
224.1427	0.2517
224.3591	0.2666
224.5754	0.2797
224.7917	0.2701
225.008	0.2846
225.2243	0.2732
225.4406	0.2817
225.6569	0.2765
225.8732	0.2876
226.0894	0.2739
226.3057	0.2962
226.5219	0.2771
226.7381	0.2827
226.9543	0.2789
227.1705	0.2867
227.3867	0.3007
227.6029	0.2994
227.8191	0.2921
228.0352	0.3013
228.2513	0.3107
228.4675	0.3031
228.6836	0.3126
228.8997	0.3039
229.1158	0.3125
229.3319	0.324
229.548	0.324
229.764	0.3136
229.9801	0.3343
230.1961	0.328
230.4121	0.325
230.6282	0.3392
230.8442	0.3473
231.0602	0.3454
231.2761	0.3482
231.4921	0.3626
231.7081	0.3613
231.924	0.3596
232.14	0.3738
232.3559	0.3607
232.5718	0.3638
232.7877	0.3506
233.0036	0.3677
233.2195	0.3719
233.4353	0.3629
233.6512	0.3687
233.867	0.3857
234.0829	0.3802
234.2987	0.3728
234.5145	0.3867
234.7303	0.3976
234.9461	0.4048
235.1619	0.3851
235.3776	0.3818
235.5934	0.3957
235.8091	0.39
236.0249	0.3918
236.2406	0.405
236.4563	0.3885
236.672	0.4086
236.8877	0.4024
237.1034	0.4038
237.319	0.3995
237.5347	0.3966
237.7503	0.4155
237.966	0.4154
238.1816	0.4132
238.3972	0.4153
238.6128	0.4113
238.8284	0.4291
239.0439	0.4162
239.2595	0.434
239.475	0.4144
239.6906	0.4181
239.9061	0.4159
240.1216	0.4132
240.3371	0.4244
240.5526	0.4384
240.7681	0.4088
240.9836	0.4094
241.199	0.4105
241.4145	0.3964
241.6299	0.413
241.8453	0.4016
242.0607	0.391
242.2761	0.3993
242.4915	0.3769
242.7069	0.3804
242.9223	0.3689
243.1376	0.3788
243.353	0.3577
243.5683	0.3633
243.7836	0.3488
243.9989	0.3461
244.2142	0.3342
244.4295	0.3311
244.6448	0.3349
244.86	0.3346
245.0753	0.3104
245.2905	0.2978
245.5057	0.3018
245.721	0.2916
245.9362	0.294
246.1514	0.2817
246.3665	0.2866
246.5817	0.2676
246.7969	0.2724
247.012	0.2789
247.2271	0.2684
247.4423	0.2645
247.6574	0.2605
247.8725	0.2608
248.0876	0.2555
248.3026	0.2501
248.5177	0.2501
248.7328	0.2398
248.9478	0.2335
249.1628	0.2372
249.3779	0.2254
249.5929	0.2306
249.8079	0.2272
250.0228	0.227
250.2378	0.2296
250.4528	0.2214
250.6677	0.225
250.8827	0.2133
251.0976	0.2109
251.3125	0.2113
251.5274	0.2071
251.7423	0.2113
251.9572	0.2087
252.172	0.2083
252.3869	0.2069
252.6017	0.2086
252.8166	0.2122
253.0314	0.2068
253.2462	0.2073
253.461	0.2031
253.6758	0.1975
253.8906	0.1993
254.1053	0.2128
254.3201	0.2098
254.5348	0.196
254.7496	0.2012
254.9643	0.1965
255.179	0.1984
255.3937	0.2028
255.6083	0.1991
255.823	0.2029
256.0377	0.1921
256.2523	0.1937
256.467	0.1983
256.6816	0.1952
256.8962	0.2077
257.1108	0.1953
257.3254	0.1962
257.54	0.1967
257.7545	0.1937
257.9691	0.2022
258.1836	0.1969
258.3981	0.2034
258.6127	0.1907
258.8272	0.1918
259.0417	0.1926
259.2561	0.2011
259.4706	0.192
259.6851	0.1929
259.8995	0.1883
260.114	0.1907
260.3284	0.1955
260.5428	0.1968
260.7572	0.2002
260.9716	0.196
261.186	0.2041
261.4003	0.2009
261.6147	0.1979
261.829	0.2028
262.0433	0.2009
262.2577	0.1955
262.472	0.1993
262.6863	0.188
262.9005	0.2016
263.1148	0.1954
263.3291	0.1938
263.5433	0.1903
263.7576	0.1839
263.9718	0.1922
264.186	0.182
264.4002	0.1866
264.6144	0.1823
264.8286	0.1834
265.0427	0.1851
265.2569	0.1856
265.471	0.177
265.6851	0.1843
265.8993	0.1717
266.1134	0.1654
266.3275	0.1823
266.5415	0.1753
266.7556	0.1845
266.9697	0.175
267.1837	0.1888
267.3978	0.1888
267.6118	0.1934
267.8258	0.191
268.0398	0.2058
268.2538	0.1899
268.4677	0.1957
268.6817	0.1938
268.8957	0.1885
269.1096	0.1915
269.3235	0.178
269.5374	0.1764
269.7514	0.1688
269.9652	0.1696
270.1791	0.1521
270.393	0.1587
270.6068	0.1544
270.8207	0.1526
271.0345	0.1586
271.2483	0.1539
271.4622	0.1528
271.676	0.1521
271.8897	0.1467
272.1035	0.1391
272.3173	0.1427
272.531	0.1481
272.7448	0.1393
272.9585	0.1498
273.1722	0.1432
273.3859	0.1388
273.5996	0.1356
273.8133	0.1482
274.0269	0.1424
274.2406	0.1445
274.4542	0.1429
274.6679	0.134
274.8815	0.1448
275.0951	0.1502
275.3087	0.1424
275.5223	0.1429
275.7358	0.1472
275.9494	0.1564
276.1629	0.1443
276.3765	0.1406
276.59	0.1455
276.8035	0.1481
277.017	0.1502
277.2305	0.1536
277.444	0.1423
277.6574	0.1409
277.8709	0.149
278.0843	0.1503
278.2978	0.151
278.5112	0.1442
278.7246	0.1437
278.938	0.1458
279.1513	0.151
279.3647	0.1509
279.5781	0.1428
279.7914	0.1517
280.0047	0.1484
280.2181	0.1587
280.4314	0.1474
280.6447	0.1555
280.8579	0.1581
281.0712	0.1511
281.2845	0.151
281.4977	0.1479
281.711	0.152
281.9242	0.1526
282.1374	0.1451
282.3506	0.1447
282.5638	0.1526
282.7769	0.1535
282.9901	0.1554
283.2033	0.1623
283.4164	0.1572
283.6295	0.1615
283.8426	0.1554
284.0557	0.1517
284.2688	0.156
284.4819	0.1574
284.695	0.1558
284.908	0.1525
285.1211	0.1661
285.3341	0.1535
285.5471	0.1562
285.7601	0.1495
285.9731	0.1596
286.1861	0.1638
286.3991	0.159
286.612	0.1612
286.825	0.1686
287.0379	0.1637
287.2508	0.156
287.4637	0.1622
287.6766	0.1485
287.8895	0.1612
288.1024	0.1602
288.3152	0.16
288.5281	0.1584
288.7409	0.1538
288.9538	0.1569
289.1666	0.1716
289.3794	0.1569
289.5922	0.1609
289.8049	0.1601
290.0177	0.1652
290.2304	0.1541
290.4432	0.1608
290.6559	0.1571
290.8686	0.1558
291.0813	0.1639
291.294	0.161
291.5067	0.1628
291.7194	0.1584
291.932	0.1637
292.1447	0.1604
292.3573	0.1559
292.5699	0.1705
292.7825	0.1656
292.9951	0.1596
293.2077	0.1531
293.4203	0.1516
293.6328	0.1668
293.8454	0.1575
294.0579	0.1549
294.2704	0.1698
294.4829	0.1638
294.6954	0.1611
294.9079	0.1629
295.1204	0.1673
295.3328	0.1638
295.5453	0.1599
295.7577	0.1579
295.9701	0.1565
296.1825	0.166
296.3949	0.1584
296.6073	0.1654
296.8197	0.1639
297.0321	0.1629
297.2444	0.1544
297.4567	0.1494
297.6691	0.1585
297.8814	0.1576
298.0937	0.1594
298.306	0.1545
298.5182	0.1481
298.7305	0.158
298.9428	0.1513
299.155	0.1572
299.3672	0.1574
299.5794	0.1555
299.7916	0.1574
300.0038	0.1547
300.216	0.1566
300.4282	0.1538
300.6403	0.1569
300.8525	0.1573
301.0646	0.1597
301.2767	0.1569
301.4888	0.1501
301.7009	0.1582
301.913	0.1599
302.125	0.157
302.3371	0.1635
302.5491	0.1578
302.7612	0.1543
302.9732	0.1653
303.1852	0.1515
303.3972	0.1612
303.6092	0.1519
303.8211	0.1631
304.0331	0.151
304.245	0.153
304.457	0.152
304.6689	0.1535
304.8808	0.1524
305.0927	0.1536
305.3046	0.1497
305.5164	0.1475
305.7283	0.1532
305.9401	0.1476
306.152	0.1489
306.3638	0.1595
306.5756	0.1421
306.7874	0.1481
306.9992	0.1417
307.2109	0.1373
307.4227	0.1446
307.6344	0.1389
307.8462	0.1349
308.0579	0.1381
308.2696	0.128
308.4813	0.1368
308.693	0.1306
308.9046	0.1216
309.1163	0.1214
309.328	0.1188
309.5396	0.1255
309.7512	0.1223
309.9628	0.1156
310.1744	0.1195
310.386	0.1146
310.5976	0.1201
310.8091	0.1163
311.0207	0.1172
311.2322	0.1131
311.4437	0.1172
311.6552	0.1206
311.8667	0.112
312.0782	0.1094
312.2897	0.11
312.5012	0.1111
312.7126	0.0981
312.924	0.1058
313.1355	0.099
313.3469	0.1024
313.5583	0.104
313.7696	0.1019
313.981	0.1008
314.1924	0.097
314.4037	0.0958
314.6151	0.0985
314.8264	0.1059
315.0377	0.101
315.249	0.1029
315.4603	0.1036
315.6716	0.0988
315.8828	0.0974
316.0941	0.098
316.3053	0.0975
316.5165	0.0993
316.7277	0.0958
316.9389	0.0962
317.1501	0.0951
317.3613	0.0973
317.5724	0.0982
317.7836	0.0929
317.9947	0.0966
318.2058	0.0947
318.417	0.0918
318.6281	0.0997
318.8391	0.093
319.0502	0.0915
319.2613	0.0964
319.4723	0.0931
319.6834	0.0887
319.8944	0.0991
320.1054	0.0865
320.3164	0.1052
320.5274	0.104
320.7383	0.0945
320.9493	0.0942
321.1602	0.0984
321.3712	0.0946
321.5821	0.0923
321.793	0.091
322.0039	0.0934
322.2148	0.0987
322.4257	0.088
322.6365	0.1001
322.8474	0.095
323.0582	0.1101
323.269	0.1004
323.4798	0.1023
323.6906	0.1022
323.9014	0.0943
324.1122	0.0949
324.3229	0.102
324.5337	0.0927
324.7444	0.0985
324.9551	0.1046
325.1658	0.106
325.3765	0.0973
325.5872	0.0993
325.7979	0.107
326.0085	0.104
326.2192	0.0997
326.4298	0.1016
326.6404	0.0991
326.851	0.1007
327.0616	0.1026
327.2722	0.1093
327.4828	0.1004
327.6933	0.0987
327.9039	0.1
328.1144	0.0973
328.3249	0.1091
328.5354	0.0975
328.7459	0.1048
328.9564	0.0974
329.1669	0.1044
329.3773	0.1061
329.5878	0.1074
329.7982	0.1058
330.0086	0.102
330.219	0.1093
330.4294	0.0969
330.6398	0.1133
330.8502	0.1057
331.0605	0.1016
331.2708	0.1054
331.4812	0.108
331.6915	0.1002
331.9018	0.0961
332.1121	0.1182
332.3224	0.1043
332.5326	0.0954
332.7429	0.1058
332.9531	0.1091
333.1633	0.1071
333.3735	0.105
333.5837	0.1054
333.7939	0.1041
334.0041	0.1037
334.2143	0.1052
334.4244	0.1037
334.6346	0.0982
334.8447	0.1113
335.0548	0.106
335.2649	0.0984
335.475	0.1104
335.685	0.109
335.8951	0.1044
336.1051	0.1016
336.3152	0.1003
336.5252	0.1069
336.7352	0.1125
336.9452	0.1036
337.1552	0.1124
337.3652	0.1081
337.5751	0.1122
337.7851	0.1055
337.995	0.1093
338.2049	0.1082
338.4148	0.1115
338.6247	0.1119
338.8346	0.1066
339.0445	0.1109
339.2543	0.1177
339.4642	0.1155
339.674	0.1003
339.8838	0.1026
340.0936	0.1146
340.3034	0.1261
340.5132	0.115
340.7229	0.1189
340.9327	0.1176
341.1424	0.1187
341.3522	0.116
341.5619	0.1211
341.7716	0.1226
341.9813	0.1189
342.1909	0.1269
342.4006	0.124
342.6102	0.1096
342.8199	0.1161
343.0295	0.1142
343.2391	0.1263
343.4487	0.1232
343.6583	0.1228
343.8679	0.1217
344.0774	0.1226
344.287	0.1284
344.4965	0.113
344.706	0.13
344.9155	0.1388
345.125	0.1363
345.3345	0.1323
345.544	0.1227
345.7534	0.1278
345.9629	0.1313
346.1723	0.1288
346.3817	0.1331
346.5911	0.1355
346.8005	0.1231
347.0099	0.1248
347.2193	0.1295
347.4286	0.1346
347.638	0.1343
347.8473	0.131
348.0566	0.1381
348.2659	0.1294
348.4752	0.1259
348.6845	0.1361
348.8937	0.1371
349.103	0.128
349.3122	0.1298
349.5214	0.1336
349.7306	0.1392
349.9398	0.1312
350.149	0.1461
350.3582	0.1358
350.5674	0.1414
350.7765	0.1318
350.9856	0.1313
351.1948	0.1398
351.4039	0.1331
351.613	0.1346
351.822	0.1402
352.0311	0.1394
352.2402	0.1468
352.4492	0.136
352.6582	0.1406
352.8672	0.1389
353.0762	0.1477
353.2852	0.1501
353.4942	0.1492
353.7032	0.1547
353.9121	0.15
354.1211	0.1529
354.33	0.1388
354.5389	0.1465
354.7478	0.1515
354.9567	0.1457
355.1655	0.1447
355.3744	0.1605
355.5833	0.1481
355.7921	0.1411
356.0009	0.156
356.2097	0.1506
356.4185	0.1541
356.6273	0.1665
356.8361	0.1461
357.0448	0.1609
357.2536	0.1503
357.4623	0.1676
357.671	0.15
357.8797	0.172
358.0884	0.1578
358.2971	0.1589
358.5057	0.1561
358.7144	0.1601
358.923	0.1765
359.1316	0.1623
359.3402	0.178
359.5488	0.1624
359.7574	0.1695
359.966	0.1771
360.1746	0.1641
360.3831	0.1768
360.5916	0.1808
360.8002	0.1847
361.0087	0.17
361.2172	0.1874
361.4256	0.1734
361.6341	0.1685
361.8426	0.1786
362.051	0.1778
362.2594	0.1757
362.4678	0.1699
362.6762	0.1846
362.8846	0.1842
363.093	0.1781
363.3014	0.1882
363.5097	0.1855
363.718	0.1895
363.9264	0.1825
364.1347	0.19
364.343	0.1815
364.5513	0.1792
364.7595	0.1848
364.9678	0.1804
365.176	0.1943
365.3842	0.1881
365.5925	0.1913
365.8007	0.1846
366.0089	0.206
366.217	0.1928
366.4252	0.2034
366.6333	0.1964
366.8415	0.1905
367.0496	0.2002
367.2577	0.2087
367.4658	0.2098
367.6739	0.2017
367.882	0.2053
368.09	0.2076
368.2981	0.2114
368.5061	0.1997
368.7141	0.2077
368.9221	0.1989
369.1301	0.207
369.3381	0.2099
369.5461	0.222
369.754	0.212
369.962	0.2034
370.1699	0.2124
370.3778	0.2045
370.5857	0.2103
370.7936	0.2176
371.0015	0.2127
371.2093	0.2159
371.4172	0.2139
371.625	0.216
371.8328	0.2204
372.0406	0.2258
372.2484	0.2246
372.4562	0.2169
372.664	0.2204
372.8717	0.214
373.0795	0.2269
373.2872	0.2273
373.4949	0.2213
373.7026	0.2202
373.9103	0.2161
374.118	0.2266
374.3256	0.2159
374.5333	0.2229
374.7409	0.219
374.9485	0.228
375.1561	0.2326
375.3637	0.2208
375.5713	0.2262
375.7789	0.219
375.9864	0.2192
376.194	0.2336
376.4015	0.2493
376.609	0.2408
376.8165	0.2267
377.024	0.2336
377.2315	0.2362
377.4389	0.2274
377.6464	0.2276
377.8538	0.2336
378.0612	0.2343
378.2686	0.2329
378.476	0.2276
378.6834	0.2421
378.8908	0.2397
379.0981	0.2474
379.3055	0.2327
379.5128	0.2219
379.7201	0.2394
379.9274	0.2466
380.1347	0.2429
380.342	0.238
380.5492	0.2449
380.7565	0.247
380.9637	0.2499
381.1709	0.2474
381.3781	0.2317
381.5853	0.2482
381.7925	0.2506
381.9997	0.2464
382.2068	0.254
382.4139	0.2479
382.6211	0.2482
382.8282	0.2398
383.0353	0.2473
383.2424	0.2518
383.4494	0.2507
383.6565	0.2475
383.8635	0.254
384.0706	0.2543
384.2776	0.2528
384.4846	0.2544
384.6916	0.2509
384.8986	0.2505
385.1055	0.2608
385.3125	0.248
385.5194	0.2533
385.7263	0.2484
385.9333	0.2521
386.1402	0.2466
386.347	0.2622
386.5539	0.2582
386.7608	0.249
386.9676	0.2496
387.1744	0.2529
387.3813	0.2452
387.5881	0.244
387.7948	0.2454
388.0016	0.2531
388.2084	0.2506
388.4151	0.2282
388.6219	0.251
388.8286	0.2483
389.0353	0.2341
389.242	0.2408
389.4487	0.2366
389.6553	0.2577
389.862	0.2308
390.0686	0.2411
390.2753	0.2353
390.4819	0.24
390.6885	0.2398
390.8951	0.2471
391.1016	0.2423
391.3082	0.2314
391.5147	0.2322
391.7213	0.2304
391.9278	0.2274
392.1343	0.2291
392.3408	0.2319
392.5473	0.2293
392.7537	0.2325
392.9602	0.218
393.1666	0.2238
393.373	0.2274
393.5794	0.2242
393.7858	0.2272
393.9922	0.2167
394.1986	0.2144
394.4049	0.2358
394.6113	0.2319
394.8176	0.2228
395.0239	0.211
395.2302	0.2139
395.4365	0.2223
395.6428	0.214
395.8491	0.2147
396.0553	0.2141
396.2615	0.2124
396.4678	0.2223
396.674	0.2081
396.8802	0.2116
397.0863	0.2149
397.2925	0.2099
397.4987	0.2039
397.7048	0.205
397.9109	0.2138
398.117	0.2133
398.3231	0.2113
398.5292	0.2133
398.7353	0.2192
398.9413	0.2148
399.1474	0.2078
399.3534	0.2009
399.5594	0.2002
399.7654	0.2085
399.9714	0.1996
400.1774	0.2118
400.3833	0.205
400.5893	0.2133
400.7952	0.1952
401.0011	0.2069
401.207	0.2136
401.4129	0.1847
401.6188	0.2032
401.8247	0.1983
402.0305	0.2118
402.2364	0.2014
402.4422	0.2035
402.648	0.2297
402.8538	0.2031
403.0596	0.1949
403.2654	0.2018
403.4711	0.1995
403.6768	0.218
403.8826	0.2038
404.0883	0.2062
404.294	0.1998
404.4997	0.202
404.7054	0.2006
404.911	0.2153
405.1167	0.2102
405.3223	0.2089
405.5279	0.2059
405.7335	0.2186
405.9391	0.2083
406.1447	0.2123
406.3502	0.2052
406.5558	0.2043
406.7613	0.2039
406.9668	0.2045
407.1724	0.2062
407.3778	0.2034
407.5833	0.2051
407.7888	0.212
407.9942	0.197
408.1997	0.2075
408.4051	0.1968
408.6105	0.2095
408.8159	0.2126
409.0213	0.2047
409.2267	0.1998
409.432	0.2141
409.6374	0.2009
409.8427	0.2275
410.048	0.2075
410.2533	0.2094
410.4586	0.206
410.6639	0.2085
410.8691	0.2081
411.0744	0.206
411.2796	0.2006
411.4848	0.1933
411.69	0.2127
411.8952	0.2049
412.1004	0.192
412.3056	0.2134
412.5107	0.2092
412.7158	0.2018
412.921	0.2106
413.1261	0.1968
413.3312	0.2045
413.5362	0.2116
413.7413	0.1966
413.9464	0.1973
414.1514	0.2027
414.3564	0.2047
414.5614	0.1959
414.7664	0.2078
414.9714	0.1885
415.1764	0.1891
415.3813	0.196
415.5863	0.1972
415.7912	0.1927
415.9961	0.2074
416.201	0.2152
416.4059	0.1922
416.6108	0.194
416.8156	0.1952
417.0205	0.1962
417.2253	0.2029
417.4301	0.2015
417.6349	0.2012
417.8397	0.1904
418.0445	0.1934
418.2492	0.1918
418.454	0.194
418.6587	0.1866
418.8634	0.1935
419.0681	0.1969
419.2728	0.203
419.4775	0.1924
419.6822	0.2018
419.8868	0.1936
420.0915	0.1961
420.2961	0.1854
420.5007	0.1974
420.7053	0.196
420.9099	0.1749
421.1144	0.1851
421.319	0.1848
421.5235	0.1856
421.728	0.1829
421.9325	0.1754
422.137	0.1716
422.3415	0.1838
422.546	0.1811
422.7504	0.1878
422.9549	0.1863
423.1593	0.1791
423.3637	0.1788
423.5681	0.1903
423.7725	0.1771
423.9769	0.1802
424.1812	0.1708
424.3856	0.171
424.5899	0.176
424.7942	0.1724
424.9985	0.1774
425.2028	0.1538
425.4071	0.1664
425.6113	0.1677
425.8156	0.1618
426.0198	0.1711
426.224	0.1617
426.4282	0.1631
426.6324	0.1659
426.8366	0.168
