Data from MonoPyChalIsomerACN10uM450nmA_Absorbance_13-11-32-091.txt Node
Date: Tue Jul 09 13:11:32 BST 2024
User: LASERRRRR
Spectrometer: FLMT03099
Trigger mode: 0
Integration Time (sec): 2.000000E-1
Scans to average: 1
Electric dark correction enabled: true
Nonlinearity correction enabled: false
Boxcar width: 0
XAxis mode: Wavelengths
Number of Pixels in Spectrum: 3648
>>>>>Begin Spectral Data<<<<<
179.3399	0.1177
179.5586	0.1177
179.7771	0.1177
179.9957	-0.1082
180.2143	-0.0838
180.4329	-0
180.6514	-0
180.8699	-0.4795
181.0885	-0.0514
181.307	-0
181.5255	-0
181.744	-0
181.9625	0.5092
182.181	-0
182.3994	0.011
182.6179	0.1777
182.8363	-0
183.0547	0.1733
183.2732	0.2286
183.4916	0.0037
183.71	0.0014
183.9284	0.0917
184.1467	0.042
184.3651	0.0921
184.5835	0.1208
184.8018	0.0038
185.0201	0.0164
185.2385	-0.0096
185.4568	-0.1226
185.6751	0.041
185.8934	0.058
186.1117	0.0631
186.3299	-0.0599
186.5482	-0.0503
186.7664	0.0453
186.9847	0.0518
187.2029	0.066
187.4211	-0.0051
187.6393	0.0298
187.8575	0.0723
188.0757	0.058
188.2939	0.0544
188.512	-0.0151
188.7302	0.0239
188.9483	0.0635
189.1665	0.0601
189.3846	0.1561
189.6027	0.1305
189.8208	0.0278
190.0389	0.295
190.257	0.078
190.475	0.1576
190.6931	0.0879
190.9111	0.2981
191.1292	0.2928
191.3472	0.3204
191.5652	0.3226
191.7832	0.4592
192.0012	0.4189
192.2192	0.4717
192.4371	0.3723
192.6551	0.4021
192.873	0.3792
193.091	0.3887
193.3089	0.5138
193.5268	0.544
193.7447	0.5246
193.9626	0.5456
194.1805	0.422
194.3984	0.6267
194.6162	0.6556
194.8341	0.5281
195.0519	0.5687
195.2697	0.6583
195.4875	0.5366
195.7054	0.645
195.9231	0.6824
196.1409	0.5597
196.3587	0.6124
196.5765	0.645
196.7942	0.7068
197.012	0.6552
197.2297	0.6171
197.4474	0.7055
197.6651	0.7369
197.8828	0.683
198.1005	0.7085
198.3182	0.695
198.5358	0.7271
198.7535	0.7998
198.9711	0.7832
199.1888	0.6807
199.4064	0.8131
199.624	0.7632
199.8416	0.7519
200.0592	0.7541
200.2767	0.8399
200.4943	0.8463
200.7119	0.8782
200.9294	0.8534
201.1469	0.8575
201.3645	0.8071
201.582	0.8674
201.7995	0.7606
202.017	0.8103
202.2344	0.847
202.4519	0.8759
202.6694	0.7966
202.8868	0.9004
203.1042	1.0082
203.3217	0.9132
203.5391	0.893
203.7565	0.8957
203.9739	0.8495
204.1913	0.8278
204.4086	0.955
204.626	0.9478
204.8433	0.9137
205.0607	0.8149
205.278	0.9045
205.4953	1.0139
205.7126	0.93
205.9299	0.9263
206.1472	1.0054
206.3644	0.9129
206.5817	1.0588
206.7989	1.016
207.0162	1.0259
207.2334	0.9293
207.4506	1.0262
207.6678	1.1612
207.885	1.0736
208.1022	1.0067
208.3194	1.0662
208.5365	1.0114
208.7537	0.9631
208.9708	1.0189
209.1879	1.0505
209.405	0.9883
209.6222	1.1277
209.8392	1.0825
210.0563	0.9922
210.2734	1.0639
210.4905	1.0748
210.7075	1.0083
210.9245	0.9675
211.1416	1.12
211.3586	1.0378
211.5756	1.0709
211.7926	1.0152
212.0096	1.0164
212.2265	1.0132
212.4435	1.0529
212.6604	1.0634
212.8774	1
213.0943	1.0464
213.3112	0.9997
213.5281	0.9926
213.745	1.0355
213.9619	0.9491
214.1788	0.9671
214.3956	0.9638
214.6125	0.9069
214.8293	0.8375
215.0461	0.9039
215.2629	0.8472
215.4798	0.8626
215.6965	0.8675
215.9133	0.8314
216.1301	0.8009
216.3469	0.796
216.5636	0.7861
216.7803	0.7704
216.9971	0.7754
217.2138	0.7384
217.4305	0.7273
217.6472	0.6721
217.8639	0.6745
218.0805	0.6141
218.2972	0.5539
218.5138	0.5389
218.7305	0.5274
218.9471	0.4736
219.1637	0.4303
219.3803	0.4122
219.5969	0.4013
219.8135	0.3712
220.0301	0.3624
220.2466	0.3493
220.4632	0.316
220.6797	0.3201
220.8962	0.3015
221.1127	0.2864
221.3292	0.3123
221.5457	0.2834
221.7622	0.2808
221.9787	0.2723
222.1951	0.2806
222.4116	0.2667
222.628	0.2784
222.8444	0.2644
223.0608	0.2761
223.2772	0.2618
223.4936	0.2608
223.71	0.2576
223.9264	0.2809
224.1427	0.2591
224.3591	0.2705
224.5754	0.263
224.7917	0.2742
225.008	0.2627
225.2243	0.2633
225.4406	0.2774
225.6569	0.2763
225.8732	0.2934
226.0894	0.2786
226.3057	0.291
226.5219	0.2862
226.7381	0.2894
226.9543	0.2817
227.1705	0.2859
227.3867	0.2853
227.6029	0.3022
227.8191	0.2994
228.0352	0.3074
228.2513	0.3137
228.4675	0.3045
228.6836	0.3195
228.8997	0.3142
229.1158	0.3203
229.3319	0.3164
229.548	0.3283
229.764	0.3102
229.9801	0.3197
230.1961	0.326
230.4121	0.3303
230.6282	0.3317
230.8442	0.3406
231.0602	0.3494
231.2761	0.3444
231.4921	0.3511
231.7081	0.3545
231.924	0.3444
232.14	0.3538
232.3559	0.3671
232.5718	0.3639
232.7877	0.3369
233.0036	0.3725
233.2195	0.3528
233.4353	0.3635
233.6512	0.3741
233.867	0.3713
234.0829	0.3682
234.2987	0.3913
234.5145	0.373
234.7303	0.3812
234.9461	0.3943
235.1619	0.3704
235.3776	0.3727
235.5934	0.3842
235.8091	0.3932
236.0249	0.3881
236.2406	0.3895
236.4563	0.3984
236.672	0.3945
236.8877	0.4021
237.1034	0.3978
237.319	0.4045
237.5347	0.3984
237.7503	0.4014
237.966	0.4111
238.1816	0.4103
238.3972	0.4043
238.6128	0.4138
238.8284	0.3964
239.0439	0.409
239.2595	0.4264
239.475	0.4192
239.6906	0.4194
239.9061	0.3998
240.1216	0.4196
240.3371	0.4229
240.5526	0.4347
240.7681	0.4084
240.9836	0.4081
241.199	0.4145
241.4145	0.3993
241.6299	0.4061
241.8453	0.405
242.0607	0.3937
242.2761	0.4
242.4915	0.3815
242.7069	0.3862
242.9223	0.3819
243.1376	0.3792
243.353	0.3588
243.5683	0.3635
243.7836	0.3553
243.9989	0.3541
244.2142	0.344
244.4295	0.333
244.6448	0.3317
244.86	0.3288
245.0753	0.3166
245.2905	0.3065
245.5057	0.316
245.721	0.2975
245.9362	0.2875
246.1514	0.2911
246.3665	0.304
246.5817	0.2822
246.7969	0.2772
247.012	0.263
247.2271	0.2708
247.4423	0.2826
247.6574	0.2672
247.8725	0.2618
248.0876	0.2547
248.3026	0.2598
248.5177	0.2537
248.7328	0.2391
248.9478	0.254
249.1628	0.2418
249.3779	0.2426
249.5929	0.2282
249.8079	0.2374
250.0228	0.2341
250.2378	0.2415
250.4528	0.2211
250.6677	0.2269
250.8827	0.2168
251.0976	0.2189
251.3125	0.2194
251.5274	0.21
251.7423	0.2115
251.9572	0.2062
252.172	0.2051
252.3869	0.2028
252.6017	0.2099
252.8166	0.2086
253.0314	0.2048
253.2462	0.2166
253.461	0.2065
253.6758	0.2088
253.8906	0.2015
254.1053	0.2004
254.3201	0.2091
254.5348	0.2066
254.7496	0.2018
254.9643	0.2016
255.179	0.2057
255.3937	0.202
255.6083	0.1951
255.823	0.1861
256.0377	0.1932
256.2523	0.1872
256.467	0.2042
256.6816	0.1934
256.8962	0.1991
257.1108	0.2027
257.3254	0.1964
257.54	0.195
257.7545	0.199
257.9691	0.199
258.1836	0.1928
258.3981	0.2047
258.6127	0.194
258.8272	0.1876
259.0417	0.1948
259.2561	0.1976
259.4706	0.192
259.6851	0.1921
259.8995	0.1942
260.114	0.1936
260.3284	0.1968
260.5428	0.1986
260.7572	0.1999
260.9716	0.1978
261.186	0.2007
261.4003	0.2036
261.6147	0.2001
261.829	0.2022
262.0433	0.1947
262.2577	0.1989
262.472	0.1981
262.6863	0.1881
262.9005	0.202
263.1148	0.2004
263.3291	0.1847
263.5433	0.1911
263.7576	0.19
263.9718	0.1982
264.186	0.1908
264.4002	0.1847
264.6144	0.1841
264.8286	0.183
265.0427	0.1765
265.2569	0.1744
265.471	0.1822
265.6851	0.1803
265.8993	0.1789
266.1134	0.1763
266.3275	0.1829
266.5415	0.1821
266.7556	0.1851
266.9697	0.1809
267.1837	0.1792
267.3978	0.1906
267.6118	0.1914
267.8258	0.2033
268.0398	0.196
268.2538	0.1936
268.4677	0.194
268.6817	0.1915
268.8957	0.1941
269.1096	0.1872
269.3235	0.1785
269.5374	0.1887
269.7514	0.1694
269.9652	0.1772
270.1791	0.166
270.393	0.1617
270.6068	0.1516
270.8207	0.1529
271.0345	0.1635
271.2483	0.1614
271.4622	0.1587
271.676	0.1509
271.8897	0.1505
272.1035	0.1508
272.3173	0.1534
272.531	0.1495
272.7448	0.1493
272.9585	0.1486
273.1722	0.1409
273.3859	0.1465
273.5996	0.1447
273.8133	0.147
274.0269	0.1446
274.2406	0.1437
274.4542	0.1479
274.6679	0.1449
274.8815	0.156
275.0951	0.1548
275.3087	0.1507
275.5223	0.1454
275.7358	0.1464
275.9494	0.1574
276.1629	0.1587
276.3765	0.1483
276.59	0.1507
276.8035	0.161
277.017	0.1494
277.2305	0.1535
277.444	0.1469
277.6574	0.152
277.8709	0.1632
278.0843	0.1561
278.2978	0.151
278.5112	0.1584
278.7246	0.1548
278.938	0.1528
279.1513	0.1541
279.3647	0.1528
279.5781	0.1524
279.7914	0.1544
280.0047	0.1583
280.2181	0.1549
280.4314	0.1575
280.6447	0.1573
280.8579	0.1595
281.0712	0.1581
281.2845	0.1515
281.4977	0.1593
281.711	0.1616
281.9242	0.1565
282.1374	0.1552
282.3506	0.1523
282.5638	0.1571
282.7769	0.1632
282.9901	0.1559
283.2033	0.1629
283.4164	0.1609
283.6295	0.1622
283.8426	0.1597
284.0557	0.1595
284.2688	0.1543
284.4819	0.15
284.695	0.1565
284.908	0.1667
285.1211	0.1604
285.3341	0.1529
285.5471	0.1609
285.7601	0.1514
285.9731	0.1555
286.1861	0.164
286.3991	0.1594
286.612	0.1569
286.825	0.1598
287.0379	0.1567
287.2508	0.1519
287.4637	0.1539
287.6766	0.1523
287.8895	0.1558
288.1024	0.1598
288.3152	0.163
288.5281	0.1597
288.7409	0.1531
288.9538	0.1508
289.1666	0.1604
289.3794	0.1535
289.5922	0.1606
289.8049	0.1542
290.0177	0.1575
290.2304	0.156
290.4432	0.1584
290.6559	0.1583
290.8686	0.1542
291.0813	0.157
291.294	0.1641
291.5067	0.1579
291.7194	0.1518
291.932	0.1534
292.1447	0.1514
292.3573	0.1542
292.5699	0.1614
292.7825	0.1594
292.9951	0.1551
293.2077	0.1513
293.4203	0.147
293.6328	0.1593
293.8454	0.1503
294.0579	0.1545
294.2704	0.1573
294.4829	0.1622
294.6954	0.1513
294.9079	0.1603
295.1204	0.152
295.3328	0.1546
295.5453	0.1535
295.7577	0.1479
295.9701	0.1546
296.1825	0.1514
296.3949	0.1486
296.6073	0.1611
296.8197	0.1563
297.0321	0.1532
297.2444	0.1479
297.4567	0.1476
297.6691	0.151
297.8814	0.1543
298.0937	0.1516
298.306	0.1516
298.5182	0.1434
298.7305	0.1494
298.9428	0.152
299.155	0.1544
299.3672	0.1558
299.5794	0.1561
299.7916	0.149
300.0038	0.1438
300.216	0.1551
300.4282	0.146
300.6403	0.1444
300.8525	0.1537
301.0646	0.1494
301.2767	0.1557
301.4888	0.148
301.7009	0.153
301.913	0.1545
302.125	0.1489
302.3371	0.1531
302.5491	0.1562
302.7612	0.1511
302.9732	0.1596
303.1852	0.147
303.3972	0.147
303.6092	0.1525
303.8211	0.1524
304.0331	0.151
304.245	0.1478
304.457	0.1496
304.6689	0.1527
304.8808	0.1406
305.0927	0.1415
305.3046	0.1437
305.5164	0.1413
305.7283	0.1453
305.9401	0.1431
306.152	0.1458
306.3638	0.1485
306.5756	0.1448
306.7874	0.1428
306.9992	0.1387
307.2109	0.1339
307.4227	0.1407
307.6344	0.1341
307.8462	0.1361
308.0579	0.1251
308.2696	0.1272
308.4813	0.127
308.693	0.1269
308.9046	0.1181
309.1163	0.1218
309.328	0.1181
309.5396	0.125
309.7512	0.1134
309.9628	0.1158
310.1744	0.1231
310.386	0.1098
310.5976	0.1191
310.8091	0.1146
311.0207	0.1133
311.2322	0.1157
311.4437	0.1183
311.6552	0.1132
311.8667	0.1076
312.0782	0.1118
312.2897	0.1031
312.5012	0.1152
312.7126	0.0992
312.924	0.1033
313.1355	0.1018
313.3469	0.1113
313.5583	0.1084
313.7696	0.1107
313.981	0.0994
314.1924	0.1005
314.4037	0.1052
314.6151	0.0934
314.8264	0.1029
315.0377	0.1048
315.249	0.1078
315.4603	0.1038
315.6716	0.0997
315.8828	0.1059
316.0941	0.098
316.3053	0.0974
316.5165	0.0886
316.7277	0.096
316.9389	0.1025
317.1501	0.0952
317.3613	0.0953
317.5724	0.0947
317.7836	0.1008
317.9947	0.1026
318.2058	0.1018
318.417	0.0949
318.6281	0.096
318.8391	0.0975
319.0502	0.0947
319.2613	0.1037
319.4723	0.0992
319.6834	0.0934
319.8944	0.0985
320.1054	0.0941
320.3164	0.105
320.5274	0.1036
320.7383	0.093
320.9493	0.1073
321.1602	0.1001
321.3712	0.1034
321.5821	0.0978
321.793	0.0901
322.0039	0.1051
322.2148	0.1022
322.4257	0.0977
322.6365	0.0966
322.8474	0.1011
323.0582	0.1109
323.269	0.1059
323.4798	0.1039
323.6906	0.102
323.9014	0.1063
324.1122	0.1128
324.3229	0.1103
324.5337	0.0983
324.7444	0.0991
324.9551	0.0996
325.1658	0.1082
325.3765	0.1018
325.5872	0.1048
325.7979	0.1108
326.0085	0.1133
326.2192	0.1053
326.4298	0.1137
326.6404	0.1121
326.851	0.1049
327.0616	0.1005
327.2722	0.1054
327.4828	0.1033
327.6933	0.1114
327.9039	0.112
328.1144	0.1109
328.3249	0.1092
328.5354	0.106
328.7459	0.1048
328.9564	0.1111
329.1669	0.111
329.3773	0.1059
329.5878	0.1149
329.7982	0.1147
330.0086	0.1112
330.219	0.1161
330.4294	0.1028
330.6398	0.1131
330.8502	0.1158
331.0605	0.1109
331.2708	0.1063
331.4812	0.1108
331.6915	0.1086
331.9018	0.1033
332.1121	0.1098
332.3224	0.1074
332.5326	0.1022
332.7429	0.1153
332.9531	0.1026
333.1633	0.1123
333.3735	0.1202
333.5837	0.1088
333.7939	0.1125
334.0041	0.1095
334.2143	0.1095
334.4244	0.1078
334.6346	0.1066
334.8447	0.1118
335.0548	0.1125
335.2649	0.105
335.475	0.1085
335.685	0.1101
335.8951	0.1083
336.1051	0.1063
336.3152	0.1082
336.5252	0.108
336.7352	0.1089
336.9452	0.1118
337.1552	0.1097
337.3652	0.1168
337.5751	0.115
337.7851	0.1087
337.995	0.1096
338.2049	0.1123
338.4148	0.1156
338.6247	0.1198
338.8346	0.1163
339.0445	0.1157
339.2543	0.1153
339.4642	0.1137
339.674	0.1124
339.8838	0.1093
340.0936	0.1237
340.3034	0.1292
340.5132	0.1133
340.7229	0.1247
340.9327	0.1243
341.1424	0.127
341.3522	0.1207
341.5619	0.1295
341.7716	0.1258
341.9813	0.1224
342.1909	0.1359
342.4006	0.1264
342.6102	0.1167
342.8199	0.1271
343.0295	0.1205
343.2391	0.121
343.4487	0.1251
343.6583	0.1345
343.8679	0.1255
344.0774	0.1261
344.287	0.1321
344.4965	0.1217
344.706	0.1329
344.9155	0.1261
345.125	0.1288
345.3345	0.1335
345.544	0.1204
345.7534	0.1229
345.9629	0.1309
346.1723	0.1361
346.3817	0.1361
346.5911	0.1382
346.8005	0.1358
347.0099	0.1271
347.2193	0.1321
347.4286	0.1322
347.638	0.1437
347.8473	0.1393
348.0566	0.134
348.2659	0.1359
348.4752	0.1397
348.6845	0.1325
348.8937	0.14
349.103	0.135
349.3122	0.1384
349.5214	0.1338
349.7306	0.1401
349.9398	0.1344
350.149	0.143
350.3582	0.1384
350.5674	0.1365
350.7765	0.1396
350.9856	0.135
351.1948	0.1447
351.4039	0.1328
351.613	0.1383
351.822	0.1462
352.0311	0.1445
352.2402	0.1401
352.4492	0.1419
352.6582	0.1445
352.8672	0.1414
353.0762	0.1461
353.2852	0.154
353.4942	0.1415
353.7032	0.1551
353.9121	0.1519
354.1211	0.1474
354.33	0.1424
354.5389	0.1478
354.7478	0.1528
354.9567	0.1461
355.1655	0.1535
355.3744	0.1556
355.5833	0.1492
355.7921	0.1556
356.0009	0.1486
356.2097	0.1525
356.4185	0.1524
356.6273	0.1597
356.8361	0.1475
357.0448	0.1618
357.2536	0.1469
357.4623	0.1549
357.671	0.1593
357.8797	0.1759
358.0884	0.1639
358.2971	0.16
358.5057	0.1631
358.7144	0.1686
358.923	0.168
359.1316	0.1697
359.3402	0.1692
359.5488	0.162
359.7574	0.1721
359.966	0.177
360.1746	0.1679
360.3831	0.1786
360.5916	0.1746
360.8002	0.1741
361.0087	0.1669
361.2172	0.1851
361.4256	0.1738
361.6341	0.1688
361.8426	0.1847
362.051	0.1709
362.2594	0.179
362.4678	0.1773
362.6762	0.1787
362.8846	0.185
363.093	0.1809
363.3014	0.1847
363.5097	0.1793
363.718	0.1888
363.9264	0.1794
364.1347	0.1902
364.343	0.1704
364.5513	0.1878
364.7595	0.1804
364.9678	0.1855
365.176	0.192
365.3842	0.1831
365.5925	0.1867
365.8007	0.1847
366.0089	0.1977
366.217	0.1903
366.4252	0.1982
366.6333	0.183
366.8415	0.198
367.0496	0.1841
367.2577	0.1955
367.4658	0.203
367.6739	0.1937
367.882	0.19
368.09	0.1988
368.2981	0.206
368.5061	0.2046
368.7141	0.1987
368.9221	0.189
369.1301	0.2056
369.3381	0.2042
369.5461	0.2063
369.754	0.1998
369.962	0.1874
370.1699	0.2091
370.3778	0.2022
370.5857	0.2079
370.7936	0.1955
371.0015	0.2093
371.2093	0.203
371.4172	0.2058
371.625	0.212
371.8328	0.2162
372.0406	0.2057
372.2484	0.2095
372.4562	0.2149
372.664	0.2117
372.8717	0.2017
373.0795	0.2106
373.2872	0.2152
373.4949	0.2003
373.7026	0.214
373.9103	0.2078
374.118	0.211
374.3256	0.2155
374.5333	0.2174
374.7409	0.2068
374.9485	0.2136
375.1561	0.2108
375.3637	0.2021
375.5713	0.2165
375.7789	0.2063
375.9864	0.2188
376.194	0.2214
376.4015	0.217
376.609	0.2184
376.8165	0.2133
377.024	0.2071
377.2315	0.2196
377.4389	0.2214
377.6464	0.2078
377.8538	0.224
378.0612	0.219
378.2686	0.226
378.476	0.2103
378.6834	0.2286
378.8908	0.2306
379.0981	0.232
379.3055	0.231
379.5128	0.2176
379.7201	0.2206
379.9274	0.2316
380.1347	0.235
380.342	0.2237
380.5492	0.2298
380.7565	0.2302
380.9637	0.2333
381.1709	0.2301
381.3781	0.2166
381.5853	0.2313
381.7925	0.2337
381.9997	0.2284
382.2068	0.2296
382.4139	0.228
382.6211	0.2281
382.8282	0.2246
383.0353	0.2281
383.2424	0.2313
383.4494	0.232
383.6565	0.2172
383.8635	0.2435
384.0706	0.2314
384.2776	0.2324
384.4846	0.2209
384.6916	0.2263
384.8986	0.2242
385.1055	0.2387
385.3125	0.2395
385.5194	0.2358
385.7263	0.2364
385.9333	0.2391
386.1402	0.2353
386.347	0.2427
386.5539	0.2361
386.7608	0.2286
386.9676	0.2398
387.1744	0.2253
387.3813	0.2229
387.5881	0.2209
387.7948	0.2258
388.0016	0.2303
388.2084	0.2292
388.4151	0.2287
388.6219	0.2295
388.8286	0.2356
389.0353	0.2186
389.242	0.2155
389.4487	0.22
389.6553	0.2353
389.862	0.2124
390.0686	0.2117
390.2753	0.219
390.4819	0.2165
390.6885	0.2218
390.8951	0.228
391.1016	0.2206
391.3082	0.2191
391.5147	0.2173
391.7213	0.2167
391.9278	0.208
392.1343	0.2122
392.3408	0.2093
392.5473	0.214
392.7537	0.2242
392.9602	0.2021
393.1666	0.2107
393.373	0.2074
393.5794	0.2142
393.7858	0.206
393.9922	0.2042
394.1986	0.2005
394.4049	0.2156
394.6113	0.2069
394.8176	0.1946
395.0239	0.1989
395.2302	0.189
395.4365	0.203
395.6428	0.1935
395.8491	0.2026
396.0553	0.1984
396.2615	0.1966
396.4678	0.2027
396.674	0.2008
396.8802	0.1936
397.0863	0.1944
397.2925	0.201
397.4987	0.2006
397.7048	0.1962
397.9109	0.202
398.117	0.1945
398.3231	0.1927
398.5292	0.1823
398.7353	0.1966
398.9413	0.1939
399.1474	0.1907
399.3534	0.2019
399.5594	0.1893
399.7654	0.1939
399.9714	0.1904
400.1774	0.1941
400.3833	0.1925
400.5893	0.1855
400.7952	0.1842
401.0011	0.1933
401.207	0.1908
401.4129	0.1714
401.6188	0.1788
401.8247	0.1806
402.0305	0.1836
402.2364	0.1887
402.4422	0.1841
402.648	0.1954
402.8538	0.1899
403.0596	0.1732
403.2654	0.1811
403.4711	0.1781
403.6768	0.2019
403.8826	0.182
404.0883	0.1944
404.294	0.1921
404.4997	0.1899
404.7054	0.1787
404.911	0.1835
405.1167	0.1958
405.3223	0.1865
405.5279	0.1855
405.7335	0.1856
405.9391	0.1975
406.1447	0.1879
406.3502	0.1965
406.5558	0.1863
406.7613	0.1864
406.9668	0.1902
407.1724	0.1929
407.3778	0.1892
407.5833	0.1875
407.7888	0.1888
407.9942	0.1885
408.1997	0.193
408.4051	0.1859
408.6105	0.1847
408.8159	0.207
409.0213	0.1847
409.2267	0.1803
409.432	0.1959
409.6374	0.1868
409.8427	0.2007
410.048	0.1854
410.2533	0.1891
410.4586	0.1749
410.6639	0.1826
410.8691	0.1791
411.0744	0.1773
411.2796	0.1885
411.4848	0.1775
411.69	0.1834
411.8952	0.1815
412.1004	0.1936
412.3056	0.1863
412.5107	0.1893
412.7158	0.1815
412.921	0.1777
413.1261	0.1753
413.3312	0.1862
413.5362	0.1859
413.7413	0.1894
413.9464	0.1797
414.1514	0.1753
414.3564	0.1861
414.5614	0.1803
414.7664	0.1917
414.9714	0.1821
415.1764	0.174
415.3813	0.1753
415.5863	0.176
415.7912	0.1895
415.9961	0.1885
416.201	0.1837
416.4059	0.1827
416.6108	0.1793
416.8156	0.1811
417.0205	0.1764
417.2253	0.1722
417.4301	0.1915
417.6349	0.1807
417.8397	0.1839
418.0445	0.1858
418.2492	0.1813
418.454	0.1724
418.6587	0.1733
418.8634	0.1732
419.0681	0.1736
419.2728	0.1724
419.4775	0.1755
419.6822	0.1789
419.8868	0.1696
420.0915	0.1751
420.2961	0.1726
420.5007	0.1709
420.7053	0.1689
420.9099	0.1529
421.1144	0.1695
421.319	0.1602
421.5235	0.1747
421.728	0.1661
421.9325	0.1551
422.137	0.1608
422.3415	0.1725
422.546	0.1647
422.7504	0.1688
422.9549	0.1711
423.1593	0.1655
423.3637	0.1658
423.5681	0.1654
423.7725	0.1549
423.9769	0.1662
424.1812	0.157
424.3856	0.1521
424.5899	0.1679
424.7942	0.1596
424.9985	0.1515
425.2028	0.148
425.4071	0.1541
425.6113	0.1552
425.8156	0.1571
426.0198	0.157
426.224	0.1555
426.4282	0.1423
426.6324	0.1669
426.8366	0.15
427.0407	0.1453
