Data from MonoPyChalIsomerACN10uM450nmA_Absorbance_13-11-23-692.txt Node
Date: Tue Jul 09 13:11:23 BST 2024
User: LASERRRRR
Spectrometer: FLMT03099
Trigger mode: 0
Integration Time (sec): 2.000000E-1
Scans to average: 1
Electric dark correction enabled: true
Nonlinearity correction enabled: false
Boxcar width: 0
XAxis mode: Wavelengths
Number of Pixels in Spectrum: 3648
>>>>>Begin Spectral Data<<<<<
179.3399	-0.0181
179.5586	-0.0181
179.7771	-0.0181
179.9957	-0.4256
180.2143	-0
180.4329	-0.0554
180.6514	0.6073
180.8699	-0
181.0885	-0
181.307	1.2693
181.5255	-0
181.744	1.7284
181.9625	0.1182
182.181	-0
182.3994	0.1392
182.6179	-0.493
182.8363	-0
183.0547	0.132
183.2732	0.1105
183.4916	-0.0378
183.71	0.0662
183.9284	0.0046
184.1467	-0.0193
184.3651	0.0445
184.5835	0.047
184.8018	0.0583
185.0201	0.0574
185.2385	0.0168
185.4568	-0.1319
185.6751	0.1065
185.8934	0.0034
186.1117	0.07
186.3299	-0.144
186.5482	-0.019
186.7664	-0.0811
186.9847	0.1597
187.2029	0.1855
187.4211	0.0193
187.6393	-0.165
187.8575	0.0776
188.0757	-0.0182
188.2939	0.035
188.512	0.1001
188.7302	-0.0122
188.9483	0.0875
189.1665	0.021
189.3846	0.0508
189.6027	0.0378
189.8208	0.0153
190.0389	0.1238
190.257	0.1277
190.475	0.223
190.6931	0.0771
190.9111	0.2178
191.1292	0.2448
191.3472	0.3594
191.5652	0.2943
191.7832	0.2475
192.0012	0.2812
192.2192	0.3491
192.4371	0.3799
192.6551	0.5203
192.873	0.3139
193.091	0.4138
193.3089	0.4927
193.5268	0.4612
193.7447	0.4254
193.9626	0.4853
194.1805	0.5239
194.3984	0.547
194.6162	0.5909
194.8341	0.5151
195.0519	0.576
195.2697	0.5741
195.4875	0.5683
195.7054	0.5478
195.9231	0.5472
196.1409	0.6109
196.3587	0.5341
196.5765	0.6945
196.7942	0.7596
197.012	0.6542
197.2297	0.656
197.4474	0.7425
197.6651	0.7006
197.8828	0.7579
198.1005	0.8143
198.3182	0.7228
198.5358	0.6308
198.7535	0.8369
198.9711	0.8137
199.1888	0.7
199.4064	0.7587
199.624	0.6848
199.8416	0.728
200.0592	0.7587
200.2767	0.7516
200.4943	0.7769
200.7119	0.7913
200.9294	0.8145
201.1469	0.7958
201.3645	0.7675
201.582	0.8275
201.7995	0.7253
202.017	0.924
202.2344	0.723
202.4519	0.8228
202.6694	0.7992
202.8868	0.7872
203.1042	0.9349
203.3217	0.9377
203.5391	0.9406
203.7565	0.9356
203.9739	0.8166
204.1913	0.7978
204.4086	0.9294
204.626	0.916
204.8433	0.9128
205.0607	0.8516
205.278	0.9192
205.4953	0.9997
205.7126	0.8902
205.9299	1.0669
206.1472	0.9514
206.3644	0.9604
206.5817	0.9052
206.7989	1.027
207.0162	1.0018
207.2334	0.9317
207.4506	0.9821
207.6678	1.0781
207.885	0.9743
208.1022	1.0023
208.3194	1.1027
208.5365	1.0365
208.7537	0.976
208.9708	0.9762
209.1879	1.0338
209.405	1.0052
209.6222	1.0392
209.8392	1.1129
210.0563	1.0274
210.2734	1.0597
210.4905	1.04
210.7075	0.9777
210.9245	0.9975
211.1416	1.0809
211.3586	1.0672
211.5756	1.0476
211.7926	0.979
212.0096	0.9546
212.2265	1.0662
212.4435	1.0551
212.6604	1.0459
212.8774	0.9853
213.0943	0.9221
213.3112	0.9687
213.5281	1.0609
213.745	0.9368
213.9619	0.9563
214.1788	0.8962
214.3956	0.8729
214.6125	0.8686
214.8293	0.862
215.0461	0.862
215.2629	0.8739
215.4798	0.829
215.6965	0.8319
215.9133	0.8393
216.1301	0.7791
216.3469	0.8215
216.5636	0.7825
216.7803	0.7389
216.9971	0.7226
217.2138	0.7197
217.4305	0.6526
217.6472	0.6645
217.8639	0.63
218.0805	0.5899
218.2972	0.5709
218.5138	0.524
218.7305	0.5099
218.9471	0.4584
219.1637	0.443
219.3803	0.4441
219.5969	0.3765
219.8135	0.3678
220.0301	0.3484
220.2466	0.3653
220.4632	0.325
220.6797	0.3176
220.8962	0.315
221.1127	0.3006
221.3292	0.3002
221.5457	0.2867
221.7622	0.292
221.9787	0.2733
222.1951	0.2823
222.4116	0.2673
222.628	0.2628
222.8444	0.2768
223.0608	0.2731
223.2772	0.2705
223.4936	0.2679
223.71	0.2785
223.9264	0.283
224.1427	0.253
224.3591	0.2667
224.5754	0.2721
224.7917	0.267
225.008	0.264
225.2243	0.2648
225.4406	0.2835
225.6569	0.2755
225.8732	0.2844
226.0894	0.2774
226.3057	0.288
226.5219	0.2782
226.7381	0.2769
226.9543	0.2894
227.1705	0.2802
227.3867	0.2938
227.6029	0.2949
227.8191	0.2845
228.0352	0.3004
228.2513	0.3092
228.4675	0.3026
228.6836	0.3142
228.8997	0.3113
229.1158	0.3044
229.3319	0.3187
229.548	0.3276
229.764	0.316
229.9801	0.3275
230.1961	0.3333
230.4121	0.3257
230.6282	0.3414
230.8442	0.3455
231.0602	0.3408
231.2761	0.3397
231.4921	0.335
231.7081	0.3638
231.924	0.3497
232.14	0.3586
232.3559	0.3604
232.5718	0.3553
232.7877	0.3406
233.0036	0.3633
233.2195	0.3699
233.4353	0.3691
233.6512	0.3746
233.867	0.38
234.0829	0.3763
234.2987	0.3834
234.5145	0.3745
234.7303	0.3914
234.9461	0.3935
235.1619	0.3793
235.3776	0.3833
235.5934	0.3909
235.8091	0.3956
236.0249	0.3832
236.2406	0.3917
236.4563	0.396
236.672	0.3892
236.8877	0.4013
237.1034	0.4053
237.319	0.3987
237.5347	0.3985
237.7503	0.4085
237.966	0.4119
238.1816	0.4075
238.3972	0.4098
238.6128	0.4163
238.8284	0.4103
239.0439	0.4011
239.2595	0.4211
239.475	0.4122
239.6906	0.412
239.9061	0.4082
240.1216	0.4128
240.3371	0.4185
240.5526	0.4195
240.7681	0.4048
240.9836	0.4094
241.199	0.4114
241.4145	0.3833
241.6299	0.4043
241.8453	0.401
242.0607	0.38
242.2761	0.3875
242.4915	0.3862
242.7069	0.3787
242.9223	0.3684
243.1376	0.3775
243.353	0.348
243.5683	0.3583
243.7836	0.3498
243.9989	0.3328
244.2142	0.3349
244.4295	0.3277
244.6448	0.3315
244.86	0.3161
245.0753	0.3038
245.2905	0.2952
245.5057	0.3015
245.721	0.2955
245.9362	0.2846
246.1514	0.2859
246.3665	0.287
246.5817	0.272
246.7969	0.2664
247.012	0.2726
247.2271	0.265
247.4423	0.2636
247.6574	0.2683
247.8725	0.2564
248.0876	0.2499
248.3026	0.2497
248.5177	0.2376
248.7328	0.2351
248.9478	0.2368
249.1628	0.2352
249.3779	0.2261
249.5929	0.2283
249.8079	0.2274
250.0228	0.2221
250.2378	0.2303
250.4528	0.2154
250.6677	0.2206
250.8827	0.2038
251.0976	0.208
251.3125	0.2174
251.5274	0.2004
251.7423	0.21
251.9572	0.205
252.172	0.2136
252.3869	0.2057
252.6017	0.2055
252.8166	0.2097
253.0314	0.2058
253.2462	0.2084
253.461	0.1977
253.6758	0.1983
253.8906	0.2019
254.1053	0.2041
254.3201	0.1994
254.5348	0.1918
254.7496	0.2011
254.9643	0.1949
255.179	0.1911
255.3937	0.1976
255.6083	0.2016
255.823	0.1981
256.0377	0.1972
256.2523	0.1954
256.467	0.199
256.6816	0.1865
256.8962	0.1972
257.1108	0.2004
257.3254	0.1991
257.54	0.193
257.7545	0.1952
257.9691	0.1871
258.1836	0.1995
258.3981	0.2016
258.6127	0.2006
258.8272	0.1859
259.0417	0.1872
259.2561	0.1895
259.4706	0.1889
259.6851	0.1936
259.8995	0.1964
260.114	0.1926
260.3284	0.203
260.5428	0.1953
260.7572	0.1944
260.9716	0.2005
261.186	0.1945
261.4003	0.2002
261.6147	0.1922
261.829	0.197
262.0433	0.1967
262.2577	0.1944
262.472	0.1934
262.6863	0.1884
262.9005	0.198
263.1148	0.1887
263.3291	0.1859
263.5433	0.1889
263.7576	0.1876
263.9718	0.1927
264.186	0.1879
264.4002	0.1819
264.6144	0.1815
264.8286	0.1782
265.0427	0.1856
265.2569	0.1834
265.471	0.1791
265.6851	0.1806
265.8993	0.1742
266.1134	0.1796
266.3275	0.1875
266.5415	0.1775
266.7556	0.1841
266.9697	0.1741
267.1837	0.1758
267.3978	0.1905
267.6118	0.1984
267.8258	0.1913
268.0398	0.1986
268.2538	0.1978
268.4677	0.195
268.6817	0.1983
268.8957	0.1891
269.1096	0.1832
269.3235	0.185
269.5374	0.1771
269.7514	0.1619
269.9652	0.1643
270.1791	0.1588
270.393	0.1537
270.6068	0.1502
270.8207	0.1505
271.0345	0.1617
271.2483	0.1473
271.4622	0.1549
271.676	0.1406
271.8897	0.1404
272.1035	0.1426
272.3173	0.1485
272.531	0.1422
272.7448	0.1441
272.9585	0.1448
273.1722	0.1408
273.3859	0.1369
273.5996	0.1343
273.8133	0.1485
274.0269	0.1461
274.2406	0.1417
274.4542	0.1373
274.6679	0.1341
274.8815	0.1426
275.0951	0.1457
275.3087	0.1347
275.5223	0.1369
275.7358	0.1397
275.9494	0.1454
276.1629	0.14
276.3765	0.1456
276.59	0.1429
276.8035	0.146
277.017	0.1424
277.2305	0.1452
277.444	0.1405
277.6574	0.142
277.8709	0.151
278.0843	0.1464
278.2978	0.1483
278.5112	0.1474
278.7246	0.1398
278.938	0.1499
279.1513	0.1487
279.3647	0.1477
279.5781	0.1422
279.7914	0.1568
280.0047	0.146
280.2181	0.1485
280.4314	0.1539
280.6447	0.1455
280.8579	0.1507
281.0712	0.1476
281.2845	0.1538
281.4977	0.1498
281.711	0.1527
281.9242	0.1453
282.1374	0.1474
282.3506	0.1469
282.5638	0.1538
282.7769	0.1553
282.9901	0.1467
283.2033	0.1513
283.4164	0.1628
283.6295	0.1578
283.8426	0.1574
284.0557	0.1524
284.2688	0.1544
284.4819	0.1451
284.695	0.1532
284.908	0.156
285.1211	0.1615
285.3341	0.1519
285.5471	0.1555
285.7601	0.1537
285.9731	0.1583
286.1861	0.1603
286.3991	0.1529
286.612	0.1617
286.825	0.1539
287.0379	0.1571
287.2508	0.1454
287.4637	0.1584
287.6766	0.1554
287.8895	0.1663
288.1024	0.1524
288.3152	0.1482
288.5281	0.1596
288.7409	0.1517
288.9538	0.1608
289.1666	0.1683
289.3794	0.1602
289.5922	0.1591
289.8049	0.1613
290.0177	0.1568
290.2304	0.16
290.4432	0.1529
290.6559	0.1644
290.8686	0.1603
291.0813	0.1588
291.294	0.1576
291.5067	0.1534
291.7194	0.1621
291.932	0.1628
292.1447	0.161
292.3573	0.156
292.5699	0.1771
292.7825	0.1617
292.9951	0.1589
293.2077	0.154
293.4203	0.1518
293.6328	0.1628
293.8454	0.1534
294.0579	0.1538
294.2704	0.1606
294.4829	0.1617
294.6954	0.1528
294.9079	0.1589
295.1204	0.164
295.3328	0.155
295.5453	0.1506
295.7577	0.1535
295.9701	0.1552
296.1825	0.1621
296.3949	0.1485
296.6073	0.1596
296.8197	0.1576
297.0321	0.1611
297.2444	0.1514
297.4567	0.1487
297.6691	0.1577
297.8814	0.1543
298.0937	0.1636
298.306	0.1599
298.5182	0.1425
298.7305	0.1638
298.9428	0.1486
299.155	0.1583
299.3672	0.1532
299.5794	0.1623
299.7916	0.1564
300.0038	0.1616
300.216	0.1647
300.4282	0.1534
300.6403	0.1572
300.8525	0.1572
301.0646	0.1583
301.2767	0.1593
301.4888	0.1463
301.7009	0.1558
301.913	0.1583
302.125	0.1544
302.3371	0.1595
302.5491	0.1473
302.7612	0.1536
302.9732	0.1574
303.1852	0.1546
303.3972	0.1543
303.6092	0.1483
303.8211	0.1528
304.0331	0.1509
304.245	0.147
304.457	0.1575
304.6689	0.1554
304.8808	0.1566
305.0927	0.1478
305.3046	0.1465
305.5164	0.1512
305.7283	0.1461
305.9401	0.1521
306.152	0.1484
306.3638	0.1544
306.5756	0.1435
306.7874	0.145
306.9992	0.1369
307.2109	0.1348
307.4227	0.1396
307.6344	0.1306
307.8462	0.1309
308.0579	0.1299
308.2696	0.1316
308.4813	0.1297
308.693	0.1229
308.9046	0.1201
309.1163	0.1248
309.328	0.1191
309.5396	0.1182
309.7512	0.1233
309.9628	0.1213
310.1744	0.1145
310.386	0.1107
310.5976	0.1137
310.8091	0.1145
311.0207	0.1195
311.2322	0.1149
311.4437	0.1145
311.6552	0.1105
311.8667	0.107
312.0782	0.1078
312.2897	0.101
312.5012	0.1107
312.7126	0.1004
312.924	0.0992
313.1355	0.1028
313.3469	0.1039
313.5583	0.1025
313.7696	0.1018
313.981	0.1009
314.1924	0.0978
314.4037	0.0986
314.6151	0.0949
314.8264	0.0977
315.0377	0.0988
315.249	0.0946
315.4603	0.0999
315.6716	0.0973
315.8828	0.0988
316.0941	0.096
316.3053	0.0915
316.5165	0.0914
316.7277	0.088
316.9389	0.1016
317.1501	0.0901
317.3613	0.0926
317.5724	0.093
317.7836	0.0943
317.9947	0.0984
318.2058	0.0855
318.417	0.0836
318.6281	0.0893
318.8391	0.093
319.0502	0.0931
319.2613	0.0963
319.4723	0.093
319.6834	0.0958
319.8944	0.1008
320.1054	0.0977
320.3164	0.0991
320.5274	0.1029
320.7383	0.0939
320.9493	0.0935
321.1602	0.0942
321.3712	0.1024
321.5821	0.0991
321.793	0.088
322.0039	0.0969
322.2148	0.0962
322.4257	0.0963
322.6365	0.0905
322.8474	0.0937
323.0582	0.1125
323.269	0.096
323.4798	0.1032
323.6906	0.0976
323.9014	0.098
324.1122	0.0989
324.3229	0.0992
324.5337	0.0861
324.7444	0.0956
324.9551	0.1038
325.1658	0.1007
325.3765	0.0953
325.5872	0.0974
325.7979	0.1023
326.0085	0.1036
326.2192	0.0928
326.4298	0.1063
326.6404	0.0995
326.851	0.099
327.0616	0.0948
327.2722	0.0976
327.4828	0.098
327.6933	0.1047
327.9039	0.1033
328.1144	0.102
328.3249	0.0996
328.5354	0.1046
328.7459	0.0977
328.9564	0.0935
329.1669	0.1041
329.3773	0.1028
329.5878	0.1117
329.7982	0.1003
330.0086	0.1008
330.219	0.1069
330.4294	0.0966
330.6398	0.1024
330.8502	0.1073
331.0605	0.1066
331.2708	0.1058
331.4812	0.1041
331.6915	0.0981
331.9018	0.1017
332.1121	0.1068
332.3224	0.0983
332.5326	0.1042
332.7429	0.1019
332.9531	0.1048
333.1633	0.1126
333.3735	0.1067
333.5837	0.1102
333.7939	0.105
334.0041	0.1119
334.2143	0.1033
334.4244	0.1018
334.6346	0.0999
334.8447	0.1078
335.0548	0.1063
335.2649	0.0965
335.475	0.1007
335.685	0.1069
335.8951	0.1091
336.1051	0.0945
336.3152	0.1028
336.5252	0.1078
336.7352	0.1095
336.9452	0.1062
337.1552	0.1009
337.3652	0.1103
337.5751	0.1111
337.7851	0.1036
337.995	0.1045
338.2049	0.1118
338.4148	0.1121
338.6247	0.1049
338.8346	0.1045
339.0445	0.1068
339.2543	0.1102
339.4642	0.1085
339.674	0.1103
339.8838	0.106
340.0936	0.1105
340.3034	0.1209
340.5132	0.1143
340.7229	0.1195
340.9327	0.1144
341.1424	0.1163
341.3522	0.1124
341.5619	0.1267
341.7716	0.1169
341.9813	0.1193
342.1909	0.1215
342.4006	0.1108
342.6102	0.1156
342.8199	0.1182
343.0295	0.1158
343.2391	0.1237
343.4487	0.1186
343.6583	0.1173
343.8679	0.1129
344.0774	0.1174
344.287	0.1256
344.4965	0.1222
344.706	0.1259
344.9155	0.1244
345.125	0.1337
345.3345	0.1267
345.544	0.1154
345.7534	0.1172
345.9629	0.1228
346.1723	0.1326
346.3817	0.1313
346.5911	0.1378
346.8005	0.12
347.0099	0.1292
347.2193	0.1349
347.4286	0.1334
347.638	0.1316
347.8473	0.1257
348.0566	0.1345
348.2659	0.1232
348.4752	0.1393
348.6845	0.134
348.8937	0.1326
349.103	0.1332
349.3122	0.1294
349.5214	0.1312
349.7306	0.1342
349.9398	0.1325
350.149	0.1327
350.3582	0.1249
350.5674	0.1392
350.7765	0.134
350.9856	0.1303
351.1948	0.1383
351.4039	0.1307
351.613	0.1254
351.822	0.138
352.0311	0.1456
352.2402	0.134
352.4492	0.136
352.6582	0.1325
352.8672	0.1452
353.0762	0.1483
353.2852	0.1446
353.4942	0.1514
353.7032	0.1483
353.9121	0.144
354.1211	0.1459
354.33	0.1439
354.5389	0.1446
354.7478	0.1528
354.9567	0.1462
355.1655	0.1543
355.3744	0.1569
355.5833	0.1465
355.7921	0.1418
356.0009	0.1485
356.2097	0.1485
356.4185	0.1576
356.6273	0.1521
356.8361	0.1495
357.0448	0.158
357.2536	0.1498
357.4623	0.1547
357.671	0.1598
357.8797	0.1569
358.0884	0.1693
358.2971	0.1689
358.5057	0.1645
358.7144	0.1642
358.923	0.1664
359.1316	0.1595
359.3402	0.1679
359.5488	0.1624
359.7574	0.1771
359.966	0.1708
360.1746	0.1734
360.3831	0.1792
360.5916	0.1736
360.8002	0.1818
361.0087	0.1741
361.2172	0.1773
361.4256	0.1852
361.6341	0.1672
361.8426	0.1793
362.051	0.1647
362.2594	0.184
362.4678	0.1784
362.6762	0.1807
362.8846	0.179
363.093	0.1861
363.3014	0.1763
363.5097	0.1778
363.718	0.1927
363.9264	0.1804
364.1347	0.1883
364.343	0.1825
364.5513	0.1939
364.7595	0.1937
364.9678	0.1834
365.176	0.191
365.3842	0.1811
365.5925	0.1874
365.8007	0.1875
366.0089	0.2035
366.217	0.1987
366.4252	0.2005
366.6333	0.1923
366.8415	0.1919
367.0496	0.1957
367.2577	0.2035
367.4658	0.193
367.6739	0.1976
367.882	0.1948
368.09	0.196
368.2981	0.198
368.5061	0.1947
368.7141	0.2142
368.9221	0.1943
369.1301	0.2086
369.3381	0.2137
369.5461	0.2037
369.754	0.2078
369.962	0.2062
370.1699	0.2127
370.3778	0.204
370.5857	0.211
370.7936	0.2031
371.0015	0.212
371.2093	0.1999
371.4172	0.2202
371.625	0.209
371.8328	0.2242
372.0406	0.2232
372.2484	0.2148
372.4562	0.2273
372.664	0.2152
372.8717	0.2204
373.0795	0.2113
373.2872	0.2183
373.4949	0.2086
373.7026	0.2193
373.9103	0.2189
374.118	0.2254
374.3256	0.2139
374.5333	0.2087
374.7409	0.2198
374.9485	0.2188
375.1561	0.2313
375.3637	0.2194
375.5713	0.2244
375.7789	0.2216
375.9864	0.2181
376.194	0.2221
376.4015	0.2326
376.609	0.2274
376.8165	0.2294
377.024	0.2182
377.2315	0.2299
377.4389	0.2204
377.6464	0.2221
377.8538	0.2303
378.0612	0.23
378.2686	0.2249
378.476	0.2313
378.6834	0.2398
378.8908	0.2404
379.0981	0.24
379.3055	0.237
379.5128	0.2343
379.7201	0.2333
379.9274	0.2385
380.1347	0.2496
380.342	0.2408
380.5492	0.2324
380.7565	0.2473
380.9637	0.2432
381.1709	0.2396
381.3781	0.238
381.5853	0.2454
381.7925	0.2445
381.9997	0.2381
382.2068	0.2385
382.4139	0.2528
382.6211	0.2442
382.8282	0.2388
383.0353	0.2333
383.2424	0.2408
383.4494	0.2589
383.6565	0.2351
383.8635	0.2509
384.0706	0.2414
384.2776	0.2541
384.4846	0.2543
384.6916	0.2472
384.8986	0.2436
385.1055	0.2523
385.3125	0.2598
385.5194	0.2541
385.7263	0.2433
385.9333	0.2467
386.1402	0.2419
386.347	0.2553
386.5539	0.2478
386.7608	0.2424
386.9676	0.2427
387.1744	0.2377
387.3813	0.2492
387.5881	0.2462
387.7948	0.2466
388.0016	0.2403
388.2084	0.2431
388.4151	0.2311
388.6219	0.2482
388.8286	0.2532
389.0353	0.2333
389.242	0.2385
389.4487	0.2393
389.6553	0.2442
389.862	0.2317
390.0686	0.2252
390.2753	0.2298
390.4819	0.2405
390.6885	0.2272
390.8951	0.2418
391.1016	0.2399
391.3082	0.2325
391.5147	0.2362
391.7213	0.2255
391.9278	0.2285
392.1343	0.2286
392.3408	0.217
392.5473	0.2337
392.7537	0.2365
392.9602	0.2195
393.1666	0.2221
393.373	0.2201
393.5794	0.2254
393.7858	0.217
393.9922	0.2138
394.1986	0.2045
394.4049	0.232
394.6113	0.2251
394.8176	0.2168
395.0239	0.2061
395.2302	0.2079
395.4365	0.2218
395.6428	0.2039
395.8491	0.2048
396.0553	0.2085
396.2615	0.2047
396.4678	0.2185
396.674	0.2051
396.8802	0.2114
397.0863	0.2076
397.2925	0.207
397.4987	0.2062
397.7048	0.2009
397.9109	0.2148
398.117	0.2053
398.3231	0.2031
398.5292	0.1969
398.7353	0.208
398.9413	0.2115
399.1474	0.2049
399.3534	0.2037
399.5594	0.1935
399.7654	0.2036
399.9714	0.2042
400.1774	0.2027
400.3833	0.2093
400.5893	0.2039
400.7952	0.2028
401.0011	0.2
401.207	0.1935
401.4129	0.1854
401.6188	0.197
401.8247	0.1955
402.0305	0.1955
402.2364	0.2039
402.4422	0.2112
402.648	0.223
402.8538	0.2066
403.0596	0.1938
403.2654	0.2072
403.4711	0.1983
403.6768	0.2084
403.8826	0.2009
404.0883	0.2111
404.294	0.2079
404.4997	0.2016
404.7054	0.1994
404.911	0.2044
405.1167	0.211
405.3223	0.2032
405.5279	0.1982
405.7335	0.2071
405.9391	0.2068
406.1447	0.1958
406.3502	0.1922
406.5558	0.1968
406.7613	0.1936
406.9668	0.1942
407.1724	0.1869
407.3778	0.2086
407.5833	0.2006
407.7888	0.2159
407.9942	0.2026
408.1997	0.2033
408.4051	0.2077
408.6105	0.2162
408.8159	0.2115
409.0213	0.1889
409.2267	0.2135
409.432	0.2019
409.6374	0.198
409.8427	0.2123
410.048	0.2075
410.2533	0.1969
410.4586	0.2033
410.6639	0.2019
410.8691	0.204
411.0744	0.1977
411.2796	0.2046
411.4848	0.1993
411.69	0.1992
411.8952	0.2078
412.1004	0.1935
412.3056	0.2024
412.5107	0.2097
412.7158	0.2004
412.921	0.2002
413.1261	0.1923
413.3312	0.2128
413.5362	0.2067
413.7413	0.189
413.9464	0.1993
414.1514	0.1937
414.3564	0.1928
414.5614	0.2054
414.7664	0.1984
414.9714	0.1826
415.1764	0.1943
415.3813	0.1911
415.5863	0.1971
415.7912	0.2024
415.9961	0.189
416.201	0.1987
416.4059	0.1866
416.6108	0.1937
416.8156	0.1972
417.0205	0.2069
417.2253	0.2038
417.4301	0.1967
417.6349	0.1934
417.8397	0.1817
418.0445	0.1977
418.2492	0.2023
418.454	0.1984
418.6587	0.1834
418.8634	0.1945
419.0681	0.1867
419.2728	0.1919
419.4775	0.1849
419.6822	0.1934
419.8868	0.188
420.0915	0.1884
420.2961	0.1894
420.5007	0.1879
420.7053	0.1729
420.9099	0.171
421.1144	0.1893
421.319	0.1804
421.5235	0.1859
421.728	0.1832
421.9325	0.1705
422.137	0.1776
422.3415	0.187
422.546	0.1868
422.7504	0.1779
422.9549	0.1834
423.1593	0.1728
423.3637	0.1692
423.5681	0.1913
423.7725	0.1687
423.9769	0.1686
424.1812	0.1684
424.3856	0.1719
424.5899	0.1834
424.7942	0.1748
424.9985	0.1694
425.2028	0.1473
425.4071	0.1639
425.6113	0.1659
425.8156	0.1659
426.0198	0.1738
426.224	0.1541
426.4282	0.1542
426.6324	0.1679
