Data from MonoPyChalIsomerACN10uM450nmA_Absorbance_13-11-20-292.txt Node
Date: Tue Jul 09 13:11:20 BST 2024
User: LASERRRRR
Spectrometer: FLMT03099
Trigger mode: 0
Integration Time (sec): 2.000000E-1
Scans to average: 1
Electric dark correction enabled: true
Nonlinearity correction enabled: false
Boxcar width: 0
XAxis mode: Wavelengths
Number of Pixels in Spectrum: 3648
>>>>>Begin Spectral Data<<<<<
179.3399	0.1223
179.5586	0.1223
179.7771	0.1223
179.9957	-0.2241
180.2143	-0.394
180.4329	0.1435
180.6514	-0
180.8699	-0
181.0885	0.1021
181.307	-0
181.5255	0.4282
181.744	-0
181.9625	0.6577
182.181	1.3817
182.3994	-0.1015
182.6179	-0.4149
182.8363	-0.3195
183.0547	0.0956
183.2732	0.1852
183.4916	-0.0082
183.71	0.1791
183.9284	-0.0621
184.1467	0.0677
184.3651	0.2355
184.5835	0.1407
184.8018	-0.0351
185.0201	0.1556
185.2385	0.0212
185.4568	-0.1049
185.6751	0.1539
185.8934	-0.0466
186.1117	0.0866
186.3299	-0.0292
186.5482	0.0479
186.7664	-0.0165
186.9847	0.1437
187.2029	0.047
187.4211	-0.037
187.6393	-0.0021
187.8575	0.2907
188.0757	-0.0133
188.2939	-0.0039
188.512	-0.0443
188.7302	-0.027
188.9483	0.1641
189.1665	0.1263
189.3846	0.0819
189.6027	0.2298
189.8208	0.1781
190.0389	0.2544
190.257	0.2568
190.475	0.1067
190.6931	0.1804
190.9111	0.4283
191.1292	0.2543
191.3472	0.2647
191.5652	0.3469
191.7832	0.3361
192.0012	0.4632
192.2192	0.3899
192.4371	0.5157
192.6551	0.4921
192.873	0.4685
193.091	0.4926
193.3089	0.6213
193.5268	0.5167
193.7447	0.4893
193.9626	0.4676
194.1805	0.5133
194.3984	0.6701
194.6162	0.5905
194.8341	0.5692
195.0519	0.5261
195.2697	0.65
195.4875	0.6649
195.7054	0.6344
195.9231	0.7031
196.1409	0.5877
196.3587	0.5759
196.5765	0.6281
196.7942	0.7564
197.012	0.6939
197.2297	0.6886
197.4474	0.7837
197.6651	0.6468
197.8828	0.7974
198.1005	0.8694
198.3182	0.793
198.5358	0.7628
198.7535	0.7386
198.9711	0.8087
199.1888	0.7449
199.4064	0.8518
199.624	0.7656
199.8416	0.7706
200.0592	0.8379
200.2767	0.818
200.4943	0.7597
200.7119	0.787
200.9294	0.8369
201.1469	0.7776
201.3645	0.8632
201.582	0.9063
201.7995	0.7745
202.017	0.9696
202.2344	0.8806
202.4519	0.9247
202.6694	0.8127
202.8868	0.9839
203.1042	0.9966
203.3217	1.1337
203.5391	0.9318
203.7565	0.8504
203.9739	0.8536
204.1913	0.8173
204.4086	0.9773
204.626	1.0061
204.8433	0.943
205.0607	0.9645
205.278	0.9406
205.4953	1.0979
205.7126	0.8514
205.9299	0.9724
206.1472	0.973
206.3644	0.9025
206.5817	1.0596
206.7989	1.1087
207.0162	1.0698
207.2334	1.0193
207.4506	0.9818
207.6678	0.9843
207.885	1.0957
208.1022	1.0731
208.3194	1.1065
208.5365	1.0804
208.7537	1.07
208.9708	1.08
209.1879	1.0132
209.405	1.1096
209.6222	1.0509
209.8392	1.1853
210.0563	1.0488
210.2734	1.0379
210.4905	1.1379
210.7075	0.9601
210.9245	1.0302
211.1416	1.1169
211.3586	1.0924
211.5756	1.1185
211.7926	1.1007
212.0096	1.0097
212.2265	1.0692
212.4435	1.1654
212.6604	1.0815
212.8774	1.0499
213.0943	1.078
213.3112	1.0524
213.5281	0.9846
213.745	1.0118
213.9619	0.9291
214.1788	1.0251
214.3956	0.8859
214.6125	0.9693
214.8293	0.9472
215.0461	0.9209
215.2629	0.8703
215.4798	0.8117
215.6965	0.8821
215.9133	0.8539
216.1301	0.837
216.3469	0.8033
216.5636	0.8036
216.7803	0.7464
216.9971	0.7542
217.2138	0.727
217.4305	0.7039
217.6472	0.6732
217.8639	0.662
218.0805	0.6109
218.2972	0.5789
218.5138	0.5286
218.7305	0.5114
218.9471	0.4729
219.1637	0.4691
219.3803	0.4316
219.5969	0.384
219.8135	0.3896
220.0301	0.3705
220.2466	0.368
220.4632	0.3416
220.6797	0.3122
220.8962	0.3116
221.1127	0.3016
221.3292	0.2958
221.5457	0.2928
221.7622	0.2899
221.9787	0.2903
222.1951	0.3002
222.4116	0.2707
222.628	0.2849
222.8444	0.2561
223.0608	0.2713
223.2772	0.2681
223.4936	0.2671
223.71	0.2698
223.9264	0.2723
224.1427	0.2668
224.3591	0.2808
224.5754	0.2741
224.7917	0.2836
225.008	0.2785
225.2243	0.2741
225.4406	0.2851
225.6569	0.279
225.8732	0.2983
226.0894	0.2835
226.3057	0.281
226.5219	0.288
226.7381	0.2888
226.9543	0.2776
227.1705	0.2992
227.3867	0.3075
227.6029	0.2861
227.8191	0.3091
228.0352	0.3059
228.2513	0.3163
228.4675	0.3059
228.6836	0.3111
228.8997	0.3205
229.1158	0.317
229.3319	0.3131
229.548	0.3265
229.764	0.3303
229.9801	0.3264
230.1961	0.3389
230.4121	0.3336
230.6282	0.3439
230.8442	0.3532
231.0602	0.3351
231.2761	0.343
231.4921	0.3642
231.7081	0.366
231.924	0.3613
232.14	0.3697
232.3559	0.3681
232.5718	0.3598
232.7877	0.3571
233.0036	0.3641
233.2195	0.3696
233.4353	0.3719
233.6512	0.368
233.867	0.3716
234.0829	0.3782
234.2987	0.3802
234.5145	0.3779
234.7303	0.3859
234.9461	0.396
235.1619	0.3863
235.3776	0.3827
235.5934	0.3956
235.8091	0.3915
236.0249	0.3888
236.2406	0.3941
236.4563	0.38
236.672	0.3993
236.8877	0.4036
237.1034	0.3915
237.319	0.4109
237.5347	0.4151
237.7503	0.4026
237.966	0.4175
238.1816	0.4122
238.3972	0.4228
238.6128	0.4169
238.8284	0.4089
239.0439	0.4147
239.2595	0.4337
239.475	0.4155
239.6906	0.4254
239.9061	0.4089
240.1216	0.4184
240.3371	0.4307
240.5526	0.4168
240.7681	0.4129
240.9836	0.4143
241.199	0.4073
241.4145	0.3952
241.6299	0.4052
241.8453	0.4091
242.0607	0.3826
242.2761	0.3917
242.4915	0.388
242.7069	0.3939
242.9223	0.3665
243.1376	0.3707
243.353	0.3492
243.5683	0.3648
243.7836	0.3557
243.9989	0.3361
244.2142	0.3301
244.4295	0.3338
244.6448	0.3216
244.86	0.3076
245.0753	0.3034
245.2905	0.2923
245.5057	0.3019
245.721	0.2974
245.9362	0.2866
246.1514	0.289
246.3665	0.2881
246.5817	0.2678
246.7969	0.2744
247.012	0.263
247.2271	0.2609
247.4423	0.2632
247.6574	0.2602
247.8725	0.2538
248.0876	0.2477
248.3026	0.2481
248.5177	0.2432
248.7328	0.236
248.9478	0.2336
249.1628	0.2362
249.3779	0.231
249.5929	0.2229
249.8079	0.2338
250.0228	0.2223
250.2378	0.2289
250.4528	0.2183
250.6677	0.2196
250.8827	0.2086
251.0976	0.2192
251.3125	0.2095
251.5274	0.2062
251.7423	0.2066
251.9572	0.2086
252.172	0.2097
252.3869	0.2025
252.6017	0.2082
252.8166	0.2086
253.0314	0.2075
253.2462	0.2141
253.461	0.2017
253.6758	0.1971
253.8906	0.1998
254.1053	0.204
254.3201	0.2113
254.5348	0.2057
254.7496	0.2049
254.9643	0.1991
255.179	0.1997
255.3937	0.206
255.6083	0.1995
255.823	0.2006
256.0377	0.1944
256.2523	0.1921
256.467	0.1966
256.6816	0.1857
256.8962	0.201
257.1108	0.1978
257.3254	0.1903
257.54	0.1969
257.7545	0.1947
257.9691	0.1969
258.1836	0.1987
258.3981	0.1947
258.6127	0.1882
258.8272	0.1939
259.0417	0.1946
259.2561	0.2043
259.4706	0.1885
259.6851	0.1994
259.8995	0.1847
260.114	0.191
260.3284	0.1958
260.5428	0.19
260.7572	0.2021
260.9716	0.1927
261.186	0.2022
261.4003	0.2038
261.6147	0.1974
261.829	0.2026
262.0433	0.194
262.2577	0.1966
262.472	0.2001
262.6863	0.1851
262.9005	0.1966
263.1148	0.1923
263.3291	0.1896
263.5433	0.1815
263.7576	0.192
263.9718	0.1935
264.186	0.1904
264.4002	0.1832
264.6144	0.1873
264.8286	0.1818
265.0427	0.1853
265.2569	0.1857
265.471	0.1825
265.6851	0.1772
265.8993	0.1708
266.1134	0.1764
266.3275	0.1776
266.5415	0.1719
266.7556	0.177
266.9697	0.1768
267.1837	0.1753
267.3978	0.1872
267.6118	0.1891
267.8258	0.1878
268.0398	0.2035
268.2538	0.1908
268.4677	0.1916
268.6817	0.1949
268.8957	0.1939
269.1096	0.1808
269.3235	0.179
269.5374	0.1733
269.7514	0.1699
269.9652	0.1703
270.1791	0.1546
270.393	0.1597
270.6068	0.1492
270.8207	0.1505
271.0345	0.1531
271.2483	0.1506
271.4622	0.1537
271.676	0.1454
271.8897	0.1449
272.1035	0.1375
272.3173	0.1431
272.531	0.1407
272.7448	0.1403
272.9585	0.1403
273.1722	0.1345
273.3859	0.1311
273.5996	0.1319
273.8133	0.1458
274.0269	0.1431
274.2406	0.1402
274.4542	0.1405
274.6679	0.1375
274.8815	0.1453
275.0951	0.1396
275.3087	0.1365
275.5223	0.1314
275.7358	0.1391
275.9494	0.1516
276.1629	0.1416
276.3765	0.1394
276.59	0.1366
276.8035	0.1475
277.017	0.1435
277.2305	0.1436
277.444	0.1371
277.6574	0.1436
277.8709	0.1497
278.0843	0.1424
278.2978	0.1433
278.5112	0.1465
278.7246	0.1414
278.938	0.1459
279.1513	0.1471
279.3647	0.1509
279.5781	0.1418
279.7914	0.1495
280.0047	0.14
280.2181	0.1437
280.4314	0.1458
280.6447	0.1498
280.8579	0.1533
281.0712	0.1498
281.2845	0.1463
281.4977	0.1474
281.711	0.1531
281.9242	0.1521
282.1374	0.1511
282.3506	0.1438
282.5638	0.1492
282.7769	0.1587
282.9901	0.1531
283.2033	0.1592
283.4164	0.158
283.6295	0.1553
283.8426	0.1584
284.0557	0.1491
284.2688	0.1497
284.4819	0.1493
284.695	0.1552
284.908	0.1537
285.1211	0.1578
285.3341	0.1537
285.5471	0.158
285.7601	0.1503
285.9731	0.1651
286.1861	0.1693
286.3991	0.1593
286.612	0.1581
286.825	0.1588
287.0379	0.1656
287.2508	0.1517
287.4637	0.1614
287.6766	0.1531
287.8895	0.1601
288.1024	0.1587
288.3152	0.1581
288.5281	0.1665
288.7409	0.1581
288.9538	0.168
289.1666	0.1602
289.3794	0.159
289.5922	0.1641
289.8049	0.1562
290.0177	0.1674
290.2304	0.1595
290.4432	0.1574
290.6559	0.165
290.8686	0.1633
291.0813	0.1599
291.294	0.1601
291.5067	0.1563
291.7194	0.1576
291.932	0.1587
292.1447	0.161
292.3573	0.1618
292.5699	0.1667
292.7825	0.1686
292.9951	0.1662
293.2077	0.1569
293.4203	0.1555
293.6328	0.1705
293.8454	0.1586
294.0579	0.1681
294.2704	0.1641
294.4829	0.169
294.6954	0.1599
294.9079	0.1646
295.1204	0.1683
295.3328	0.157
295.5453	0.1599
295.7577	0.1576
295.9701	0.1551
296.1825	0.1581
296.3949	0.1606
296.6073	0.1691
296.8197	0.1597
297.0321	0.161
297.2444	0.1543
297.4567	0.1582
297.6691	0.1662
297.8814	0.1549
298.0937	0.159
298.306	0.1639
298.5182	0.1558
298.7305	0.1621
298.9428	0.161
299.155	0.1605
299.3672	0.1604
299.5794	0.1603
299.7916	0.1646
300.0038	0.161
300.216	0.1619
300.4282	0.1508
300.6403	0.1554
300.8525	0.1535
301.0646	0.1584
301.2767	0.1604
301.4888	0.1491
301.7009	0.164
301.913	0.1681
302.125	0.157
302.3371	0.1615
302.5491	0.1539
302.7612	0.1641
302.9732	0.1627
303.1852	0.1531
303.3972	0.1552
303.6092	0.1564
303.8211	0.1605
304.0331	0.1495
304.245	0.1513
304.457	0.1543
304.6689	0.1638
304.8808	0.1539
305.0927	0.1534
305.3046	0.1486
305.5164	0.1576
305.7283	0.1496
305.9401	0.1494
306.152	0.15
306.3638	0.1558
306.5756	0.1472
306.7874	0.1372
306.9992	0.1433
307.2109	0.1385
307.4227	0.1378
307.6344	0.1346
307.8462	0.1363
308.0579	0.1387
308.2696	0.1316
308.4813	0.1362
308.693	0.1335
308.9046	0.1253
309.1163	0.1205
309.328	0.1291
309.5396	0.1218
309.7512	0.1278
309.9628	0.1199
310.1744	0.1152
310.386	0.1044
310.5976	0.1152
310.8091	0.1122
311.0207	0.1124
311.2322	0.1133
311.4437	0.122
311.6552	0.1155
311.8667	0.1086
312.0782	0.1099
312.2897	0.1008
312.5012	0.1095
312.7126	0.097
312.924	0.1042
313.1355	0.1005
313.3469	0.0988
313.5583	0.1089
313.7696	0.0993
313.981	0.0927
314.1924	0.097
314.4037	0.1038
314.6151	0.096
314.8264	0.0979
315.0377	0.1028
315.249	0.1059
315.4603	0.0976
315.6716	0.0945
315.8828	0.1045
316.0941	0.0872
316.3053	0.0926
316.5165	0.0925
316.7277	0.0911
316.9389	0.1025
317.1501	0.0926
317.3613	0.0913
317.5724	0.0968
317.7836	0.0871
317.9947	0.0899
318.2058	0.0928
318.417	0.0949
318.6281	0.0966
318.8391	0.0888
319.0502	0.0858
319.2613	0.0986
319.4723	0.0931
319.6834	0.088
319.8944	0.0986
320.1054	0.0985
320.3164	0.0929
320.5274	0.0981
320.7383	0.0905
320.9493	0.0954
321.1602	0.0961
321.3712	0.0994
321.5821	0.1015
321.793	0.086
322.0039	0.0883
322.2148	0.0952
322.4257	0.0916
322.6365	0.0915
322.8474	0.1012
323.0582	0.0919
323.269	0.0913
323.4798	0.0972
323.6906	0.0968
323.9014	0.0914
324.1122	0.0967
324.3229	0.0995
324.5337	0.0893
324.7444	0.0963
324.9551	0.0966
325.1658	0.0911
325.3765	0.0938
325.5872	0.0954
325.7979	0.1023
326.0085	0.1044
326.2192	0.0993
326.4298	0.1067
326.6404	0.0996
326.851	0.086
327.0616	0.0982
327.2722	0.1048
327.4828	0.1044
327.6933	0.1017
327.9039	0.1053
328.1144	0.0999
328.3249	0.1016
328.5354	0.0981
328.7459	0.0967
328.9564	0.0953
329.1669	0.1002
329.3773	0.1052
329.5878	0.1051
329.7982	0.1012
330.0086	0.1031
330.219	0.1115
330.4294	0.0936
330.6398	0.1066
330.8502	0.099
331.0605	0.1051
331.2708	0.1105
331.4812	0.0977
331.6915	0.0987
331.9018	0.0952
332.1121	0.1078
332.3224	0.1026
332.5326	0.0895
332.7429	0.116
332.9531	0.1044
333.1633	0.1052
333.3735	0.107
333.5837	0.1018
333.7939	0.1038
334.0041	0.1044
334.2143	0.1012
334.4244	0.1023
334.6346	0.0972
334.8447	0.11
335.0548	0.1015
335.2649	0.1005
335.475	0.1065
335.685	0.1028
335.8951	0.1103
336.1051	0.0981
336.3152	0.1075
336.5252	0.1025
336.7352	0.1062
336.9452	0.1073
337.1552	0.1107
337.3652	0.109
337.5751	0.1087
337.7851	0.1032
337.995	0.1093
338.2049	0.1068
338.4148	0.1067
338.6247	0.1108
338.8346	0.1069
339.0445	0.1102
339.2543	0.1111
339.4642	0.1068
339.674	0.1114
339.8838	0.102
340.0936	0.1142
340.3034	0.1143
340.5132	0.1074
340.7229	0.1179
340.9327	0.1114
341.1424	0.1147
341.3522	0.1055
341.5619	0.1196
341.7716	0.1189
341.9813	0.1106
342.1909	0.1225
342.4006	0.1137
342.6102	0.114
342.8199	0.1177
343.0295	0.1172
343.2391	0.1152
343.4487	0.1189
343.6583	0.1195
343.8679	0.1172
344.0774	0.1258
344.287	0.1315
344.4965	0.1129
344.706	0.1247
344.9155	0.1278
345.125	0.1372
345.3345	0.1316
345.544	0.1169
345.7534	0.1228
345.9629	0.1276
346.1723	0.1318
346.3817	0.1349
346.5911	0.129
346.8005	0.1255
347.0099	0.119
347.2193	0.1324
347.4286	0.1384
347.638	0.1407
347.8473	0.1278
348.0566	0.1312
348.2659	0.1204
348.4752	0.1325
348.6845	0.1327
348.8937	0.1374
349.103	0.1336
349.3122	0.135
349.5214	0.1401
349.7306	0.1259
349.9398	0.1228
350.149	0.1297
350.3582	0.1261
350.5674	0.14
350.7765	0.1319
350.9856	0.1392
351.1948	0.1416
351.4039	0.1403
351.613	0.1283
351.822	0.1409
352.0311	0.1315
352.2402	0.1366
352.4492	0.1438
352.6582	0.1433
352.8672	0.146
353.0762	0.1499
353.2852	0.1521
353.4942	0.1488
353.7032	0.1484
353.9121	0.1504
354.1211	0.1518
354.33	0.1442
354.5389	0.1482
354.7478	0.1485
354.9567	0.1508
355.1655	0.1465
355.3744	0.1573
355.5833	0.1406
355.7921	0.1456
356.0009	0.1443
356.2097	0.1522
356.4185	0.1548
356.6273	0.1657
356.8361	0.1492
357.0448	0.1631
357.2536	0.1494
357.4623	0.1498
357.671	0.1575
357.8797	0.1684
358.0884	0.1659
358.2971	0.1615
358.5057	0.1736
358.7144	0.1659
358.923	0.1693
359.1316	0.1681
359.3402	0.1679
359.5488	0.1634
359.7574	0.1701
359.966	0.176
360.1746	0.1703
360.3831	0.1795
360.5916	0.1754
360.8002	0.1791
361.0087	0.181
361.2172	0.1757
361.4256	0.1719
361.6341	0.1771
361.8426	0.185
362.051	0.1662
362.2594	0.1834
362.4678	0.179
362.6762	0.191
362.8846	0.1804
363.093	0.181
363.3014	0.1795
363.5097	0.1852
363.718	0.1957
363.9264	0.1923
364.1347	0.197
364.343	0.1841
364.5513	0.1881
364.7595	0.1923
364.9678	0.1951
365.176	0.1951
365.3842	0.1846
365.5925	0.1887
365.8007	0.2006
366.0089	0.197
366.217	0.205
366.4252	0.2029
366.6333	0.2023
366.8415	0.195
367.0496	0.2059
367.2577	0.211
367.4658	0.204
367.6739	0.2109
367.882	0.2064
368.09	0.2025
368.2981	0.2038
368.5061	0.2037
368.7141	0.214
368.9221	0.2002
369.1301	0.2211
369.3381	0.2109
369.5461	0.2133
369.754	0.2117
369.962	0.2037
370.1699	0.213
370.3778	0.2092
370.5857	0.2166
370.7936	0.2087
371.0015	0.2131
371.2093	0.2227
371.4172	0.2195
371.625	0.2241
371.8328	0.2239
372.0406	0.227
372.2484	0.2223
372.4562	0.2298
372.664	0.2242
372.8717	0.2204
373.0795	0.2161
373.2872	0.2248
373.4949	0.2198
373.7026	0.2339
373.9103	0.2233
374.118	0.2148
374.3256	0.2217
374.5333	0.2207
374.7409	0.2318
374.9485	0.227
375.1561	0.2334
375.3637	0.2288
375.5713	0.2291
375.7789	0.2311
375.9864	0.2334
376.194	0.24
376.4015	0.2326
376.609	0.2309
376.8165	0.2347
377.024	0.2265
377.2315	0.235
377.4389	0.2359
377.6464	0.2312
377.8538	0.2321
378.0612	0.2343
378.2686	0.2383
378.476	0.2357
378.6834	0.242
378.8908	0.2564
379.0981	0.2506
379.3055	0.252
379.5128	0.235
379.7201	0.241
379.9274	0.2389
380.1347	0.2526
380.342	0.2491
380.5492	0.2573
380.7565	0.2596
380.9637	0.2536
381.1709	0.2481
381.3781	0.2334
381.5853	0.2466
381.7925	0.2456
381.9997	0.2562
382.2068	0.2497
382.4139	0.26
382.6211	0.2526
382.8282	0.2457
383.0353	0.2515
383.2424	0.2543
383.4494	0.262
383.6565	0.2421
383.8635	0.2622
384.0706	0.2469
384.2776	0.253
384.4846	0.2591
384.6916	0.2663
384.8986	0.2537
385.1055	0.2593
385.3125	0.2594
385.5194	0.2633
385.7263	0.2595
385.9333	0.2579
386.1402	0.2637
386.347	0.2635
386.5539	0.2559
386.7608	0.2648
386.9676	0.2619
387.1744	0.2533
387.3813	0.2538
387.5881	0.2506
387.7948	0.2587
388.0016	0.2537
388.2084	0.2611
388.4151	0.25
388.6219	0.2565
388.8286	0.2568
389.0353	0.2419
389.242	0.256
389.4487	0.238
389.6553	0.2484
389.862	0.2415
390.0686	0.2419
390.2753	0.247
390.4819	0.2405
390.6885	0.2399
390.8951	0.2548
391.1016	0.2512
391.3082	0.2511
391.5147	0.241
391.7213	0.2513
391.9278	0.2208
392.1343	0.2523
392.3408	0.2384
392.5473	0.2407
392.7537	0.2366
392.9602	0.235
393.1666	0.2312
393.373	0.2368
393.5794	0.2351
393.7858	0.2345
393.9922	0.2259
394.1986	0.2182
394.4049	0.2352
394.6113	0.2293
394.8176	0.2194
395.0239	0.2214
395.2302	0.2248
395.4365	0.2246
395.6428	0.2163
395.8491	0.2167
396.0553	0.2271
396.2615	0.2245
396.4678	0.225
396.674	0.2185
396.8802	0.2176
397.0863	0.2245
397.2925	0.2338
397.4987	0.2078
397.7048	0.2233
397.9109	0.2297
398.117	0.223
398.3231	0.2323
398.5292	0.2163
398.7353	0.2126
398.9413	0.2132
399.1474	0.2203
399.3534	0.2185
399.5594	0.216
399.7654	0.2162
399.9714	0.2111
400.1774	0.2192
400.3833	0.2194
400.5893	0.2159
400.7952	0.212
401.0011	0.2108
401.207	0.2046
401.4129	0.208
401.6188	0.2
401.8247	0.2148
402.0305	0.2108
402.2364	0.219
402.4422	0.2122
402.648	0.2179
402.8538	0.2157
403.0596	0.2079
403.2654	0.1946
403.4711	0.2023
403.6768	0.2188
403.8826	0.2107
404.0883	0.2189
404.294	0.2192
404.4997	0.1984
404.7054	0.213
404.911	0.2123
405.1167	0.2091
405.3223	0.2158
405.5279	0.2122
405.7335	0.2119
405.9391	0.2165
406.1447	0.21
406.3502	0.2103
406.5558	0.202
406.7613	0.2029
406.9668	0.2173
407.1724	0.2179
407.3778	0.2139
407.5833	0.2035
407.7888	0.2313
407.9942	0.2123
408.1997	0.2136
408.4051	0.2158
408.6105	0.2188
408.8159	0.2209
409.0213	0.2075
409.2267	0.2109
409.432	0.2141
409.6374	0.2212
409.8427	0.2271
410.048	0.208
410.2533	0.2109
410.4586	0.2169
410.6639	0.2032
410.8691	0.2107
411.0744	0.2096
411.2796	0.2157
411.4848	0.2032
411.69	0.2182
411.8952	0.2093
412.1004	0.2066
412.3056	0.2255
412.5107	0.2167
412.7158	0.2056
412.921	0.2096
413.1261	0.2066
413.3312	0.2073
413.5362	0.2093
413.7413	0.2143
413.9464	0.21
414.1514	0.1978
414.3564	0.2117
414.5614	0.2189
414.7664	0.2055
414.9714	0.1987
415.1764	0.2031
415.3813	0.2117
415.5863	0.2101
415.7912	0.2074
415.9961	0.2062
416.201	0.2182
416.4059	0.2172
416.6108	0.2064
416.8156	0.2037
417.0205	0.2101
417.2253	0.2024
417.4301	0.2096
417.6349	0.2051
417.8397	0.1875
418.0445	0.1988
418.2492	0.2123
418.454	0.2001
418.6587	0.2105
418.8634	0.1967
419.0681	0.2036
419.2728	0.1994
419.4775	0.1992
419.6822	0.2009
419.8868	0.1925
420.0915	0.2008
420.2961	0.2104
420.5007	0.1872
420.7053	0.1972
420.9099	0.1853
421.1144	0.1962
421.319	0.2003
421.5235	0.1979
421.728	0.1856
421.9325	0.1919
422.137	0.1777
422.3415	0.1977
422.546	0.1863
422.7504	0.188
422.9549	0.1812
423.1593	0.1981
423.3637	0.1926
423.5681	0.2039
423.7725	0.1779
423.9769	0.1725
424.1812	0.1769
424.3856	0.1953
424.5899	0.1895
424.7942	0.1713
424.9985	0.185
425.2028	0.1679
425.4071	0.1703
425.6113	0.1752
425.8156	0.1698
426.0198	0.1755
426.224	0.1569
426.4282	0.172
426.6324	0.1587
