Data from MonoPyChalIsomerACN10uM450nmA_Absorbance_13-11-20-692.txt Node
Date: Tue Jul 09 13:11:20 BST 2024
User: LASERRRRR
Spectrometer: FLMT03099
Trigger mode: 0
Integration Time (sec): 2.000000E-1
Scans to average: 1
Electric dark correction enabled: true
Nonlinearity correction enabled: false
Boxcar width: 0
XAxis mode: Wavelengths
Number of Pixels in Spectrum: 3648
>>>>>Begin Spectral Data<<<<<
179.3399	0.1918
179.5586	0.1918
179.7771	0.1918
179.9957	-0.1245
180.2143	-0
180.4329	0.4981
180.6514	-0
180.8699	-0
181.0885	-0
181.307	-0
181.5255	1.0551
181.744	-0
181.9625	-0.0656
182.181	0.2877
182.3994	-0
182.6179	-0.3803
182.8363	-0
183.0547	0.2581
183.2732	0.1699
183.4916	0.0626
183.71	0.1266
183.9284	0.033
184.1467	0.0182
184.3651	0.0817
184.5835	0.1137
184.8018	0.0643
185.0201	0.2195
185.2385	-0.062
185.4568	0.0456
185.6751	0.193
185.8934	-0.055
186.1117	0.0261
186.3299	-0.0064
186.5482	0.133
186.7664	0.2734
186.9847	0.1253
187.2029	0.0889
187.4211	0.0959
187.6393	-0.0354
187.8575	0.0518
188.0757	0.111
188.2939	0.1012
188.512	0.2146
188.7302	0.0744
188.9483	0.1605
189.1665	0.1478
189.3846	0.1316
189.6027	0.1626
189.8208	0.1327
190.0389	0.2471
190.257	0.2181
190.475	0.2773
190.6931	0.1435
190.9111	0.2719
191.1292	0.2476
191.3472	0.3685
191.5652	0.3621
191.7832	0.3374
192.0012	0.5177
192.2192	0.4137
192.4371	0.392
192.6551	0.5074
192.873	0.3728
193.091	0.3565
193.3089	0.6717
193.5268	0.6313
193.7447	0.4838
193.9626	0.4783
194.1805	0.5847
194.3984	0.5734
194.6162	0.6407
194.8341	0.534
195.0519	0.6863
195.2697	0.5199
195.4875	0.58
195.7054	0.6033
195.9231	0.7201
196.1409	0.5215
196.3587	0.7207
196.5765	0.6779
196.7942	0.6831
197.012	0.6569
197.2297	0.735
197.4474	0.7651
197.6651	0.7079
197.8828	0.7867
198.1005	0.7538
198.3182	0.7897
198.5358	0.7875
198.7535	0.7581
198.9711	0.9642
199.1888	0.6855
199.4064	0.8978
199.624	0.7539
199.8416	0.7972
200.0592	0.6952
200.2767	0.8172
200.4943	0.8242
200.7119	0.8707
200.9294	0.989
201.1469	0.9206
201.3645	0.9158
201.582	0.9221
201.7995	0.791
202.017	0.896
202.2344	0.8528
202.4519	0.8621
202.6694	0.8016
202.8868	0.8105
203.1042	0.9337
203.3217	0.8908
203.5391	0.9415
203.7565	0.9204
203.9739	0.814
204.1913	0.8245
204.4086	0.959
204.626	1.0029
204.8433	0.8738
205.0607	1.0011
205.278	0.8794
205.4953	1.0995
205.7126	1.0351
205.9299	1.0469
206.1472	0.9741
206.3644	1.0444
206.5817	0.9804
206.7989	1.0258
207.0162	1.1554
207.2334	0.9519
207.4506	0.9847
207.6678	1.0344
207.885	1.0571
208.1022	1.0012
208.3194	1.0333
208.5365	1.045
208.7537	1.0291
208.9708	1.0978
209.1879	1.0725
209.405	1.0381
209.6222	1.0937
209.8392	1.1702
210.0563	1.0136
210.2734	1.0921
210.4905	1.0982
210.7075	1.0904
210.9245	0.9895
211.1416	1.1898
211.3586	1.0454
211.5756	1.0944
211.7926	1.078
212.0096	1.0593
212.2265	0.9797
212.4435	1.0675
212.6604	1.0288
212.8774	1.0407
213.0943	1.0027
213.3112	0.9984
213.5281	1.0531
213.745	1.058
213.9619	0.9774
214.1788	0.9493
214.3956	0.9339
214.6125	0.9504
214.8293	0.8788
215.0461	0.883
215.2629	0.8996
215.4798	0.8691
215.6965	0.8119
215.9133	0.8314
216.1301	0.8156
216.3469	0.7911
216.5636	0.8399
216.7803	0.783
216.9971	0.7527
217.2138	0.721
217.4305	0.7069
217.6472	0.6698
217.8639	0.6693
218.0805	0.6177
218.2972	0.5874
218.5138	0.5338
218.7305	0.5342
218.9471	0.4932
219.1637	0.4485
219.3803	0.4027
219.5969	0.3965
219.8135	0.376
220.0301	0.3611
220.2466	0.3548
220.4632	0.3376
220.6797	0.3213
220.8962	0.3018
221.1127	0.3012
221.3292	0.3121
221.5457	0.2897
221.7622	0.2873
221.9787	0.2693
222.1951	0.281
222.4116	0.2778
222.628	0.2766
222.8444	0.2653
223.0608	0.2781
223.2772	0.2818
223.4936	0.2687
223.71	0.2679
223.9264	0.2939
224.1427	0.2639
224.3591	0.2757
224.5754	0.2738
224.7917	0.2627
225.008	0.273
225.2243	0.271
225.4406	0.2744
225.6569	0.2699
225.8732	0.3077
226.0894	0.2774
226.3057	0.2858
226.5219	0.2883
226.7381	0.2905
226.9543	0.2932
227.1705	0.2896
227.3867	0.2958
227.6029	0.3027
227.8191	0.3129
228.0352	0.293
228.2513	0.3027
228.4675	0.314
228.6836	0.3198
228.8997	0.311
229.1158	0.3162
229.3319	0.3127
229.548	0.3185
229.764	0.3203
229.9801	0.3276
230.1961	0.3331
230.4121	0.3403
230.6282	0.3338
230.8442	0.3316
231.0602	0.3552
231.2761	0.3461
231.4921	0.3656
231.7081	0.3662
231.924	0.3713
232.14	0.3709
232.3559	0.3624
232.5718	0.361
232.7877	0.3584
233.0036	0.3739
233.2195	0.3693
233.4353	0.3648
233.6512	0.3718
233.867	0.3787
234.0829	0.3779
234.2987	0.3767
234.5145	0.3736
234.7303	0.39
234.9461	0.3999
235.1619	0.3898
235.3776	0.3895
235.5934	0.3993
235.8091	0.3923
236.0249	0.3947
236.2406	0.3972
236.4563	0.3916
236.672	0.4013
236.8877	0.4014
237.1034	0.3987
237.319	0.4074
237.5347	0.4052
237.7503	0.4136
237.966	0.4218
238.1816	0.4144
238.3972	0.4159
238.6128	0.417
238.8284	0.4121
239.0439	0.4175
239.2595	0.4324
239.475	0.4267
239.6906	0.4195
239.9061	0.4084
240.1216	0.4197
240.3371	0.4173
240.5526	0.4316
240.7681	0.4038
240.9836	0.4122
241.199	0.4209
241.4145	0.3919
241.6299	0.3951
241.8453	0.3985
242.0607	0.3841
242.2761	0.4008
242.4915	0.3891
242.7069	0.3763
242.9223	0.3726
243.1376	0.3667
243.353	0.3503
243.5683	0.3596
243.7836	0.3413
243.9989	0.3317
244.2142	0.3227
244.4295	0.3252
244.6448	0.3239
244.86	0.316
245.0753	0.304
245.2905	0.3054
245.5057	0.3009
245.721	0.2966
245.9362	0.2799
246.1514	0.2905
246.3665	0.2893
246.5817	0.2712
246.7969	0.2733
247.012	0.2734
247.2271	0.2682
247.4423	0.2693
247.6574	0.2666
247.8725	0.2465
248.0876	0.2536
248.3026	0.2514
248.5177	0.2499
248.7328	0.2394
248.9478	0.24
249.1628	0.2395
249.3779	0.2321
249.5929	0.2207
249.8079	0.2291
250.0228	0.2224
250.2378	0.2223
250.4528	0.2166
250.6677	0.2179
250.8827	0.2135
251.0976	0.2131
251.3125	0.2195
251.5274	0.2044
251.7423	0.2147
251.9572	0.2096
252.172	0.214
252.3869	0.2068
252.6017	0.2123
252.8166	0.2118
253.0314	0.2001
253.2462	0.2117
253.461	0.2033
253.6758	0.1957
253.8906	0.2075
254.1053	0.207
254.3201	0.2047
254.5348	0.2072
254.7496	0.2087
254.9643	0.1992
255.179	0.199
255.3937	0.205
255.6083	0.2036
255.823	0.1957
256.0377	0.1995
256.2523	0.2006
256.467	0.1974
256.6816	0.194
256.8962	0.1935
257.1108	0.2003
257.3254	0.1995
257.54	0.1914
257.7545	0.1931
257.9691	0.1914
258.1836	0.1958
258.3981	0.1973
258.6127	0.2017
258.8272	0.1977
259.0417	0.1963
259.2561	0.1956
259.4706	0.187
259.6851	0.1942
259.8995	0.1947
260.114	0.1933
260.3284	0.1997
260.5428	0.1928
260.7572	0.2027
260.9716	0.1941
261.186	0.2048
261.4003	0.2085
261.6147	0.2053
261.829	0.2035
262.0433	0.1977
262.2577	0.1959
262.472	0.2026
262.6863	0.1921
262.9005	0.191
263.1148	0.1881
263.3291	0.1847
263.5433	0.1914
263.7576	0.1916
263.9718	0.1879
264.186	0.185
264.4002	0.1825
264.6144	0.1828
264.8286	0.182
265.0427	0.188
265.2569	0.1778
265.471	0.1755
265.6851	0.1722
265.8993	0.1824
266.1134	0.1808
266.3275	0.1785
266.5415	0.1729
266.7556	0.175
266.9697	0.1867
267.1837	0.1829
267.3978	0.1868
267.6118	0.191
267.8258	0.1944
268.0398	0.1895
268.2538	0.1883
268.4677	0.1962
268.6817	0.1924
268.8957	0.1888
269.1096	0.1854
269.3235	0.1852
269.5374	0.1768
269.7514	0.1697
269.9652	0.1771
270.1791	0.1485
270.393	0.1583
270.6068	0.1522
270.8207	0.1499
271.0345	0.1556
271.2483	0.1548
271.4622	0.1469
271.676	0.1434
271.8897	0.1433
272.1035	0.1355
272.3173	0.1451
272.531	0.1407
272.7448	0.1375
272.9585	0.1404
273.1722	0.1424
273.3859	0.1427
273.5996	0.1356
273.8133	0.146
274.0269	0.1386
274.2406	0.1395
274.4542	0.1422
274.6679	0.1297
274.8815	0.1388
275.0951	0.1467
275.3087	0.1368
275.5223	0.1344
275.7358	0.1374
275.9494	0.149
276.1629	0.1419
276.3765	0.1382
276.59	0.1425
276.8035	0.1432
277.017	0.1418
277.2305	0.146
277.444	0.141
277.6574	0.1478
277.8709	0.1505
278.0843	0.1467
278.2978	0.1441
278.5112	0.1466
278.7246	0.1459
278.938	0.1416
279.1513	0.1461
279.3647	0.1517
279.5781	0.1408
279.7914	0.147
280.0047	0.1476
280.2181	0.146
280.4314	0.1499
280.6447	0.1475
280.8579	0.1417
281.0712	0.1441
281.2845	0.151
281.4977	0.1531
281.711	0.1502
281.9242	0.1514
282.1374	0.1509
282.3506	0.1433
282.5638	0.1556
282.7769	0.1561
282.9901	0.1507
283.2033	0.1543
283.4164	0.1596
283.6295	0.1569
283.8426	0.1567
284.0557	0.1536
284.2688	0.1591
284.4819	0.1441
284.695	0.1564
284.908	0.156
285.1211	0.1595
285.3341	0.1461
285.5471	0.16
285.7601	0.1506
285.9731	0.1523
286.1861	0.1693
286.3991	0.164
286.612	0.1613
286.825	0.1636
287.0379	0.1542
287.2508	0.1529
287.4637	0.1573
287.6766	0.1519
287.8895	0.1595
288.1024	0.1665
288.3152	0.1589
288.5281	0.159
288.7409	0.1579
288.9538	0.1561
289.1666	0.1643
289.3794	0.1629
289.5922	0.1592
289.8049	0.1643
290.0177	0.1659
290.2304	0.158
290.4432	0.1556
290.6559	0.1624
290.8686	0.1566
291.0813	0.1644
291.294	0.1668
291.5067	0.1667
291.7194	0.1623
291.932	0.1639
292.1447	0.1579
292.3573	0.1627
292.5699	0.1757
292.7825	0.1632
292.9951	0.1666
293.2077	0.1498
293.4203	0.1605
293.6328	0.1714
293.8454	0.1565
294.0579	0.1588
294.2704	0.167
294.4829	0.1638
294.6954	0.1546
294.9079	0.163
295.1204	0.1654
295.3328	0.1612
295.5453	0.1577
295.7577	0.1582
295.9701	0.1602
296.1825	0.1607
296.3949	0.1525
296.6073	0.1628
296.8197	0.1616
297.0321	0.1615
297.2444	0.1537
297.4567	0.1542
297.6691	0.1651
297.8814	0.1598
298.0937	0.169
298.306	0.1583
298.5182	0.1568
298.7305	0.1651
298.9428	0.1522
299.155	0.1566
299.3672	0.1565
299.5794	0.1677
299.7916	0.1609
300.0038	0.1585
300.216	0.1677
300.4282	0.1645
300.6403	0.1576
300.8525	0.1663
301.0646	0.1614
301.2767	0.1651
301.4888	0.1531
301.7009	0.1643
301.913	0.1562
302.125	0.1599
302.3371	0.1615
302.5491	0.1572
302.7612	0.1645
302.9732	0.1599
303.1852	0.1534
303.3972	0.1611
303.6092	0.1545
303.8211	0.1599
304.0331	0.1517
304.245	0.1492
304.457	0.1534
304.6689	0.1559
304.8808	0.1536
305.0927	0.1569
305.3046	0.1489
305.5164	0.1507
305.7283	0.1511
305.9401	0.1513
306.152	0.1451
306.3638	0.1586
306.5756	0.1459
306.7874	0.1378
306.9992	0.142
307.2109	0.1371
307.4227	0.1453
307.6344	0.1289
307.8462	0.1336
308.0579	0.1368
308.2696	0.126
308.4813	0.1317
308.693	0.1292
308.9046	0.123
309.1163	0.1246
309.328	0.1229
309.5396	0.1221
309.7512	0.1239
309.9628	0.1203
310.1744	0.1203
310.386	0.1149
310.5976	0.1151
310.8091	0.1111
311.0207	0.1183
311.2322	0.1129
311.4437	0.1175
311.6552	0.1087
311.8667	0.107
312.0782	0.1114
312.2897	0.1058
312.5012	0.1108
312.7126	0.1001
312.924	0.0973
313.1355	0.1004
313.3469	0.1078
313.5583	0.1016
313.7696	0.1025
313.981	0.1055
314.1924	0.0973
314.4037	0.1031
314.6151	0.0927
314.8264	0.103
315.0377	0.1009
315.249	0.1
315.4603	0.0939
315.6716	0.0973
315.8828	0.0977
316.0941	0.099
316.3053	0.0976
316.5165	0.091
316.7277	0.0941
316.9389	0.0958
317.1501	0.092
317.3613	0.0964
317.5724	0.0902
317.7836	0.0904
317.9947	0.0991
318.2058	0.1024
318.417	0.09
318.6281	0.0948
318.8391	0.093
319.0502	0.0958
319.2613	0.0925
319.4723	0.092
319.6834	0.0936
319.8944	0.0962
320.1054	0.0957
320.3164	0.1003
320.5274	0.096
320.7383	0.0873
320.9493	0.0936
321.1602	0.0983
321.3712	0.1021
321.5821	0.0966
321.793	0.089
322.0039	0.0902
322.2148	0.0975
322.4257	0.0971
322.6365	0.0963
322.8474	0.097
323.0582	0.1053
323.269	0.0944
323.4798	0.0932
323.6906	0.0929
323.9014	0.0919
324.1122	0.0951
324.3229	0.0986
324.5337	0.0922
324.7444	0.0916
324.9551	0.0993
325.1658	0.0984
325.3765	0.0942
325.5872	0.0978
325.7979	0.1049
326.0085	0.1016
326.2192	0.098
326.4298	0.1069
326.6404	0.1008
326.851	0.0951
327.0616	0.1018
327.2722	0.0982
327.4828	0.0996
327.6933	0.1031
327.9039	0.106
328.1144	0.1016
328.3249	0.1002
328.5354	0.1042
328.7459	0.0991
328.9564	0.1068
329.1669	0.0988
329.3773	0.0987
329.5878	0.1027
329.7982	0.0989
330.0086	0.0976
330.219	0.1079
330.4294	0.1071
330.6398	0.0982
330.8502	0.1042
331.0605	0.0973
331.2708	0.1008
331.4812	0.0991
331.6915	0.1077
331.9018	0.099
332.1121	0.106
332.3224	0.1062
332.5326	0.0975
332.7429	0.103
332.9531	0.0927
333.1633	0.1105
333.3735	0.1121
333.5837	0.1036
333.7939	0.1053
334.0041	0.1069
334.2143	0.1034
334.4244	0.0991
334.6346	0.0966
334.8447	0.1036
335.0548	0.1017
335.2649	0.0967
335.475	0.0967
335.685	0.1111
335.8951	0.1066
336.1051	0.1014
336.3152	0.1108
336.5252	0.1058
336.7352	0.1075
336.9452	0.1001
337.1552	0.1049
337.3652	0.109
337.5751	0.1084
337.7851	0.0965
337.995	0.1026
338.2049	0.1021
338.4148	0.1096
338.6247	0.105
338.8346	0.1059
339.0445	0.1134
339.2543	0.1116
339.4642	0.1128
339.674	0.11
339.8838	0.1112
340.0936	0.1084
340.3034	0.123
340.5132	0.108
340.7229	0.1223
340.9327	0.123
341.1424	0.1092
341.3522	0.1066
341.5619	0.1281
341.7716	0.1202
341.9813	0.1123
342.1909	0.1193
342.4006	0.1164
342.6102	0.1154
342.8199	0.1181
343.0295	0.1126
343.2391	0.123
343.4487	0.1169
343.6583	0.1184
343.8679	0.1177
344.0774	0.1216
344.287	0.126
344.4965	0.1202
344.706	0.1286
344.9155	0.123
345.125	0.122
345.3345	0.1282
345.544	0.1137
345.7534	0.1181
345.9629	0.122
346.1723	0.1286
346.3817	0.1334
346.5911	0.134
346.8005	0.1196
347.0099	0.1255
347.2193	0.1347
347.4286	0.1375
347.638	0.1355
347.8473	0.1252
348.0566	0.1393
348.2659	0.1284
348.4752	0.1303
348.6845	0.1357
348.8937	0.1351
349.103	0.1326
349.3122	0.1386
349.5214	0.1417
349.7306	0.1266
349.9398	0.1317
350.149	0.1383
350.3582	0.1313
350.5674	0.1394
350.7765	0.1332
350.9856	0.1375
351.1948	0.1365
351.4039	0.1442
351.613	0.1275
351.822	0.1456
352.0311	0.1373
352.2402	0.1428
352.4492	0.1466
352.6582	0.1444
352.8672	0.1462
353.0762	0.1554
353.2852	0.1493
353.4942	0.1438
353.7032	0.1443
353.9121	0.1543
354.1211	0.1454
354.33	0.15
354.5389	0.144
354.7478	0.1499
354.9567	0.1403
355.1655	0.1543
355.3744	0.1524
355.5833	0.1418
355.7921	0.1496
356.0009	0.1465
356.2097	0.1517
356.4185	0.1564
356.6273	0.1617
356.8361	0.1452
357.0448	0.1637
357.2536	0.1496
357.4623	0.1526
357.671	0.1722
357.8797	0.1612
358.0884	0.1686
358.2971	0.1601
358.5057	0.1655
358.7144	0.1667
358.923	0.1705
359.1316	0.1664
359.3402	0.1727
359.5488	0.164
359.7574	0.178
359.966	0.166
360.1746	0.1726
360.3831	0.1913
360.5916	0.1714
360.8002	0.1728
361.0087	0.1791
361.2172	0.1789
361.4256	0.1791
361.6341	0.1775
361.8426	0.1847
362.051	0.1768
362.2594	0.1818
362.4678	0.182
362.6762	0.1823
362.8846	0.1934
363.093	0.187
363.3014	0.182
363.5097	0.1847
363.718	0.1876
363.9264	0.1805
364.1347	0.193
364.343	0.1762
364.5513	0.1938
364.7595	0.1878
364.9678	0.1959
365.176	0.198
365.3842	0.1889
365.5925	0.1869
365.8007	0.1885
366.0089	0.2059
366.217	0.1921
366.4252	0.2018
366.6333	0.196
366.8415	0.1975
367.0496	0.2004
367.2577	0.206
367.4658	0.2111
367.6739	0.2023
367.882	0.2066
368.09	0.2115
368.2981	0.2144
368.5061	0.2036
368.7141	0.213
368.9221	0.2079
369.1301	0.2149
369.3381	0.2068
369.5461	0.2119
369.754	0.2137
369.962	0.208
370.1699	0.2199
370.3778	0.2113
370.5857	0.2073
370.7936	0.2123
371.0015	0.2038
371.2093	0.2086
371.4172	0.2241
371.625	0.2105
371.8328	0.2262
372.0406	0.2247
372.2484	0.2181
372.4562	0.2233
372.664	0.2205
372.8717	0.2172
373.0795	0.2168
373.2872	0.2203
373.4949	0.2095
373.7026	0.2149
373.9103	0.214
374.118	0.231
374.3256	0.2354
374.5333	0.2078
374.7409	0.2273
374.9485	0.2223
375.1561	0.2316
375.3637	0.2348
375.5713	0.2323
375.7789	0.2367
375.9864	0.2345
376.194	0.2331
376.4015	0.2355
376.609	0.2316
376.8165	0.2326
377.024	0.2233
377.2315	0.2378
377.4389	0.2368
377.6464	0.2267
377.8538	0.2406
378.0612	0.2396
378.2686	0.2298
378.476	0.2272
378.6834	0.2412
378.8908	0.2629
379.0981	0.2469
379.3055	0.2372
379.5128	0.2376
379.7201	0.2349
379.9274	0.2442
380.1347	0.2374
380.342	0.2445
380.5492	0.2406
380.7565	0.2471
380.9637	0.2589
381.1709	0.2546
381.3781	0.2483
381.5853	0.2605
381.7925	0.2585
381.9997	0.2583
382.2068	0.2498
382.4139	0.2455
382.6211	0.2557
382.8282	0.2515
383.0353	0.2573
383.2424	0.2537
383.4494	0.2586
383.6565	0.2625
383.8635	0.2623
384.0706	0.2487
384.2776	0.2612
384.4846	0.2579
384.6916	0.2577
384.8986	0.2429
385.1055	0.2589
385.3125	0.2736
385.5194	0.2609
385.7263	0.2651
385.9333	0.2701
386.1402	0.2586
386.347	0.2697
386.5539	0.2581
386.7608	0.2494
386.9676	0.2477
387.1744	0.2565
387.3813	0.2498
387.5881	0.2544
387.7948	0.2586
388.0016	0.2599
388.2084	0.2608
388.4151	0.2494
388.6219	0.2584
388.8286	0.2485
389.0353	0.2467
389.242	0.2576
389.4487	0.2464
389.6553	0.2462
389.862	0.2396
390.0686	0.2415
390.2753	0.2389
390.4819	0.2451
390.6885	0.2496
390.8951	0.245
391.1016	0.2517
391.3082	0.2437
391.5147	0.2493
391.7213	0.2397
391.9278	0.2375
392.1343	0.2419
392.3408	0.2338
392.5473	0.2384
392.7537	0.2428
392.9602	0.2374
393.1666	0.2315
393.373	0.2341
393.5794	0.2321
393.7858	0.2284
393.9922	0.222
394.1986	0.2379
394.4049	0.2361
394.6113	0.2352
394.8176	0.21
395.0239	0.2271
395.2302	0.2211
395.4365	0.2254
395.6428	0.2154
395.8491	0.2073
396.0553	0.2106
396.2615	0.2142
396.4678	0.2284
396.674	0.2177
396.8802	0.2203
397.0863	0.2174
397.2925	0.2168
397.4987	0.2182
397.7048	0.2127
397.9109	0.2204
398.117	0.2122
398.3231	0.2226
398.5292	0.2136
398.7353	0.2133
398.9413	0.2115
399.1474	0.2161
399.3534	0.2118
399.5594	0.2106
399.7654	0.2139
399.9714	0.2117
400.1774	0.204
400.3833	0.2299
400.5893	0.215
400.7952	0.2007
401.0011	0.21
401.207	0.2213
401.4129	0.196
401.6188	0.2025
401.8247	0.205
402.0305	0.205
402.2364	0.2213
402.4422	0.2033
402.648	0.2145
402.8538	0.2097
403.0596	0.2019
403.2654	0.2056
403.4711	0.2119
403.6768	0.2195
403.8826	0.2083
404.0883	0.2177
404.294	0.2036
404.4997	0.206
404.7054	0.2042
404.911	0.2226
405.1167	0.2183
405.3223	0.2169
405.5279	0.2194
405.7335	0.2067
405.9391	0.2117
406.1447	0.2072
406.3502	0.2094
406.5558	0.2162
406.7613	0.218
406.9668	0.2137
407.1724	0.2176
407.3778	0.2122
407.5833	0.2184
407.7888	0.2132
407.9942	0.2163
408.1997	0.2138
408.4051	0.2145
408.6105	0.2256
408.8159	0.2257
409.0213	0.2076
409.2267	0.214
409.432	0.2139
409.6374	0.2074
409.8427	0.2333
410.048	0.2137
410.2533	0.2107
410.4586	0.2138
410.6639	0.1989
410.8691	0.2024
411.0744	0.1986
411.2796	0.2055
411.4848	0.2204
411.69	0.2111
411.8952	0.2121
412.1004	0.2033
412.3056	0.2276
412.5107	0.2188
412.7158	0.2125
412.921	0.2074
413.1261	0.2028
413.3312	0.2204
413.5362	0.2094
413.7413	0.2102
413.9464	0.2114
414.1514	0.1945
414.3564	0.2083
414.5614	0.209
414.7664	0.1982
414.9714	0.2051
415.1764	0.2101
415.3813	0.2099
415.5863	0.207
415.7912	0.2144
415.9961	0.2082
416.201	0.2052
416.4059	0.2064
416.6108	0.2055
416.8156	0.1938
417.0205	0.1987
417.2253	0.206
417.4301	0.1997
417.6349	0.2028
417.8397	0.2026
418.0445	0.2089
418.2492	0.1931
418.454	0.2105
418.6587	0.1943
418.8634	0.2078
419.0681	0.2026
419.2728	0.2013
419.4775	0.1892
419.6822	0.1999
419.8868	0.1931
420.0915	0.1997
420.2961	0.2079
420.5007	0.1918
420.7053	0.1923
420.9099	0.1941
421.1144	0.1908
421.319	0.1908
421.5235	0.2107
421.728	0.1903
421.9325	0.1854
422.137	0.18
422.3415	0.1969
422.546	0.1988
422.7504	0.197
422.9549	0.2
423.1593	0.1859
423.3637	0.185
423.5681	0.1873
423.7725	0.1805
423.9769	0.1761
424.1812	0.1758
424.3856	0.1759
424.5899	0.1788
424.7942	0.1821
424.9985	0.1675
425.2028	0.1576
425.4071	0.168
425.6113	0.1793
425.8156	0.1756
426.0198	0.1899
426.224	0.1721
426.4282	0.1698
426.6324	0.1661
426.8366	0.168
427.0407	0.1714
