Data from MonoPyChalIsomerACN10uM450nmA_Absorbance_13-11-16-092.txt Node
Date: Tue Jul 09 13:11:16 BST 2024
User: LASERRRRR
Spectrometer: FLMT03099
Trigger mode: 0
Integration Time (sec): 2.000000E-1
Scans to average: 1
Electric dark correction enabled: true
Nonlinearity correction enabled: false
Boxcar width: 0
XAxis mode: Wavelengths
Number of Pixels in Spectrum: 3648
>>>>>Begin Spectral Data<<<<<
179.3399	0.1258
179.5586	0.1258
179.7771	0.1258
179.9957	0.4021
180.2143	-0
180.4329	0.211
180.6514	-0
180.8699	0.2668
181.0885	0.7914
181.307	1.2895
181.5255	-0
181.744	0.4383
181.9625	0.6458
182.181	-0
182.3994	0.5363
182.6179	-0.4057
182.8363	-1.1982
183.0547	0.4142
183.2732	0.1306
183.4916	0.1216
183.71	0.0103
183.9284	-0.0564
184.1467	0.0881
184.3651	0.14
184.5835	0.0511
184.8018	0.0415
185.0201	0.1589
185.2385	0.1059
185.4568	0.0237
185.6751	0.1458
185.8934	-0.0179
186.1117	0.0432
186.3299	0.0179
186.5482	0.0746
186.7664	0.0954
186.9847	0.0895
187.2029	0.2101
187.4211	0.1124
187.6393	-0.0604
187.8575	0.1437
188.0757	0.1391
188.2939	-0.0055
188.512	0.0561
188.7302	-0.0142
188.9483	0.1351
189.1665	0.0698
189.3846	0.2132
189.6027	0.368
189.8208	0.085
190.0389	0.1769
190.257	0.0792
190.475	0.1403
190.6931	0.1044
190.9111	0.2994
191.1292	0.2771
191.3472	0.3623
191.5652	0.3898
191.7832	0.3734
192.0012	0.5163
192.2192	0.4043
192.4371	0.3321
192.6551	0.399
192.873	0.4043
193.091	0.4287
193.3089	0.4786
193.5268	0.5618
193.7447	0.56
193.9626	0.5205
194.1805	0.5563
194.3984	0.7147
194.6162	0.5911
194.8341	0.5742
195.0519	0.725
195.2697	0.6416
195.4875	0.6131
195.7054	0.7028
195.9231	0.5863
196.1409	0.7086
196.3587	0.6344
196.5765	0.7492
196.7942	0.6409
197.012	0.5245
197.2297	0.6765
197.4474	0.6355
197.6651	0.5521
197.8828	0.8642
198.1005	0.8342
198.3182	0.7821
198.5358	0.7433
198.7535	0.7831
198.9711	0.8848
199.1888	0.7958
199.4064	0.8969
199.624	0.8152
199.8416	0.7836
200.0592	0.787
200.2767	0.7765
200.4943	0.8499
200.7119	0.8605
200.9294	0.882
201.1469	0.8608
201.3645	0.8444
201.582	0.8885
201.7995	0.7487
202.017	0.8542
202.2344	0.8157
202.4519	0.885
202.6694	0.7959
202.8868	0.9652
203.1042	0.985
203.3217	1.0279
203.5391	0.8735
203.7565	0.9653
203.9739	0.8418
204.1913	0.81
204.4086	0.8755
204.626	0.955
204.8433	1.0363
205.0607	0.9736
205.278	0.8903
205.4953	1.104
205.7126	0.9555
205.9299	0.9886
206.1472	0.9551
206.3644	0.9676
206.5817	0.9915
206.7989	1.0902
207.0162	1.08
207.2334	0.9382
207.4506	1.0709
207.6678	1.0131
207.885	1.0811
208.1022	1.0778
208.3194	1.0848
208.5365	1.0895
208.7537	1.0182
208.9708	1.0846
209.1879	1.1114
209.405	1.0237
209.6222	1.1633
209.8392	1.0525
210.0563	1.0195
210.2734	1.0861
210.4905	1.0811
210.7075	1.0077
210.9245	0.9933
211.1416	1.212
211.3586	1.0911
211.5756	1.0991
211.7926	1.0942
212.0096	0.9781
212.2265	1.0535
212.4435	0.9953
212.6604	1.0628
212.8774	1.006
213.0943	1.0235
213.3112	0.9404
213.5281	1.0682
213.745	1.0019
213.9619	0.9335
214.1788	0.9677
214.3956	0.9656
214.6125	0.9202
214.8293	0.862
215.0461	0.9152
215.2629	0.9124
215.4798	0.8461
215.6965	0.8688
215.9133	0.8356
216.1301	0.8211
216.3469	0.8397
216.5636	0.7944
216.7803	0.7764
216.9971	0.764
217.2138	0.7341
217.4305	0.7051
217.6472	0.694
217.8639	0.6344
218.0805	0.6341
218.2972	0.5853
218.5138	0.5317
218.7305	0.5074
218.9471	0.4698
219.1637	0.4465
219.3803	0.4316
219.5969	0.4019
219.8135	0.3676
220.0301	0.3554
220.2466	0.3711
220.4632	0.3241
220.6797	0.3218
220.8962	0.3177
221.1127	0.3055
221.3292	0.3138
221.5457	0.2882
221.7622	0.2974
221.9787	0.2805
222.1951	0.2853
222.4116	0.2681
222.628	0.2705
222.8444	0.2695
223.0608	0.2715
223.2772	0.2733
223.4936	0.2625
223.71	0.2784
223.9264	0.2698
224.1427	0.2654
224.3591	0.2724
224.5754	0.2754
224.7917	0.2739
225.008	0.2759
225.2243	0.2762
225.4406	0.2845
225.6569	0.2788
225.8732	0.3052
226.0894	0.2813
226.3057	0.2996
226.5219	0.2899
226.7381	0.29
226.9543	0.2727
227.1705	0.2946
227.3867	0.3002
227.6029	0.3
227.8191	0.3015
228.0352	0.2948
228.2513	0.3076
228.4675	0.2973
228.6836	0.3199
228.8997	0.3275
229.1158	0.327
229.3319	0.3266
229.548	0.328
229.764	0.3147
229.9801	0.3373
230.1961	0.3397
230.4121	0.3437
230.6282	0.3573
230.8442	0.3404
231.0602	0.3492
231.2761	0.343
231.4921	0.3556
231.7081	0.3575
231.924	0.3672
232.14	0.3688
232.3559	0.365
232.5718	0.3558
232.7877	0.3624
233.0036	0.3696
233.2195	0.3663
233.4353	0.3761
233.6512	0.3669
233.867	0.3753
234.0829	0.375
234.2987	0.3843
234.5145	0.3957
234.7303	0.3969
234.9461	0.3994
235.1619	0.388
235.3776	0.3849
235.5934	0.3913
235.8091	0.3908
236.0249	0.3823
236.2406	0.4069
236.4563	0.3984
236.672	0.3988
236.8877	0.4045
237.1034	0.4024
237.319	0.4031
237.5347	0.4036
237.7503	0.4056
237.966	0.4243
238.1816	0.4139
238.3972	0.4098
238.6128	0.4105
238.8284	0.4043
239.0439	0.4016
239.2595	0.4169
239.475	0.4264
239.6906	0.4274
239.9061	0.4092
240.1216	0.4056
240.3371	0.4021
240.5526	0.4173
240.7681	0.4117
240.9836	0.4058
241.199	0.4088
241.4145	0.3993
241.6299	0.3989
241.8453	0.3985
242.0607	0.3891
242.2761	0.3823
242.4915	0.3707
242.7069	0.3758
242.9223	0.3647
243.1376	0.3751
243.353	0.3464
243.5683	0.3491
243.7836	0.3313
243.9989	0.3322
244.2142	0.3297
244.4295	0.3363
244.6448	0.3228
244.86	0.314
245.0753	0.3082
245.2905	0.2936
245.5057	0.2964
245.721	0.2996
245.9362	0.2805
246.1514	0.2754
246.3665	0.277
246.5817	0.2659
246.7969	0.2669
247.012	0.2597
247.2271	0.2596
247.4423	0.2583
247.6574	0.2502
247.8725	0.2465
248.0876	0.2645
248.3026	0.2363
248.5177	0.2458
248.7328	0.2284
248.9478	0.236
249.1628	0.2375
249.3779	0.2292
249.5929	0.2249
249.8079	0.2146
250.0228	0.2277
250.2378	0.2251
250.4528	0.2118
250.6677	0.2192
250.8827	0.2095
251.0976	0.205
251.3125	0.2109
251.5274	0.2042
251.7423	0.209
251.9572	0.2077
252.172	0.1989
252.3869	0.2025
252.6017	0.2081
252.8166	0.2109
253.0314	0.2079
253.2462	0.2094
253.461	0.2079
253.6758	0.1906
253.8906	0.1974
254.1053	0.2026
254.3201	0.2017
254.5348	0.1972
254.7496	0.1992
254.9643	0.1979
255.179	0.198
255.3937	0.2087
255.6083	0.1995
255.823	0.1917
256.0377	0.1914
256.2523	0.2021
256.467	0.1961
256.6816	0.1836
256.8962	0.2
257.1108	0.2015
257.3254	0.1929
257.54	0.202
257.7545	0.1941
257.9691	0.194
258.1836	0.1916
258.3981	0.197
258.6127	0.2019
258.8272	0.1965
259.0417	0.1992
259.2561	0.196
259.4706	0.1881
259.6851	0.1885
259.8995	0.1898
260.114	0.1972
260.3284	0.2022
260.5428	0.1967
260.7572	0.2056
260.9716	0.2025
261.186	0.2002
261.4003	0.2063
261.6147	0.1946
261.829	0.2029
262.0433	0.199
262.2577	0.2
262.472	0.2023
262.6863	0.1878
262.9005	0.19
263.1148	0.1933
263.3291	0.194
263.5433	0.194
263.7576	0.1886
263.9718	0.1862
264.186	0.1841
264.4002	0.1804
264.6144	0.186
264.8286	0.1863
265.0427	0.1749
265.2569	0.1849
265.471	0.177
265.6851	0.1769
265.8993	0.174
266.1134	0.1711
266.3275	0.1782
266.5415	0.1751
266.7556	0.1866
266.9697	0.1804
267.1837	0.1729
267.3978	0.1882
267.6118	0.187
267.8258	0.1883
268.0398	0.1868
268.2538	0.1974
268.4677	0.1863
268.6817	0.187
268.8957	0.1872
269.1096	0.1778
269.3235	0.1801
269.5374	0.1779
269.7514	0.1667
269.9652	0.1577
270.1791	0.1575
270.393	0.1542
270.6068	0.1481
270.8207	0.1484
271.0345	0.1557
271.2483	0.1539
271.4622	0.1397
271.676	0.1445
271.8897	0.1373
272.1035	0.1334
272.3173	0.1474
272.531	0.1345
272.7448	0.1379
272.9585	0.1369
273.1722	0.131
273.3859	0.1303
273.5996	0.1283
273.8133	0.1444
274.0269	0.1327
274.2406	0.1376
274.4542	0.1319
274.6679	0.1302
274.8815	0.1352
275.0951	0.1383
275.3087	0.1397
275.5223	0.1315
275.7358	0.1427
275.9494	0.1436
276.1629	0.1384
276.3765	0.134
276.59	0.1434
276.8035	0.1383
277.017	0.1318
277.2305	0.138
277.444	0.1394
277.6574	0.1354
277.8709	0.1433
278.0843	0.1413
278.2978	0.1361
278.5112	0.1373
278.7246	0.1338
278.938	0.141
279.1513	0.1468
279.3647	0.1451
279.5781	0.138
279.7914	0.1422
280.0047	0.1443
280.2181	0.147
280.4314	0.1426
280.6447	0.1417
280.8579	0.1483
281.0712	0.1453
281.2845	0.1435
281.4977	0.1414
281.711	0.1503
281.9242	0.1464
282.1374	0.1404
282.3506	0.1352
282.5638	0.1507
282.7769	0.1521
282.9901	0.1556
283.2033	0.1555
283.4164	0.1488
283.6295	0.1528
283.8426	0.1464
284.0557	0.145
284.2688	0.1604
284.4819	0.1484
284.695	0.1531
284.908	0.1492
285.1211	0.1603
285.3341	0.1473
285.5471	0.1543
285.7601	0.1469
285.9731	0.1547
286.1861	0.1692
286.3991	0.1548
286.612	0.1594
286.825	0.1648
287.0379	0.1579
287.2508	0.1524
287.4637	0.1642
287.6766	0.1519
287.8895	0.1647
288.1024	0.1612
288.3152	0.1625
288.5281	0.1585
288.7409	0.1583
288.9538	0.1602
289.1666	0.1648
289.3794	0.1627
289.5922	0.1615
289.8049	0.167
290.0177	0.1639
290.2304	0.164
290.4432	0.1599
290.6559	0.1584
290.8686	0.1643
291.0813	0.1697
291.294	0.1654
291.5067	0.1598
291.7194	0.1649
291.932	0.1631
292.1447	0.165
292.3573	0.1587
292.5699	0.1701
292.7825	0.1654
292.9951	0.1651
293.2077	0.1548
293.4203	0.1609
293.6328	0.1676
293.8454	0.1602
294.0579	0.1653
294.2704	0.1707
294.4829	0.1641
294.6954	0.1665
294.9079	0.1629
295.1204	0.1665
295.3328	0.1604
295.5453	0.1567
295.7577	0.1582
295.9701	0.1623
296.1825	0.1713
296.3949	0.1619
296.6073	0.1718
296.8197	0.1611
297.0321	0.1688
297.2444	0.1536
297.4567	0.1582
297.6691	0.169
297.8814	0.161
298.0937	0.1656
298.306	0.1623
298.5182	0.1534
298.7305	0.167
298.9428	0.1648
299.155	0.1614
299.3672	0.1702
299.5794	0.1666
299.7916	0.1653
300.0038	0.1615
300.216	0.1671
300.4282	0.1653
300.6403	0.159
300.8525	0.1653
301.0646	0.1625
301.2767	0.1538
301.4888	0.158
301.7009	0.1673
301.913	0.1616
302.125	0.1643
302.3371	0.1627
302.5491	0.1587
302.7612	0.173
302.9732	0.1699
303.1852	0.1601
303.3972	0.1594
303.6092	0.1612
303.8211	0.1621
304.0331	0.1516
304.245	0.1594
304.457	0.1607
304.6689	0.1609
304.8808	0.1602
305.0927	0.1563
305.3046	0.1461
305.5164	0.1516
305.7283	0.1541
305.9401	0.1565
306.152	0.1575
306.3638	0.1643
306.5756	0.1376
306.7874	0.1444
306.9992	0.1409
307.2109	0.1408
307.4227	0.1383
307.6344	0.1313
307.8462	0.1406
308.0579	0.1323
308.2696	0.1262
308.4813	0.1316
308.693	0.1334
308.9046	0.1235
309.1163	0.1315
309.328	0.1221
309.5396	0.123
309.7512	0.1231
309.9628	0.1163
310.1744	0.1211
310.386	0.1171
310.5976	0.1204
310.8091	0.1111
311.0207	0.1199
311.2322	0.1161
311.4437	0.1189
311.6552	0.1099
311.8667	0.1103
312.0782	0.1099
312.2897	0.0981
312.5012	0.1104
312.7126	0.0943
312.924	0.098
313.1355	0.0961
313.3469	0.1025
313.5583	0.1012
313.7696	0.1002
313.981	0.0952
314.1924	0.0911
314.4037	0.0968
314.6151	0.0935
314.8264	0.0971
315.0377	0.0927
315.249	0.1023
315.4603	0.094
315.6716	0.0961
315.8828	0.1005
316.0941	0.0916
316.3053	0.0884
316.5165	0.0914
316.7277	0.0928
316.9389	0.0998
317.1501	0.0872
317.3613	0.0827
317.5724	0.0904
317.7836	0.0888
317.9947	0.0888
318.2058	0.0925
318.417	0.0849
318.6281	0.0952
318.8391	0.0983
319.0502	0.0864
319.2613	0.0912
319.4723	0.0852
319.6834	0.0853
319.8944	0.0956
320.1054	0.0906
320.3164	0.0942
320.5274	0.0943
320.7383	0.0923
320.9493	0.0904
321.1602	0.094
321.3712	0.1016
321.5821	0.0912
321.793	0.0917
322.0039	0.0916
322.2148	0.0955
322.4257	0.0891
322.6365	0.0838
322.8474	0.0958
323.0582	0.0954
323.269	0.0898
323.4798	0.098
323.6906	0.0948
323.9014	0.095
324.1122	0.0932
324.3229	0.096
324.5337	0.0789
324.7444	0.0865
324.9551	0.0919
325.1658	0.0969
325.3765	0.0883
325.5872	0.1012
325.7979	0.0999
326.0085	0.0985
326.2192	0.0924
326.4298	0.1099
326.6404	0.0952
326.851	0.0951
327.0616	0.1041
327.2722	0.1003
327.4828	0.1004
327.6933	0.0989
327.9039	0.1007
328.1144	0.0984
328.3249	0.1021
328.5354	0.1018
328.7459	0.0974
328.9564	0.0922
329.1669	0.0934
329.3773	0.0988
329.5878	0.1023
329.7982	0.1025
330.0086	0.1015
330.219	0.1016
330.4294	0.0924
330.6398	0.0996
330.8502	0.0951
331.0605	0.0981
331.2708	0.0988
331.4812	0.1017
331.6915	0.1025
331.9018	0.0951
332.1121	0.1036
332.3224	0.0969
332.5326	0.0928
332.7429	0.1007
332.9531	0.0967
333.1633	0.1118
333.3735	0.1047
333.5837	0.0987
333.7939	0.1058
334.0041	0.096
334.2143	0.0929
334.4244	0.0922
334.6346	0.0933
334.8447	0.0984
335.0548	0.0998
335.2649	0.0968
335.475	0.0919
335.685	0.1097
335.8951	0.1032
336.1051	0.0945
336.3152	0.0957
336.5252	0.0949
336.7352	0.0978
336.9452	0.1061
337.1552	0.1026
337.3652	0.1073
337.5751	0.102
337.7851	0.0934
337.995	0.1071
338.2049	0.1035
338.4148	0.1057
338.6247	0.1108
338.8346	0.1054
339.0445	0.107
339.2543	0.1024
339.4642	0.1068
339.674	0.1011
339.8838	0.1058
340.0936	0.1096
340.3034	0.1156
340.5132	0.1062
340.7229	0.1213
340.9327	0.1125
341.1424	0.1078
341.3522	0.1097
341.5619	0.1133
341.7716	0.1171
341.9813	0.1182
342.1909	0.1131
342.4006	0.1072
342.6102	0.1181
342.8199	0.116
343.0295	0.1072
343.2391	0.1154
343.4487	0.1102
343.6583	0.1177
343.8679	0.1131
344.0774	0.1211
344.287	0.1171
344.4965	0.1188
344.706	0.1205
344.9155	0.1326
345.125	0.1237
345.3345	0.1268
345.544	0.1089
345.7534	0.12
345.9629	0.1285
346.1723	0.1296
346.3817	0.1253
346.5911	0.1301
346.8005	0.1282
347.0099	0.1158
347.2193	0.1286
347.4286	0.1268
347.638	0.13
347.8473	0.1247
348.0566	0.129
348.2659	0.1251
348.4752	0.1233
348.6845	0.13
348.8937	0.133
349.103	0.1314
349.3122	0.1336
349.5214	0.1307
349.7306	0.1309
349.9398	0.1313
350.149	0.1368
350.3582	0.128
350.5674	0.1413
350.7765	0.1283
350.9856	0.1302
351.1948	0.1278
351.4039	0.1276
351.613	0.1296
351.822	0.1399
352.0311	0.1425
352.2402	0.1321
352.4492	0.1376
352.6582	0.1468
352.8672	0.1397
353.0762	0.146
353.2852	0.157
353.4942	0.1493
353.7032	0.1536
353.9121	0.1489
354.1211	0.1453
354.33	0.148
354.5389	0.14
354.7478	0.1473
354.9567	0.1459
355.1655	0.1578
355.3744	0.1538
355.5833	0.1468
355.7921	0.1537
356.0009	0.1489
356.2097	0.1535
356.4185	0.1536
356.6273	0.1515
356.8361	0.1516
357.0448	0.1546
357.2536	0.1554
357.4623	0.1516
357.671	0.1618
357.8797	0.1594
358.0884	0.1567
358.2971	0.1607
358.5057	0.1567
358.7144	0.1666
358.923	0.1733
359.1316	0.1666
359.3402	0.1764
359.5488	0.1583
359.7574	0.1773
359.966	0.1827
360.1746	0.1642
360.3831	0.1914
360.5916	0.1911
360.8002	0.1808
361.0087	0.1792
361.2172	0.1673
361.4256	0.1809
361.6341	0.1808
361.8426	0.1825
362.051	0.1761
362.2594	0.1829
362.4678	0.1779
362.6762	0.1776
362.8846	0.1879
363.093	0.1755
363.3014	0.1897
363.5097	0.1778
363.718	0.1878
363.9264	0.1929
364.1347	0.1945
364.343	0.192
364.5513	0.1906
364.7595	0.1813
364.9678	0.1992
365.176	0.1924
365.3842	0.1935
365.5925	0.1998
365.8007	0.1868
366.0089	0.2096
366.217	0.2026
366.4252	0.2068
366.6333	0.1948
366.8415	0.1973
367.0496	0.2136
367.2577	0.2033
367.4658	0.2018
367.6739	0.2147
367.882	0.2033
368.09	0.1962
368.2981	0.2189
368.5061	0.2016
368.7141	0.206
368.9221	0.1999
369.1301	0.2213
369.3381	0.219
369.5461	0.2254
369.754	0.215
369.962	0.2129
370.1699	0.2141
370.3778	0.2183
370.5857	0.2201
370.7936	0.2131
371.0015	0.2178
371.2093	0.208
371.4172	0.2312
371.625	0.2233
371.8328	0.2354
372.0406	0.2315
372.2484	0.2238
372.4562	0.2276
372.664	0.2299
372.8717	0.2271
373.0795	0.2243
373.2872	0.2317
373.4949	0.2151
373.7026	0.2342
373.9103	0.2295
374.118	0.2336
374.3256	0.2299
374.5333	0.2312
374.7409	0.2333
374.9485	0.237
375.1561	0.2388
375.3637	0.2263
375.5713	0.233
375.7789	0.2402
375.9864	0.2363
376.194	0.2423
376.4015	0.252
376.609	0.2527
376.8165	0.2424
377.024	0.2328
377.2315	0.2493
377.4389	0.2333
377.6464	0.2367
377.8538	0.2525
378.0612	0.241
378.2686	0.2433
378.476	0.2469
378.6834	0.2524
378.8908	0.2543
379.0981	0.2593
379.3055	0.2515
379.5128	0.2469
379.7201	0.2561
379.9274	0.254
380.1347	0.2572
380.342	0.2621
380.5492	0.2627
380.7565	0.2658
380.9637	0.2698
381.1709	0.2525
381.3781	0.2496
381.5853	0.2618
381.7925	0.263
381.9997	0.2605
382.2068	0.2654
382.4139	0.2609
382.6211	0.2593
382.8282	0.2707
383.0353	0.2614
383.2424	0.2595
383.4494	0.2615
383.6565	0.2578
383.8635	0.2732
384.0706	0.252
384.2776	0.2744
384.4846	0.2612
384.6916	0.2598
384.8986	0.2608
385.1055	0.2688
385.3125	0.2663
385.5194	0.271
385.7263	0.2762
385.9333	0.261
386.1402	0.268
386.347	0.2772
386.5539	0.274
386.7608	0.2641
386.9676	0.2692
387.1744	0.2705
387.3813	0.2676
387.5881	0.2663
387.7948	0.2647
388.0016	0.2635
388.2084	0.2837
388.4151	0.2598
388.6219	0.2585
388.8286	0.2681
389.0353	0.2551
389.242	0.27
389.4487	0.25
389.6553	0.2642
389.862	0.248
390.0686	0.2549
390.2753	0.2605
390.4819	0.2487
390.6885	0.2517
390.8951	0.2547
391.1016	0.2567
391.3082	0.2557
391.5147	0.2446
391.7213	0.2408
391.9278	0.2404
392.1343	0.2501
392.3408	0.2392
392.5473	0.2509
392.7537	0.2589
392.9602	0.2326
393.1666	0.2484
393.373	0.2416
393.5794	0.2447
393.7858	0.2384
393.9922	0.2429
394.1986	0.2448
394.4049	0.2547
394.6113	0.2428
394.8176	0.2278
395.0239	0.2354
395.2302	0.2293
395.4365	0.2397
395.6428	0.229
395.8491	0.2386
396.0553	0.2322
396.2615	0.2403
396.4678	0.2457
396.674	0.2286
396.8802	0.2244
397.0863	0.2293
397.2925	0.2323
397.4987	0.2276
397.7048	0.2218
397.9109	0.2262
398.117	0.2328
398.3231	0.2363
398.5292	0.2253
398.7353	0.2207
398.9413	0.224
399.1474	0.2252
399.3534	0.2163
399.5594	0.2176
399.7654	0.2348
399.9714	0.2326
400.1774	0.2301
400.3833	0.2267
400.5893	0.2166
400.7952	0.2195
401.0011	0.221
401.207	0.2212
401.4129	0.2076
401.6188	0.2204
401.8247	0.2203
402.0305	0.2232
402.2364	0.2236
402.4422	0.2209
402.648	0.2301
402.8538	0.2204
403.0596	0.207
403.2654	0.2186
403.4711	0.2119
403.6768	0.2322
403.8826	0.2238
404.0883	0.2286
404.294	0.2323
404.4997	0.2251
404.7054	0.2243
404.911	0.2227
405.1167	0.2321
405.3223	0.2183
405.5279	0.2319
405.7335	0.229
405.9391	0.2162
406.1447	0.2209
406.3502	0.2116
406.5558	0.2153
406.7613	0.2142
406.9668	0.2267
407.1724	0.225
407.3778	0.2295
407.5833	0.2197
407.7888	0.2401
407.9942	0.2155
408.1997	0.2321
408.4051	0.2254
408.6105	0.2155
408.8159	0.2331
409.0213	0.2135
409.2267	0.218
409.432	0.2228
409.6374	0.2253
409.8427	0.2247
410.048	0.2321
410.2533	0.2252
410.4586	0.2275
410.6639	0.2104
410.8691	0.223
411.0744	0.2158
411.2796	0.2239
411.4848	0.2174
411.69	0.2305
411.8952	0.2135
412.1004	0.225
412.3056	0.2156
412.5107	0.2273
412.7158	0.2075
412.921	0.2182
413.1261	0.2105
413.3312	0.2192
413.5362	0.2251
413.7413	0.212
413.9464	0.2087
414.1514	0.2103
414.3564	0.2184
414.5614	0.2199
414.7664	0.2308
414.9714	0.214
415.1764	0.2116
415.3813	0.2291
415.5863	0.2167
415.7912	0.2209
415.9961	0.2157
416.201	0.2227
416.4059	0.213
416.6108	0.2141
416.8156	0.2163
417.0205	0.2211
417.2253	0.2128
417.4301	0.2217
417.6349	0.2211
417.8397	0.2115
418.0445	0.2127
418.2492	0.2143
418.454	0.2082
418.6587	0.2102
418.8634	0.2018
419.0681	0.2036
419.2728	0.2087
419.4775	0.1999
419.6822	0.2
419.8868	0.2067
420.0915	0.2037
420.2961	0.1962
420.5007	0.2084
420.7053	0.2013
420.9099	0.1963
421.1144	0.2058
421.319	0.1931
421.5235	0.2141
421.728	0.1993
421.9325	0.1919
422.137	0.1841
422.3415	0.2053
422.546	0.2009
422.7504	0.1892
422.9549	0.1963
423.1593	0.1928
423.3637	0.1896
423.5681	0.1947
423.7725	0.1964
423.9769	0.1974
424.1812	0.1899
424.3856	0.1844
424.5899	0.1928
424.7942	0.1857
424.9985	0.184
425.2028	0.1772
425.4071	0.1898
425.6113	0.1847
425.8156	0.1759
426.0198	0.1939
426.224	0.1715
426.4282	0.1771
426.6324	0.1948
