Data from MonoPyChalIsomerACN10uM450nmA_Absorbance_13-11-13-692.txt Node
Date: Tue Jul 09 13:11:13 BST 2024
User: LASERRRRR
Spectrometer: FLMT03099
Trigger mode: 0
Integration Time (sec): 2.000000E-1
Scans to average: 1
Electric dark correction enabled: true
Nonlinearity correction enabled: false
Boxcar width: 0
XAxis mode: Wavelengths
Number of Pixels in Spectrum: 3648
>>>>>Begin Spectral Data<<<<<
179.3399	0.2114
179.5586	0.2114
179.7771	0.2114
179.9957	-0.3656
180.2143	0.3515
180.4329	0.2863
180.6514	-0
180.8699	-0
181.0885	0.4668
181.307	0.6161
181.5255	-0
181.744	-0.4434
181.9625	1.3689
182.181	0.4156
182.3994	0.3902
182.6179	-0.3018
182.8363	-0
183.0547	0.1783
183.2732	0.1703
183.4916	0.006
183.71	0.0927
183.9284	0.012
184.1467	-0.0236
184.3651	0.2346
184.5835	0.1095
184.8018	0.0647
185.0201	0.0185
185.2385	0.0158
185.4568	0.1018
185.6751	0.1162
185.8934	0.071
186.1117	-0.0324
186.3299	-0.0645
186.5482	0.0822
186.7664	0.097
186.9847	0.1043
187.2029	0.153
187.4211	0.2173
187.6393	-0.0574
187.8575	0.1474
188.0757	0.0742
188.2939	0.0837
188.512	-0.0267
188.7302	0.0263
188.9483	0.1765
189.1665	0.2237
189.3846	0.0645
189.6027	0.1251
189.8208	0.1306
190.0389	0.2853
190.257	0.2621
190.475	0.3172
190.6931	0.2214
190.9111	0.2398
191.1292	0.2908
191.3472	0.3882
191.5652	0.371
191.7832	0.415
192.0012	0.4226
192.2192	0.4286
192.4371	0.4206
192.6551	0.5425
192.873	0.3649
193.091	0.5175
193.3089	0.5431
193.5268	0.4967
193.7447	0.392
193.9626	0.5006
194.1805	0.625
194.3984	0.6059
194.6162	0.5873
194.8341	0.5262
195.0519	0.5772
195.2697	0.6405
195.4875	0.619
195.7054	0.6498
195.9231	0.6545
196.1409	0.6186
196.3587	0.6144
196.5765	0.7211
196.7942	0.8294
197.012	0.665
197.2297	0.726
197.4474	0.7486
197.6651	0.7464
197.8828	0.7968
198.1005	0.7663
198.3182	0.7526
198.5358	0.7231
198.7535	0.8116
198.9711	0.7989
199.1888	0.7425
199.4064	0.7639
199.624	0.7652
199.8416	0.8659
200.0592	0.7332
200.2767	0.7922
200.4943	1.0314
200.7119	0.9328
200.9294	0.8904
201.1469	0.8098
201.3645	0.8351
201.582	0.9176
201.7995	0.7559
202.017	1.047
202.2344	0.8093
202.4519	0.9733
202.6694	0.7985
202.8868	0.8672
203.1042	1.04
203.3217	0.9092
203.5391	0.9271
203.7565	1.0126
203.9739	0.8713
204.1913	0.8296
204.4086	0.9789
204.626	1.0487
204.8433	0.9425
205.0607	0.8761
205.278	0.9274
205.4953	1.0323
205.7126	0.9492
205.9299	1.0588
206.1472	0.9707
206.3644	1.0219
206.5817	1.0637
206.7989	1.0532
207.0162	1.0505
207.2334	0.9657
207.4506	0.9726
207.6678	1.0067
207.885	1.0759
208.1022	1.1305
208.3194	1.0877
208.5365	1.1611
208.7537	1.0191
208.9708	1.0656
209.1879	1.0313
209.405	1.0601
209.6222	1.132
209.8392	1.11
210.0563	0.982
210.2734	1.0139
210.4905	1.2301
210.7075	0.9911
210.9245	1.0393
211.1416	1.0682
211.3586	1.1638
211.5756	1.0895
211.7926	1.0815
212.0096	1.021
212.2265	1.0371
212.4435	1.0444
212.6604	1.0363
212.8774	1.0584
213.0943	1.0108
213.3112	1.0285
213.5281	1.0805
213.745	0.9874
213.9619	0.9764
214.1788	0.9244
214.3956	0.9352
214.6125	0.9431
214.8293	0.9287
215.0461	0.8759
215.2629	0.8824
215.4798	0.8898
215.6965	0.8331
215.9133	0.856
216.1301	0.7901
216.3469	0.8241
216.5636	0.8081
216.7803	0.7612
216.9971	0.7347
217.2138	0.7326
217.4305	0.709
217.6472	0.6764
217.8639	0.6368
218.0805	0.6338
218.2972	0.5628
218.5138	0.5513
218.7305	0.5148
218.9471	0.4699
219.1637	0.4497
219.3803	0.4563
219.5969	0.3972
219.8135	0.3593
220.0301	0.3715
220.2466	0.3786
220.4632	0.3341
220.6797	0.3186
220.8962	0.3167
221.1127	0.304
221.3292	0.3134
221.5457	0.2848
221.7622	0.2875
221.9787	0.2923
222.1951	0.2858
222.4116	0.2735
222.628	0.2663
222.8444	0.2736
223.0608	0.2821
223.2772	0.2669
223.4936	0.2647
223.71	0.2851
223.9264	0.2849
224.1427	0.2758
224.3591	0.2696
224.5754	0.2806
224.7917	0.2672
225.008	0.2894
225.2243	0.2803
225.4406	0.2837
225.6569	0.2839
225.8732	0.3029
226.0894	0.2782
226.3057	0.2889
226.5219	0.2869
226.7381	0.2929
226.9543	0.2844
227.1705	0.2842
227.3867	0.3072
227.6029	0.2842
227.8191	0.303
228.0352	0.3016
228.2513	0.3137
228.4675	0.3174
228.6836	0.3236
228.8997	0.3245
229.1158	0.3167
229.3319	0.3225
229.548	0.324
229.764	0.3123
229.9801	0.3342
230.1961	0.3355
230.4121	0.3274
230.6282	0.3457
230.8442	0.3295
231.0602	0.359
231.2761	0.3497
231.4921	0.3622
231.7081	0.3608
231.924	0.3603
232.14	0.3595
232.3559	0.3705
232.5718	0.3654
232.7877	0.3525
233.0036	0.3705
233.2195	0.3651
233.4353	0.3783
233.6512	0.3849
233.867	0.3833
234.0829	0.3846
234.2987	0.3801
234.5145	0.3738
234.7303	0.3935
234.9461	0.3949
235.1619	0.3788
235.3776	0.385
235.5934	0.394
235.8091	0.3922
236.0249	0.395
236.2406	0.4003
236.4563	0.3935
236.672	0.4078
236.8877	0.4148
237.1034	0.4121
237.319	0.4095
237.5347	0.4017
237.7503	0.4176
237.966	0.4254
238.1816	0.4082
238.3972	0.4158
238.6128	0.418
238.8284	0.413
239.0439	0.4185
239.2595	0.437
239.475	0.4168
239.6906	0.4222
239.9061	0.4202
240.1216	0.4211
240.3371	0.4316
240.5526	0.4281
240.7681	0.4167
240.9836	0.4128
241.199	0.4169
241.4145	0.4157
241.6299	0.4012
241.8453	0.395
242.0607	0.3904
242.2761	0.3931
242.4915	0.385
242.7069	0.3719
242.9223	0.3622
243.1376	0.3684
243.353	0.3574
243.5683	0.3482
243.7836	0.3349
243.9989	0.3358
244.2142	0.3358
244.4295	0.3239
244.6448	0.3218
244.86	0.3177
245.0753	0.3002
245.2905	0.2942
245.5057	0.2934
245.721	0.2911
245.9362	0.2815
246.1514	0.2775
246.3665	0.2817
246.5817	0.2561
246.7969	0.2699
247.012	0.2692
247.2271	0.2627
247.4423	0.2578
247.6574	0.2513
247.8725	0.24
248.0876	0.2506
248.3026	0.2384
248.5177	0.2431
248.7328	0.2306
248.9478	0.2454
249.1628	0.2427
249.3779	0.2297
249.5929	0.2219
249.8079	0.2319
250.0228	0.2247
250.2378	0.2263
250.4528	0.2114
250.6677	0.2278
250.8827	0.2054
251.0976	0.2131
251.3125	0.2153
251.5274	0.2012
251.7423	0.208
251.9572	0.209
252.172	0.2059
252.3869	0.1996
252.6017	0.1955
252.8166	0.2126
253.0314	0.2016
253.2462	0.2039
253.461	0.1964
253.6758	0.2007
253.8906	0.203
254.1053	0.2021
254.3201	0.2001
254.5348	0.1973
254.7496	0.1989
254.9643	0.1997
255.179	0.2002
255.3937	0.202
255.6083	0.2057
255.823	0.1973
256.0377	0.1869
256.2523	0.1992
256.467	0.1976
256.6816	0.1903
256.8962	0.1948
257.1108	0.1957
257.3254	0.205
257.54	0.2046
257.7545	0.1944
257.9691	0.1958
258.1836	0.1938
258.3981	0.1968
258.6127	0.1983
258.8272	0.1983
259.0417	0.1961
259.2561	0.2003
259.4706	0.1914
259.6851	0.1995
259.8995	0.1908
260.114	0.1925
260.3284	0.2004
260.5428	0.2032
260.7572	0.1981
260.9716	0.1916
261.186	0.2037
261.4003	0.1998
261.6147	0.1951
261.829	0.2017
262.0433	0.201
262.2577	0.2002
262.472	0.194
262.6863	0.1811
262.9005	0.1963
263.1148	0.1916
263.3291	0.1828
263.5433	0.1867
263.7576	0.1915
263.9718	0.1894
264.186	0.1825
264.4002	0.1878
264.6144	0.1848
264.8286	0.186
265.0427	0.1808
265.2569	0.1843
265.471	0.1715
265.6851	0.1827
265.8993	0.175
266.1134	0.1764
266.3275	0.1794
266.5415	0.1757
266.7556	0.185
266.9697	0.1806
267.1837	0.1817
267.3978	0.1861
267.6118	0.1829
267.8258	0.1871
268.0398	0.1952
268.2538	0.1893
268.4677	0.1954
268.6817	0.1826
268.8957	0.19
269.1096	0.1789
269.3235	0.1763
269.5374	0.1787
269.7514	0.1672
269.9652	0.1633
270.1791	0.1537
270.393	0.1531
270.6068	0.1455
270.8207	0.1431
271.0345	0.1612
271.2483	0.1505
271.4622	0.1429
271.676	0.1412
271.8897	0.1395
272.1035	0.1256
272.3173	0.1405
272.531	0.1368
272.7448	0.1412
272.9585	0.1352
273.1722	0.137
273.3859	0.1384
273.5996	0.1286
273.8133	0.1351
274.0269	0.1378
274.2406	0.1285
274.4542	0.1325
274.6679	0.1353
274.8815	0.1407
275.0951	0.1373
275.3087	0.1301
275.5223	0.1286
275.7358	0.1314
275.9494	0.1396
276.1629	0.1403
276.3765	0.1363
276.59	0.1382
276.8035	0.1409
277.017	0.1399
277.2305	0.1415
277.444	0.1327
277.6574	0.135
277.8709	0.1434
278.0843	0.1434
278.2978	0.1324
278.5112	0.1406
278.7246	0.1332
278.938	0.1459
279.1513	0.1418
279.3647	0.1472
279.5781	0.1425
279.7914	0.1379
280.0047	0.1421
280.2181	0.1415
280.4314	0.1409
280.6447	0.138
280.8579	0.1415
281.0712	0.1423
281.2845	0.1392
281.4977	0.145
281.711	0.1442
281.9242	0.1435
282.1374	0.1422
282.3506	0.1329
282.5638	0.1448
282.7769	0.1476
282.9901	0.143
283.2033	0.1526
283.4164	0.1519
283.6295	0.1518
283.8426	0.1496
284.0557	0.1437
284.2688	0.1531
284.4819	0.1588
284.695	0.1479
284.908	0.152
285.1211	0.1532
285.3341	0.1475
285.5471	0.1557
285.7601	0.1508
285.9731	0.154
286.1861	0.1622
286.3991	0.1592
286.612	0.1583
286.825	0.1606
287.0379	0.158
287.2508	0.1575
287.4637	0.162
287.6766	0.1475
287.8895	0.1669
288.1024	0.1586
288.3152	0.1569
288.5281	0.1674
288.7409	0.1567
288.9538	0.1561
289.1666	0.1694
289.3794	0.1617
289.5922	0.1654
289.8049	0.1696
290.0177	0.1672
290.2304	0.159
290.4432	0.1686
290.6559	0.1652
290.8686	0.1622
291.0813	0.1717
291.294	0.1634
291.5067	0.16
291.7194	0.169
291.932	0.165
292.1447	0.168
292.3573	0.1641
292.5699	0.1699
292.7825	0.1616
292.9951	0.1706
293.2077	0.1607
293.4203	0.1615
293.6328	0.1701
293.8454	0.161
294.0579	0.1618
294.2704	0.1663
294.4829	0.1679
294.6954	0.1673
294.9079	0.1701
295.1204	0.1734
295.3328	0.1647
295.5453	0.1708
295.7577	0.1563
295.9701	0.1583
296.1825	0.1674
296.3949	0.1635
296.6073	0.1711
296.8197	0.1658
297.0321	0.1738
297.2444	0.1605
297.4567	0.1635
297.6691	0.1656
297.8814	0.1631
298.0937	0.1593
298.306	0.1667
298.5182	0.1552
298.7305	0.1667
298.9428	0.1641
299.155	0.1623
299.3672	0.1707
299.5794	0.1632
299.7916	0.1606
300.0038	0.1655
300.216	0.1669
300.4282	0.167
300.6403	0.1617
300.8525	0.1649
301.0646	0.1583
301.2767	0.167
301.4888	0.164
301.7009	0.1639
301.913	0.1753
302.125	0.164
302.3371	0.1726
302.5491	0.1659
302.7612	0.1693
302.9732	0.1758
303.1852	0.1599
303.3972	0.1656
303.6092	0.1674
303.8211	0.167
304.0331	0.1549
304.245	0.1652
304.457	0.1602
304.6689	0.1677
304.8808	0.1628
305.0927	0.1589
305.3046	0.1525
305.5164	0.1636
305.7283	0.1581
305.9401	0.153
306.152	0.1586
306.3638	0.156
306.5756	0.1478
306.7874	0.1523
306.9992	0.1479
307.2109	0.1462
307.4227	0.1417
307.6344	0.1387
307.8462	0.1431
308.0579	0.1369
308.2696	0.1363
308.4813	0.1343
308.693	0.1356
308.9046	0.1238
309.1163	0.1298
309.328	0.1225
309.5396	0.1251
309.7512	0.1266
309.9628	0.1213
310.1744	0.1186
310.386	0.1068
310.5976	0.12
310.8091	0.1163
311.0207	0.1122
311.2322	0.1138
311.4437	0.1137
311.6552	0.1195
311.8667	0.1047
312.0782	0.1054
312.2897	0.0989
312.5012	0.1094
312.7126	0.0983
312.924	0.0917
313.1355	0.0966
313.3469	0.0963
313.5583	0.1063
313.7696	0.105
313.981	0.0933
314.1924	0.098
314.4037	0.0997
314.6151	0.0935
314.8264	0.0966
315.0377	0.0969
315.249	0.104
315.4603	0.0985
315.6716	0.0916
315.8828	0.1011
316.0941	0.0885
316.3053	0.0856
316.5165	0.092
316.7277	0.0894
316.9389	0.0922
317.1501	0.0931
317.3613	0.0868
317.5724	0.0917
317.7836	0.0867
317.9947	0.0904
318.2058	0.0871
318.417	0.0865
318.6281	0.0954
318.8391	0.0928
319.0502	0.0833
319.2613	0.0924
319.4723	0.0913
319.6834	0.0877
319.8944	0.0929
320.1054	0.0904
320.3164	0.0916
320.5274	0.0944
320.7383	0.0921
320.9493	0.0901
321.1602	0.091
321.3712	0.1029
321.5821	0.0925
321.793	0.0838
322.0039	0.0866
322.2148	0.0902
322.4257	0.0919
322.6365	0.086
322.8474	0.0934
323.0582	0.0971
323.269	0.0947
323.4798	0.0926
323.6906	0.0834
323.9014	0.0943
324.1122	0.0933
324.3229	0.0929
324.5337	0.08
324.7444	0.0902
324.9551	0.0939
325.1658	0.0929
325.3765	0.0925
325.5872	0.0878
325.7979	0.0968
326.0085	0.0981
326.2192	0.0974
326.4298	0.0987
326.6404	0.0962
326.851	0.0865
327.0616	0.0869
327.2722	0.093
327.4828	0.0905
327.6933	0.1001
327.9039	0.0992
328.1144	0.0879
328.3249	0.0906
328.5354	0.0968
328.7459	0.0861
328.9564	0.096
329.1669	0.1002
329.3773	0.0911
329.5878	0.0989
329.7982	0.0969
330.0086	0.0966
330.219	0.1023
330.4294	0.0888
330.6398	0.1047
330.8502	0.1008
331.0605	0.0953
331.2708	0.0991
331.4812	0.0989
331.6915	0.0908
331.9018	0.0949
332.1121	0.0933
332.3224	0.0984
332.5326	0.0973
332.7429	0.0999
332.9531	0.0977
333.1633	0.1121
333.3735	0.1008
333.5837	0.099
333.7939	0.0995
334.0041	0.0982
334.2143	0.0974
334.4244	0.0924
334.6346	0.1038
334.8447	0.1063
335.0548	0.1026
335.2649	0.0873
335.475	0.092
335.685	0.1069
335.8951	0.0977
336.1051	0.0945
336.3152	0.1054
336.5252	0.0966
336.7352	0.101
336.9452	0.0975
337.1552	0.1022
337.3652	0.1052
337.5751	0.1095
337.7851	0.1018
337.995	0.1005
338.2049	0.0923
338.4148	0.1072
338.6247	0.1107
338.8346	0.0965
339.0445	0.1065
339.2543	0.1036
339.4642	0.1044
339.674	0.1011
339.8838	0.104
340.0936	0.107
340.3034	0.1171
340.5132	0.1035
340.7229	0.116
340.9327	0.1078
341.1424	0.1048
341.3522	0.1123
341.5619	0.1183
341.7716	0.11
341.9813	0.1146
342.1909	0.1152
342.4006	0.1082
342.6102	0.1197
342.8199	0.1204
343.0295	0.1148
343.2391	0.1178
343.4487	0.12
343.6583	0.1134
343.8679	0.1123
344.0774	0.1201
344.287	0.1253
344.4965	0.1111
344.706	0.1199
344.9155	0.1209
345.125	0.1187
345.3345	0.1192
345.544	0.1092
345.7534	0.1241
345.9629	0.1213
346.1723	0.1232
346.3817	0.125
346.5911	0.1254
346.8005	0.1214
347.0099	0.1165
347.2193	0.134
347.4286	0.1361
347.638	0.127
347.8473	0.1259
348.0566	0.1308
348.2659	0.1208
348.4752	0.129
348.6845	0.1287
348.8937	0.1321
349.103	0.131
349.3122	0.1276
349.5214	0.1373
349.7306	0.1318
349.9398	0.1311
350.149	0.1295
350.3582	0.1371
350.5674	0.138
350.7765	0.1324
350.9856	0.1341
351.1948	0.1363
351.4039	0.1354
351.613	0.1329
351.822	0.1387
352.0311	0.1372
352.2402	0.1382
352.4492	0.1312
352.6582	0.1412
352.8672	0.1453
353.0762	0.1513
353.2852	0.148
353.4942	0.1431
353.7032	0.1454
353.9121	0.1459
354.1211	0.1481
354.33	0.138
354.5389	0.1489
354.7478	0.1484
354.9567	0.1433
355.1655	0.1562
355.3744	0.1573
355.5833	0.1476
355.7921	0.1557
356.0009	0.1458
356.2097	0.153
356.4185	0.1505
356.6273	0.1524
356.8361	0.1474
357.0448	0.1669
357.2536	0.1517
357.4623	0.1552
357.671	0.1625
357.8797	0.168
358.0884	0.1612
358.2971	0.1645
358.5057	0.1624
358.7144	0.162
358.923	0.1711
359.1316	0.1565
359.3402	0.1685
359.5488	0.1635
359.7574	0.1743
359.966	0.1761
360.1746	0.1729
360.3831	0.1837
360.5916	0.1774
360.8002	0.1803
361.0087	0.1739
361.2172	0.1785
361.4256	0.1757
361.6341	0.1802
361.8426	0.1937
362.051	0.1751
362.2594	0.1866
362.4678	0.1862
362.6762	0.1904
362.8846	0.1823
363.093	0.1814
363.3014	0.1933
363.5097	0.1839
363.718	0.2064
363.9264	0.191
364.1347	0.1945
364.343	0.1896
364.5513	0.1836
364.7595	0.1942
364.9678	0.1945
365.176	0.1954
365.3842	0.1902
365.5925	0.1955
365.8007	0.1888
366.0089	0.2092
366.217	0.1969
366.4252	0.2121
366.6333	0.2022
366.8415	0.2049
367.0496	0.2049
367.2577	0.2184
367.4658	0.2116
367.6739	0.2092
367.882	0.2117
368.09	0.213
368.2981	0.2215
368.5061	0.2028
368.7141	0.2124
368.9221	0.2171
369.1301	0.2262
369.3381	0.2127
369.5461	0.2225
369.754	0.2201
369.962	0.2134
370.1699	0.2268
370.3778	0.2194
370.5857	0.225
370.7936	0.2172
371.0015	0.2241
371.2093	0.2113
371.4172	0.2303
371.625	0.2213
371.8328	0.2441
372.0406	0.2329
372.2484	0.2331
372.4562	0.2326
372.664	0.2366
372.8717	0.228
373.0795	0.227
373.2872	0.2214
373.4949	0.2362
373.7026	0.2378
373.9103	0.2222
374.118	0.2374
374.3256	0.2361
374.5333	0.2363
374.7409	0.2424
374.9485	0.2381
375.1561	0.2492
375.3637	0.2316
375.5713	0.2341
375.7789	0.2332
375.9864	0.2518
376.194	0.2429
376.4015	0.2448
376.609	0.2461
376.8165	0.2505
377.024	0.2344
377.2315	0.2442
377.4389	0.2449
377.6464	0.244
377.8538	0.2551
378.0612	0.2459
378.2686	0.2532
378.476	0.258
378.6834	0.2569
378.8908	0.2568
379.0981	0.2631
379.3055	0.2636
379.5128	0.2529
379.7201	0.256
379.9274	0.2516
380.1347	0.2583
380.342	0.2566
380.5492	0.2595
380.7565	0.2675
380.9637	0.2627
381.1709	0.2658
381.3781	0.2534
381.5853	0.2704
381.7925	0.2753
381.9997	0.273
382.2068	0.2645
382.4139	0.2764
382.6211	0.2658
382.8282	0.2676
383.0353	0.2603
383.2424	0.2671
383.4494	0.2737
383.6565	0.2624
383.8635	0.2805
384.0706	0.2634
384.2776	0.2696
384.4846	0.2655
384.6916	0.2699
384.8986	0.273
385.1055	0.2788
385.3125	0.2885
385.5194	0.2693
385.7263	0.2828
385.9333	0.2864
386.1402	0.2793
386.347	0.2828
386.5539	0.2834
386.7608	0.2736
386.9676	0.2725
387.1744	0.2739
387.3813	0.2657
387.5881	0.2718
387.7948	0.2782
388.0016	0.2708
388.2084	0.2779
388.4151	0.2651
388.6219	0.2776
388.8286	0.2874
389.0353	0.2556
389.242	0.2604
389.4487	0.2651
389.6553	0.273
389.862	0.2571
390.0686	0.2605
390.2753	0.262
390.4819	0.2642
390.6885	0.2657
390.8951	0.2651
391.1016	0.2626
391.3082	0.2539
391.5147	0.2548
391.7213	0.2608
391.9278	0.2496
392.1343	0.2597
392.3408	0.2494
392.5473	0.2458
392.7537	0.2569
392.9602	0.2442
393.1666	0.2476
393.373	0.2467
393.5794	0.2548
393.7858	0.2465
393.9922	0.2468
394.1986	0.2491
394.4049	0.2535
394.6113	0.2491
394.8176	0.2335
395.0239	0.2351
395.2302	0.2386
395.4365	0.2364
395.6428	0.2296
395.8491	0.2326
396.0553	0.2217
396.2615	0.2408
396.4678	0.247
396.674	0.2336
396.8802	0.2213
397.0863	0.231
397.2925	0.2443
397.4987	0.227
397.7048	0.2298
397.9109	0.2378
398.117	0.2371
398.3231	0.236
398.5292	0.228
398.7353	0.2176
398.9413	0.231
399.1474	0.2311
399.3534	0.2218
399.5594	0.2269
399.7654	0.2354
399.9714	0.2307
400.1774	0.2397
400.3833	0.234
400.5893	0.2311
400.7952	0.2165
401.0011	0.2312
401.207	0.2311
401.4129	0.2282
401.6188	0.2159
401.8247	0.2204
402.0305	0.2219
402.2364	0.2303
402.4422	0.2323
402.648	0.2341
402.8538	0.2297
403.0596	0.2066
403.2654	0.2203
403.4711	0.2258
403.6768	0.2332
403.8826	0.2266
404.0883	0.2364
404.294	0.2342
404.4997	0.234
404.7054	0.227
404.911	0.2311
405.1167	0.2308
405.3223	0.2347
405.5279	0.2277
405.7335	0.2316
405.9391	0.2244
406.1447	0.2348
406.3502	0.2281
406.5558	0.2174
406.7613	0.2251
406.9668	0.2155
407.1724	0.2268
407.3778	0.2407
407.5833	0.2246
407.7888	0.237
407.9942	0.2324
408.1997	0.2344
408.4051	0.2332
408.6105	0.2248
408.8159	0.2403
409.0213	0.2202
409.2267	0.2267
409.432	0.235
409.6374	0.2405
409.8427	0.2479
410.048	0.2297
410.2533	0.2353
410.4586	0.2381
410.6639	0.2125
410.8691	0.2248
411.0744	0.2316
411.2796	0.2246
411.4848	0.214
411.69	0.2349
411.8952	0.2261
412.1004	0.2185
412.3056	0.2353
412.5107	0.2275
412.7158	0.2216
412.921	0.2257
413.1261	0.2193
413.3312	0.2287
413.5362	0.2198
413.7413	0.2249
413.9464	0.2227
414.1514	0.2207
414.3564	0.2302
414.5614	0.2292
414.7664	0.2284
414.9714	0.2225
415.1764	0.215
415.3813	0.2254
415.5863	0.2219
415.7912	0.2242
415.9961	0.2223
416.201	0.2284
416.4059	0.2198
416.6108	0.2174
416.8156	0.2227
417.0205	0.2274
417.2253	0.2272
417.4301	0.2115
417.6349	0.2333
417.8397	0.2298
418.0445	0.2155
418.2492	0.2165
418.454	0.2113
418.6587	0.2174
418.8634	0.2195
419.0681	0.2256
419.2728	0.2132
419.4775	0.214
419.6822	0.218
419.8868	0.2029
420.0915	0.2197
420.2961	0.2182
420.5007	0.2238
420.7053	0.2138
420.9099	0.2083
421.1144	0.2052
421.319	0.2086
421.5235	0.2149
421.728	0.2046
421.9325	0.1981
422.137	0.2055
422.3415	0.215
422.546	0.2086
422.7504	0.2004
422.9549	0.2048
423.1593	0.2141
423.3637	0.1987
423.5681	0.2135
423.7725	0.2032
423.9769	0.2063
424.1812	0.1964
424.3856	0.1896
424.5899	0.1997
424.7942	0.1904
424.9985	0.1942
425.2028	0.1902
425.4071	0.1833
425.6113	0.1924
425.8156	0.185
426.0198	0.1929
426.224	0.1791
426.4282	0.1951
426.6324	0.1898
