Data from MonoPyChalIsomerACN10uM450nmA_Absorbance_13-11-15-292.txt Node
Date: Tue Jul 09 13:11:15 BST 2024
User: LASERRRRR
Spectrometer: FLMT03099
Trigger mode: 0
Integration Time (sec): 2.000000E-1
Scans to average: 1
Electric dark correction enabled: true
Nonlinearity correction enabled: false
Boxcar width: 0
XAxis mode: Wavelengths
Number of Pixels in Spectrum: 3648
>>>>>Begin Spectral Data<<<<<
179.3399	0.2863
179.5586	0.2863
179.7771	0.2863
179.9957	-0.0224
180.2143	-0
180.4329	-0
180.6514	0.7465
180.8699	-0
181.0885	-0
181.307	0.4444
181.5255	-0
181.744	-0
181.9625	0.1686
182.181	-0
182.3994	0.6824
182.6179	-0.0031
182.8363	-0
183.0547	0.1181
183.2732	0.1524
183.4916	0.006
183.71	0.0374
183.9284	0.0605
184.1467	0.1269
184.3651	0.0481
184.5835	0.128
184.8018	-0.0068
185.0201	0.1394
185.2385	0.0501
185.4568	-0.0375
185.6751	0.3002
185.8934	-0.0113
186.1117	0.0265
186.3299	0.034
186.5482	0.0201
186.7664	0.0939
186.9847	0.1043
187.2029	0.1813
187.4211	0.0504
187.6393	0.0252
187.8575	-0.021
188.0757	0.071
188.2939	0.1122
188.512	0.1082
188.7302	-0.0718
188.9483	0.0458
189.1665	0.1746
189.3846	0.1796
189.6027	0.2081
189.8208	0.0997
190.0389	0.2446
190.257	0.213
190.475	0.1848
190.6931	0.1883
190.9111	0.2537
191.1292	0.3384
191.3472	0.3134
191.5652	0.2462
191.7832	0.306
192.0012	0.4124
192.2192	0.3061
192.4371	0.4972
192.6551	0.4133
192.873	0.3649
193.091	0.4192
193.3089	0.5065
193.5268	0.5631
193.7447	0.626
193.9626	0.513
194.1805	0.5108
194.3984	0.5621
194.6162	0.674
194.8341	0.5323
195.0519	0.6192
195.2697	0.5659
195.4875	0.641
195.7054	0.5489
195.9231	0.6133
196.1409	0.6386
196.3587	0.5875
196.5765	0.6276
196.7942	0.6998
197.012	0.673
197.2297	0.6532
197.4474	0.7729
197.6651	0.6158
197.8828	0.86
198.1005	0.8385
198.3182	0.809
198.5358	0.8178
198.7535	0.7776
198.9711	1.0288
199.1888	0.7044
199.4064	0.8248
199.624	0.7128
199.8416	0.871
200.0592	0.8857
200.2767	0.8256
200.4943	0.899
200.7119	0.8735
200.9294	0.8603
201.1469	0.877
201.3645	0.831
201.582	0.8874
201.7995	0.7966
202.017	0.8671
202.2344	0.9545
202.4519	0.9733
202.6694	0.7901
202.8868	1.0585
203.1042	0.9362
203.3217	1.1576
203.5391	0.9639
203.7565	0.9686
203.9739	0.9039
204.1913	0.8841
204.4086	0.9246
204.626	0.954
204.8433	0.9853
205.0607	0.9474
205.278	0.9458
205.4953	1.1899
205.7126	0.937
205.9299	0.9681
206.1472	0.9489
206.3644	1.028
206.5817	1.0364
206.7989	1.1081
207.0162	1.136
207.2334	0.996
207.4506	1.007
207.6678	1.0465
207.885	1.0397
208.1022	1.0105
208.3194	1.2557
208.5365	1.0674
208.7537	0.9927
208.9708	1.0578
209.1879	1.0747
209.405	1.1196
209.6222	1.1512
209.8392	1.2018
210.0563	1.0171
210.2734	1.0979
210.4905	1.1041
210.7075	1.0295
210.9245	1.0086
211.1416	1.0907
211.3586	1.1638
211.5756	1.0516
211.7926	1.0083
212.0096	1.021
212.2265	1.0433
212.4435	1.0387
212.6604	1.0827
212.8774	1.1121
213.0943	1.0436
213.3112	1.0205
213.5281	1.1064
213.745	0.9838
213.9619	0.9405
214.1788	0.9295
214.3956	0.933
214.6125	0.9691
214.8293	0.8816
215.0461	0.8795
215.2629	0.8632
215.4798	0.8086
215.6965	0.8172
215.9133	0.8529
216.1301	0.8143
216.3469	0.8679
216.5636	0.7907
216.7803	0.7534
216.9971	0.773
217.2138	0.7039
217.4305	0.7033
217.6472	0.6874
217.8639	0.6416
218.0805	0.6174
218.2972	0.5773
218.5138	0.5145
218.7305	0.507
218.9471	0.4494
219.1637	0.4442
219.3803	0.4201
219.5969	0.3787
219.8135	0.3604
220.0301	0.3505
220.2466	0.3601
220.4632	0.3431
220.6797	0.3272
220.8962	0.3195
221.1127	0.2954
221.3292	0.3012
221.5457	0.292
221.7622	0.2804
221.9787	0.2822
222.1951	0.2884
222.4116	0.2909
222.628	0.27
222.8444	0.2729
223.0608	0.2707
223.2772	0.2655
223.4936	0.2723
223.71	0.2774
223.9264	0.284
224.1427	0.258
224.3591	0.2746
224.5754	0.2682
224.7917	0.2801
225.008	0.2765
225.2243	0.2803
225.4406	0.2981
225.6569	0.2926
225.8732	0.2927
226.0894	0.2752
226.3057	0.2902
226.5219	0.3027
226.7381	0.2934
226.9543	0.2819
227.1705	0.2865
227.3867	0.3028
227.6029	0.297
227.8191	0.2973
228.0352	0.3143
228.2513	0.3143
228.4675	0.3142
228.6836	0.3201
228.8997	0.3162
229.1158	0.3281
229.3319	0.3209
229.548	0.3267
229.764	0.3278
229.9801	0.3321
230.1961	0.3438
230.4121	0.3448
230.6282	0.3591
230.8442	0.3379
231.0602	0.3465
231.2761	0.3489
231.4921	0.352
231.7081	0.3626
231.924	0.3643
232.14	0.3535
232.3559	0.3658
232.5718	0.3699
232.7877	0.3694
233.0036	0.3744
233.2195	0.362
233.4353	0.3736
233.6512	0.3783
233.867	0.3752
234.0829	0.3855
234.2987	0.3778
234.5145	0.3842
234.7303	0.4018
234.9461	0.3879
235.1619	0.3929
235.3776	0.3907
235.5934	0.3946
235.8091	0.3958
236.0249	0.3976
236.2406	0.4003
236.4563	0.3995
236.672	0.4061
236.8877	0.407
237.1034	0.4084
237.319	0.4068
237.5347	0.4035
237.7503	0.4134
237.966	0.416
238.1816	0.4198
238.3972	0.4219
238.6128	0.4091
238.8284	0.4056
239.0439	0.4174
239.2595	0.4214
239.475	0.416
239.6906	0.4195
239.9061	0.427
240.1216	0.4246
240.3371	0.422
240.5526	0.4208
240.7681	0.4065
240.9836	0.4098
241.199	0.4068
241.4145	0.3946
241.6299	0.4052
241.8453	0.3957
242.0607	0.3902
242.2761	0.3772
242.4915	0.3883
242.7069	0.3841
242.9223	0.3696
243.1376	0.3669
243.353	0.3538
243.5683	0.3493
243.7836	0.3354
243.9989	0.3326
244.2142	0.3223
244.4295	0.3194
244.6448	0.3237
244.86	0.3254
245.0753	0.3071
245.2905	0.2902
245.5057	0.2901
245.721	0.2916
245.9362	0.2798
246.1514	0.2823
246.3665	0.2779
246.5817	0.263
246.7969	0.2737
247.012	0.271
247.2271	0.2599
247.4423	0.2526
247.6574	0.2567
247.8725	0.2575
248.0876	0.2519
248.3026	0.2426
248.5177	0.2445
248.7328	0.2449
248.9478	0.2424
249.1628	0.234
249.3779	0.2201
249.5929	0.2268
249.8079	0.2292
250.0228	0.221
250.2378	0.2308
250.4528	0.2093
250.6677	0.2172
250.8827	0.2038
251.0976	0.2061
251.3125	0.2171
251.5274	0.2002
251.7423	0.2116
251.9572	0.2067
252.172	0.2121
252.3869	0.2043
252.6017	0.2077
252.8166	0.2053
253.0314	0.1984
253.2462	0.2084
253.461	0.2
253.6758	0.2059
253.8906	0.2032
254.1053	0.1935
254.3201	0.1992
254.5348	0.1971
254.7496	0.2067
254.9643	0.1979
255.179	0.208
255.3937	0.2009
255.6083	0.1993
255.823	0.2009
256.0377	0.1909
256.2523	0.1965
256.467	0.1944
256.6816	0.1861
256.8962	0.1982
257.1108	0.1927
257.3254	0.1987
257.54	0.1971
257.7545	0.2005
257.9691	0.2023
258.1836	0.1949
258.3981	0.2012
258.6127	0.1901
258.8272	0.1922
259.0417	0.1931
259.2561	0.1913
259.4706	0.1826
259.6851	0.1978
259.8995	0.1956
260.114	0.1911
260.3284	0.2034
260.5428	0.1899
260.7572	0.199
260.9716	0.1983
261.186	0.1971
261.4003	0.208
261.6147	0.1942
261.829	0.1999
262.0433	0.1993
262.2577	0.2043
262.472	0.1962
262.6863	0.1915
262.9005	0.2012
263.1148	0.1984
263.3291	0.178
263.5433	0.1865
263.7576	0.1904
263.9718	0.1808
264.186	0.1853
264.4002	0.1919
264.6144	0.1872
264.8286	0.1813
265.0427	0.1793
265.2569	0.1787
265.471	0.1778
265.6851	0.1737
265.8993	0.1747
266.1134	0.1728
266.3275	0.1777
266.5415	0.1743
266.7556	0.1833
266.9697	0.1733
267.1837	0.1734
267.3978	0.1872
267.6118	0.1825
267.8258	0.187
268.0398	0.1878
268.2538	0.1916
268.4677	0.183
268.6817	0.1836
268.8957	0.1933
269.1096	0.1828
269.3235	0.1812
269.5374	0.1717
269.7514	0.1642
269.9652	0.166
270.1791	0.159
270.393	0.1537
270.6068	0.1462
270.8207	0.1481
271.0345	0.1534
271.2483	0.1476
271.4622	0.1452
271.676	0.147
271.8897	0.1385
272.1035	0.1371
272.3173	0.1432
272.531	0.1484
272.7448	0.1423
272.9585	0.1337
273.1722	0.1391
273.3859	0.1397
273.5996	0.1294
273.8133	0.1361
274.0269	0.1315
274.2406	0.1339
274.4542	0.1383
274.6679	0.1354
274.8815	0.1399
275.0951	0.145
275.3087	0.1335
275.5223	0.1362
275.7358	0.1358
275.9494	0.1393
276.1629	0.1334
276.3765	0.1337
276.59	0.1372
276.8035	0.14
277.017	0.1385
277.2305	0.139
277.444	0.1364
277.6574	0.136
277.8709	0.138
278.0843	0.1486
278.2978	0.1436
278.5112	0.135
278.7246	0.136
278.938	0.1496
279.1513	0.1393
279.3647	0.1429
279.5781	0.1418
279.7914	0.1458
280.0047	0.14
280.2181	0.1449
280.4314	0.1417
280.6447	0.1504
280.8579	0.1475
281.0712	0.1458
281.2845	0.1432
281.4977	0.1438
281.711	0.1452
281.9242	0.1461
282.1374	0.1468
282.3506	0.1443
282.5638	0.1433
282.7769	0.1552
282.9901	0.1451
283.2033	0.15
283.4164	0.149
283.6295	0.1578
283.8426	0.1558
284.0557	0.1459
284.2688	0.1541
284.4819	0.1509
284.695	0.1526
284.908	0.1565
285.1211	0.1537
285.3341	0.1515
285.5471	0.1645
285.7601	0.1497
285.9731	0.1625
286.1861	0.1544
286.3991	0.1599
286.612	0.1632
286.825	0.1576
287.0379	0.1578
287.2508	0.1491
287.4637	0.1646
287.6766	0.1513
287.8895	0.1671
288.1024	0.1676
288.3152	0.1624
288.5281	0.1599
288.7409	0.1628
288.9538	0.1557
289.1666	0.1717
289.3794	0.1656
289.5922	0.1577
289.8049	0.1591
290.0177	0.1627
290.2304	0.1644
290.4432	0.1558
290.6559	0.161
290.8686	0.1664
291.0813	0.1658
291.294	0.1667
291.5067	0.1609
291.7194	0.1561
291.932	0.1587
292.1447	0.1661
292.3573	0.1635
292.5699	0.1727
292.7825	0.1682
292.9951	0.1686
293.2077	0.1566
293.4203	0.1652
293.6328	0.1679
293.8454	0.1584
294.0579	0.1678
294.2704	0.1704
294.4829	0.1731
294.6954	0.1607
294.9079	0.1719
295.1204	0.166
295.3328	0.1637
295.5453	0.1647
295.7577	0.1606
295.9701	0.1632
296.1825	0.1621
296.3949	0.1538
296.6073	0.1718
296.8197	0.1677
297.0321	0.1712
297.2444	0.1631
297.4567	0.164
297.6691	0.1613
297.8814	0.1635
298.0937	0.1674
298.306	0.1694
298.5182	0.1619
298.7305	0.1686
298.9428	0.1574
299.155	0.1631
299.3672	0.1661
299.5794	0.1699
299.7916	0.1639
300.0038	0.1663
300.216	0.1645
300.4282	0.1589
300.6403	0.1609
300.8525	0.1633
301.0646	0.1699
301.2767	0.1643
301.4888	0.156
301.7009	0.166
301.913	0.1696
302.125	0.1647
302.3371	0.1709
302.5491	0.1654
302.7612	0.1621
302.9732	0.1713
303.1852	0.1599
303.3972	0.1588
303.6092	0.1619
303.8211	0.1708
304.0331	0.1596
304.245	0.1598
304.457	0.1646
304.6689	0.1546
304.8808	0.1568
305.0927	0.1574
305.3046	0.1535
305.5164	0.1551
305.7283	0.1547
305.9401	0.1564
306.152	0.1503
306.3638	0.1577
306.5756	0.1444
306.7874	0.1494
306.9992	0.1432
307.2109	0.1341
307.4227	0.1334
307.6344	0.1384
307.8462	0.1377
308.0579	0.1338
308.2696	0.1338
308.4813	0.1348
308.693	0.1338
308.9046	0.1189
309.1163	0.1261
309.328	0.1145
309.5396	0.1252
309.7512	0.1223
309.9628	0.1209
310.1744	0.1289
310.386	0.1131
310.5976	0.1177
310.8091	0.1167
311.0207	0.1232
311.2322	0.1142
311.4437	0.1219
311.6552	0.1149
311.8667	0.1079
312.0782	0.1053
312.2897	0.106
312.5012	0.1151
312.7126	0.0959
312.924	0.1028
313.1355	0.1029
313.3469	0.1046
313.5583	0.1012
313.7696	0.0992
313.981	0.0991
314.1924	0.0913
314.4037	0.1058
314.6151	0.0884
314.8264	0.0983
315.0377	0.0965
315.249	0.0904
315.4603	0.1002
315.6716	0.0918
315.8828	0.1011
316.0941	0.0904
316.3053	0.0932
316.5165	0.085
316.7277	0.0912
316.9389	0.098
317.1501	0.0874
317.3613	0.0931
317.5724	0.0939
317.7836	0.0943
317.9947	0.0918
318.2058	0.0939
318.417	0.0843
318.6281	0.0907
318.8391	0.09
319.0502	0.0873
319.2613	0.0899
319.4723	0.0865
319.6834	0.0879
319.8944	0.0941
320.1054	0.0904
320.3164	0.0909
320.5274	0.0963
320.7383	0.0934
320.9493	0.0912
321.1602	0.0898
321.3712	0.0991
321.5821	0.0902
321.793	0.0827
322.0039	0.0925
322.2148	0.0938
322.4257	0.0959
322.6365	0.0905
322.8474	0.0915
323.0582	0.102
323.269	0.0892
323.4798	0.0961
323.6906	0.0898
323.9014	0.0945
324.1122	0.0971
324.3229	0.097
324.5337	0.0867
324.7444	0.0932
324.9551	0.0906
325.1658	0.0905
325.3765	0.0876
325.5872	0.0898
325.7979	0.1021
326.0085	0.1003
326.2192	0.0899
326.4298	0.1063
326.6404	0.1014
326.851	0.093
327.0616	0.0946
327.2722	0.0976
327.4828	0.0914
327.6933	0.0936
327.9039	0.103
328.1144	0.0983
328.3249	0.0955
328.5354	0.0937
328.7459	0.099
328.9564	0.094
329.1669	0.0962
329.3773	0.1001
329.5878	0.1031
329.7982	0.0964
330.0086	0.095
330.219	0.1017
330.4294	0.096
330.6398	0.1008
330.8502	0.0966
331.0605	0.0922
331.2708	0.0981
331.4812	0.0905
331.6915	0.0955
331.9018	0.092
332.1121	0.0993
332.3224	0.0953
332.5326	0.0914
332.7429	0.0961
332.9531	0.0988
333.1633	0.1055
333.3735	0.106
333.5837	0.0963
333.7939	0.0936
334.0041	0.1012
334.2143	0.0979
334.4244	0.0965
334.6346	0.0953
334.8447	0.1034
335.0548	0.1023
335.2649	0.0941
335.475	0.0992
335.685	0.0994
335.8951	0.101
336.1051	0.0991
336.3152	0.0992
336.5252	0.1007
336.7352	0.1049
336.9452	0.0956
337.1552	0.098
337.3652	0.1027
337.5751	0.0975
337.7851	0.1002
337.995	0.0996
338.2049	0.0974
338.4148	0.1015
338.6247	0.1059
338.8346	0.1034
339.0445	0.1073
339.2543	0.1057
339.4642	0.1034
339.674	0.1011
339.8838	0.1061
340.0936	0.1145
340.3034	0.1127
340.5132	0.1049
340.7229	0.1175
340.9327	0.1131
341.1424	0.1004
341.3522	0.1065
341.5619	0.1152
341.7716	0.115
341.9813	0.1137
342.1909	0.1178
342.4006	0.1129
342.6102	0.1088
342.8199	0.1178
343.0295	0.1102
343.2391	0.1217
343.4487	0.1159
343.6583	0.1126
343.8679	0.1097
344.0774	0.1186
344.287	0.1257
344.4965	0.1163
344.706	0.1212
344.9155	0.138
345.125	0.1273
345.3345	0.1239
345.544	0.1102
345.7534	0.1186
345.9629	0.1153
346.1723	0.123
346.3817	0.1255
346.5911	0.1321
346.8005	0.1265
347.0099	0.1214
347.2193	0.1269
347.4286	0.1309
347.638	0.1268
347.8473	0.1241
348.0566	0.1327
348.2659	0.1305
348.4752	0.1254
348.6845	0.1345
348.8937	0.1297
349.103	0.137
349.3122	0.1323
349.5214	0.1265
349.7306	0.1338
349.9398	0.1277
350.149	0.1314
350.3582	0.1393
350.5674	0.1303
350.7765	0.1305
350.9856	0.1337
351.1948	0.1344
351.4039	0.1314
351.613	0.1404
351.822	0.1415
352.0311	0.1419
352.2402	0.1411
352.4492	0.132
352.6582	0.1451
352.8672	0.1375
353.0762	0.1464
353.2852	0.1517
353.4942	0.1495
353.7032	0.143
353.9121	0.1466
354.1211	0.1459
354.33	0.1432
354.5389	0.1481
354.7478	0.1488
354.9567	0.1417
355.1655	0.1556
355.3744	0.156
355.5833	0.1499
355.7921	0.1423
356.0009	0.1424
356.2097	0.1553
356.4185	0.1571
356.6273	0.1524
356.8361	0.1465
357.0448	0.1585
357.2536	0.1549
357.4623	0.1566
357.671	0.1525
357.8797	0.1699
358.0884	0.1601
358.2971	0.166
358.5057	0.1686
358.7144	0.1617
358.923	0.1706
359.1316	0.1683
359.3402	0.1676
359.5488	0.162
359.7574	0.176
359.966	0.1763
360.1746	0.1694
360.3831	0.1759
360.5916	0.1815
360.8002	0.1808
361.0087	0.1795
361.2172	0.1803
361.4256	0.1787
361.6341	0.1688
361.8426	0.1841
362.051	0.165
362.2594	0.1862
362.4678	0.1927
362.6762	0.1842
362.8846	0.1896
363.093	0.1837
363.3014	0.1853
363.5097	0.1926
363.718	0.1959
363.9264	0.1859
364.1347	0.1935
364.343	0.1857
364.5513	0.1907
364.7595	0.1959
364.9678	0.1963
365.176	0.1971
365.3842	0.1921
365.5925	0.199
365.8007	0.1912
366.0089	0.2099
366.217	0.1937
366.4252	0.2069
366.6333	0.1994
366.8415	0.1972
367.0496	0.2054
367.2577	0.2129
367.4658	0.2065
367.6739	0.2059
367.882	0.208
368.09	0.1998
368.2981	0.2144
368.5061	0.2055
368.7141	0.2188
368.9221	0.2079
369.1301	0.2244
369.3381	0.2183
369.5461	0.2234
369.754	0.2201
369.962	0.2201
370.1699	0.2276
370.3778	0.2142
370.5857	0.2256
370.7936	0.2227
371.0015	0.2177
371.2093	0.2139
371.4172	0.2234
371.625	0.2288
371.8328	0.2441
372.0406	0.2298
372.2484	0.2256
372.4562	0.2238
372.664	0.221
372.8717	0.2261
373.0795	0.2214
373.2872	0.2367
373.4949	0.2288
373.7026	0.2402
373.9103	0.2362
374.118	0.2444
374.3256	0.2342
374.5333	0.2234
374.7409	0.2354
374.9485	0.2394
375.1561	0.2386
375.3637	0.2342
375.5713	0.2482
375.7789	0.2379
375.9864	0.2408
376.194	0.2413
376.4015	0.2489
376.609	0.2411
376.8165	0.2411
377.024	0.2366
377.2315	0.2436
377.4389	0.2413
377.6464	0.2538
377.8538	0.2355
378.0612	0.2449
378.2686	0.2534
378.476	0.2452
378.6834	0.2589
378.8908	0.2584
379.0981	0.2552
379.3055	0.2524
379.5128	0.2453
379.7201	0.2572
379.9274	0.2688
380.1347	0.2516
380.342	0.2698
380.5492	0.2628
380.7565	0.265
380.9637	0.2667
381.1709	0.2508
381.3781	0.2552
381.5853	0.2674
381.7925	0.2639
381.9997	0.2624
382.2068	0.2713
382.4139	0.2624
382.6211	0.2638
382.8282	0.2709
383.0353	0.2597
383.2424	0.2652
383.4494	0.2617
383.6565	0.2643
383.8635	0.2825
384.0706	0.2705
384.2776	0.2706
384.4846	0.2606
384.6916	0.2723
384.8986	0.278
385.1055	0.2833
385.3125	0.2751
385.5194	0.2749
385.7263	0.2791
385.9333	0.2649
386.1402	0.2636
386.347	0.2753
386.5539	0.2613
386.7608	0.2665
386.9676	0.2741
387.1744	0.2703
387.3813	0.2624
387.5881	0.27
387.7948	0.2651
388.0016	0.2646
388.2084	0.2705
388.4151	0.2742
388.6219	0.2687
388.8286	0.2661
389.0353	0.265
389.242	0.2623
389.4487	0.2533
389.6553	0.264
389.862	0.2456
390.0686	0.2674
390.2753	0.2567
390.4819	0.2536
390.6885	0.2575
390.8951	0.2709
391.1016	0.2656
391.3082	0.2539
391.5147	0.2559
391.7213	0.2548
391.9278	0.2488
392.1343	0.2522
392.3408	0.2423
392.5473	0.249
392.7537	0.2571
392.9602	0.242
393.1666	0.2419
393.373	0.2412
393.5794	0.2559
393.7858	0.2301
393.9922	0.2364
394.1986	0.2299
394.4049	0.2512
394.6113	0.2427
394.8176	0.23
395.0239	0.2413
395.2302	0.2414
395.4365	0.2319
395.6428	0.2326
395.8491	0.2368
396.0553	0.234
396.2615	0.2273
396.4678	0.2342
396.674	0.2333
396.8802	0.2352
397.0863	0.2326
397.2925	0.2277
397.4987	0.2229
397.7048	0.2203
397.9109	0.235
398.117	0.2286
398.3231	0.2306
398.5292	0.2246
398.7353	0.2247
398.9413	0.2224
399.1474	0.223
399.3534	0.2271
399.5594	0.2129
399.7654	0.2333
399.9714	0.2257
400.1774	0.2324
400.3833	0.2326
400.5893	0.2281
400.7952	0.2218
401.0011	0.2223
401.207	0.2293
401.4129	0.2121
401.6188	0.2221
401.8247	0.2222
402.0305	0.2218
402.2364	0.2232
402.4422	0.2239
402.648	0.2446
402.8538	0.2316
403.0596	0.219
403.2654	0.2111
403.4711	0.2194
403.6768	0.2176
403.8826	0.2211
404.0883	0.2324
404.294	0.229
404.4997	0.225
404.7054	0.2195
404.911	0.2345
405.1167	0.2373
405.3223	0.2226
405.5279	0.2272
405.7335	0.2295
405.9391	0.2252
406.1447	0.2303
406.3502	0.2149
406.5558	0.2235
406.7613	0.2232
406.9668	0.2286
407.1724	0.227
407.3778	0.2437
407.5833	0.2148
407.7888	0.2433
407.9942	0.2273
408.1997	0.2335
408.4051	0.2309
408.6105	0.2334
408.8159	0.2304
409.0213	0.2211
409.2267	0.2272
409.432	0.2331
409.6374	0.2284
409.8427	0.2391
410.048	0.2221
410.2533	0.2246
410.4586	0.2267
410.6639	0.2235
410.8691	0.2228
411.0744	0.2293
411.2796	0.2209
411.4848	0.2084
411.69	0.2314
411.8952	0.2195
412.1004	0.2171
412.3056	0.2296
412.5107	0.2388
412.7158	0.2238
412.921	0.2144
413.1261	0.2229
413.3312	0.2187
413.5362	0.2271
413.7413	0.2339
413.9464	0.2165
414.1514	0.2076
414.3564	0.2239
414.5614	0.2219
414.7664	0.2166
414.9714	0.2155
415.1764	0.212
415.3813	0.2208
415.5863	0.2086
415.7912	0.2298
415.9961	0.2156
416.201	0.2271
416.4059	0.2202
416.6108	0.2192
416.8156	0.208
417.0205	0.2095
417.2253	0.2193
417.4301	0.2158
417.6349	0.2237
417.8397	0.2044
418.0445	0.2123
418.2492	0.2088
418.454	0.2104
418.6587	0.2041
418.8634	0.2139
419.0681	0.2147
419.2728	0.2121
419.4775	0.2017
419.6822	0.227
419.8868	0.2026
420.0915	0.2043
420.2961	0.2071
420.5007	0.2023
420.7053	0.2077
420.9099	0.2024
421.1144	0.2061
421.319	0.1982
421.5235	0.2106
421.728	0.1919
421.9325	0.1971
422.137	0.1905
422.3415	0.2041
422.546	0.2007
422.7504	0.1981
422.9549	0.2101
423.1593	0.2033
423.3637	0.1944
423.5681	0.2083
423.7725	0.188
423.9769	0.1973
424.1812	0.1992
424.3856	0.1966
424.5899	0.2
424.7942	0.1945
424.9985	0.2008
425.2028	0.1695
425.4071	0.1809
425.6113	0.1837
425.8156	0.1825
426.0198	0.1859
426.224	0.1796
426.4282	0.1712
426.6324	0.191
426.8366	0.188
