Data from MonoPyChalIsomerACN10uM450nmA_Absorbance_13-11-13-092.txt Node
Date: Tue Jul 09 13:11:13 BST 2024
User: LASERRRRR
Spectrometer: FLMT03099
Trigger mode: 0
Integration Time (sec): 2.000000E-1
Scans to average: 1
Electric dark correction enabled: true
Nonlinearity correction enabled: false
Boxcar width: 0
XAxis mode: Wavelengths
Number of Pixels in Spectrum: 3648
>>>>>Begin Spectral Data<<<<<
179.3399	0.0514
179.5586	0.0514
179.7771	0.0514
179.9957	-0.2414
180.2143	0.2361
180.4329	0.3502
180.6514	-0
180.8699	-0
181.0885	-0
181.307	-0
181.5255	-0
181.744	-0
181.9625	-0
182.181	0.321
182.3994	-0
182.6179	-0.381
182.8363	-0.8788
183.0547	0.1211
183.2732	0.2078
183.4916	0.1394
183.71	0.2166
183.9284	0.0484
184.1467	0.0819
184.3651	0.0789
184.5835	0.0191
184.8018	0.0768
185.0201	0.2162
185.2385	0.0785
185.4568	-0.0555
185.6751	0.1321
185.8934	-0.0146
186.1117	-0.0195
186.3299	0.0975
186.5482	0.0724
186.7664	0.0641
186.9847	0.1425
187.2029	0.0395
187.4211	0.1191
187.6393	-0.0599
187.8575	0.2252
188.0757	0.1756
188.2939	0.016
188.512	0.0375
188.7302	0.0445
188.9483	0.0968
189.1665	0.0682
189.3846	0.2062
189.6027	0.1778
189.8208	0.0834
190.0389	0.2291
190.257	0.2552
190.475	0.2239
190.6931	0.159
190.9111	0.3
191.1292	0.3078
191.3472	0.3034
191.5652	0.3376
191.7832	0.4434
192.0012	0.4252
192.2192	0.4616
192.4371	0.5112
192.6551	0.5571
192.873	0.4027
193.091	0.4889
193.3089	0.5647
193.5268	0.5331
193.7447	0.5318
193.9626	0.5906
194.1805	0.533
194.3984	0.5902
194.6162	0.5816
194.8341	0.5119
195.0519	0.5704
195.2697	0.5034
195.4875	0.5733
195.7054	0.5691
195.9231	0.6607
196.1409	0.6859
196.3587	0.6214
196.5765	0.6997
196.7942	0.8383
197.012	0.6199
197.2297	0.6962
197.4474	0.9528
197.6651	0.6206
197.8828	0.7632
198.1005	0.8526
198.3182	0.7314
198.5358	0.7594
198.7535	0.7642
198.9711	0.864
199.1888	0.7816
199.4064	0.8606
199.624	0.7895
199.8416	0.8216
200.0592	0.7836
200.2767	0.7034
200.4943	0.8666
200.7119	0.8634
200.9294	0.9459
201.1469	0.8509
201.3645	0.7972
201.582	0.9052
201.7995	0.7805
202.017	1.0617
202.2344	0.8947
202.4519	0.9605
202.6694	0.8598
202.8868	0.886
203.1042	1.0003
203.3217	0.9704
203.5391	0.8648
203.7565	0.8935
203.9739	0.882
204.1913	0.7998
204.4086	0.9851
204.626	0.8984
204.8433	0.9931
205.0607	0.908
205.278	0.9251
205.4953	1.0411
205.7126	0.9033
205.9299	1.0223
206.1472	0.9574
206.3644	0.937
206.5817	0.992
206.7989	0.9221
207.0162	1.0806
207.2334	0.915
207.4506	0.9936
207.6678	0.9749
207.885	1.0902
208.1022	1.0118
208.3194	1.1267
208.5365	1.1605
208.7537	1.0169
208.9708	0.9963
209.1879	1.0107
209.405	1.1065
209.6222	0.9844
209.8392	1.1055
210.0563	0.9465
210.2734	1.0371
210.4905	1.0246
210.7075	0.9529
210.9245	1.0264
211.1416	1.1254
211.3586	1.1278
211.5756	0.9979
211.7926	1.0585
212.0096	1.0018
212.2265	1.0851
212.4435	1.0412
212.6604	1.0972
212.8774	1.067
213.0943	0.9702
213.3112	0.9846
213.5281	1.0876
213.745	1.045
213.9619	1.0089
214.1788	0.9782
214.3956	0.905
214.6125	0.9174
214.8293	0.8538
215.0461	0.8923
215.2629	0.907
215.4798	0.8543
215.6965	0.8223
215.9133	0.8306
216.1301	0.8015
216.3469	0.8406
216.5636	0.7925
216.7803	0.7747
216.9971	0.7703
217.2138	0.7159
217.4305	0.7158
217.6472	0.6834
217.8639	0.6707
218.0805	0.6194
218.2972	0.5765
218.5138	0.5365
218.7305	0.5179
218.9471	0.4727
219.1637	0.4382
219.3803	0.4416
219.5969	0.3927
219.8135	0.3644
220.0301	0.3634
220.2466	0.3637
220.4632	0.3393
220.6797	0.3144
220.8962	0.3231
221.1127	0.3116
221.3292	0.3104
221.5457	0.2834
221.7622	0.2905
221.9787	0.2829
222.1951	0.2904
222.4116	0.2819
222.628	0.2782
222.8444	0.2621
223.0608	0.2689
223.2772	0.2771
223.4936	0.2665
223.71	0.2672
223.9264	0.2949
224.1427	0.2746
224.3591	0.2776
224.5754	0.2793
224.7917	0.2792
225.008	0.2841
225.2243	0.2802
225.4406	0.287
225.6569	0.2823
225.8732	0.2971
226.0894	0.2849
226.3057	0.3008
226.5219	0.2835
226.7381	0.2817
226.9543	0.2758
227.1705	0.2979
227.3867	0.3024
227.6029	0.3029
227.8191	0.3094
228.0352	0.3089
228.2513	0.3275
228.4675	0.3037
228.6836	0.3145
228.8997	0.3023
229.1158	0.3244
229.3319	0.3174
229.548	0.3422
229.764	0.3261
229.9801	0.3299
230.1961	0.3315
230.4121	0.3299
230.6282	0.3504
230.8442	0.3558
231.0602	0.3431
231.2761	0.3467
231.4921	0.359
231.7081	0.3665
231.924	0.3561
232.14	0.3633
232.3559	0.3673
232.5718	0.3628
232.7877	0.3556
233.0036	0.3703
233.2195	0.3681
233.4353	0.3652
233.6512	0.3793
233.867	0.3732
234.0829	0.3827
234.2987	0.3891
234.5145	0.3779
234.7303	0.3901
234.9461	0.3956
235.1619	0.3889
235.3776	0.3888
235.5934	0.4051
235.8091	0.3893
236.0249	0.3962
236.2406	0.3945
236.4563	0.3957
236.672	0.4035
236.8877	0.4038
237.1034	0.4105
237.319	0.4074
237.5347	0.4167
237.7503	0.409
237.966	0.4132
238.1816	0.4335
238.3972	0.409
238.6128	0.4126
238.8284	0.4203
239.0439	0.4029
239.2595	0.431
239.475	0.4213
239.6906	0.4147
239.9061	0.4217
240.1216	0.4175
240.3371	0.419
240.5526	0.4292
240.7681	0.4158
240.9836	0.4089
241.199	0.4096
241.4145	0.4017
241.6299	0.4017
241.8453	0.4035
242.0607	0.3857
242.2761	0.3921
242.4915	0.3837
242.7069	0.3713
242.9223	0.3672
243.1376	0.3662
243.353	0.3514
243.5683	0.3573
243.7836	0.3387
243.9989	0.3312
244.2142	0.331
244.4295	0.3239
244.6448	0.3243
244.86	0.3248
245.0753	0.2963
245.2905	0.2847
245.5057	0.3002
245.721	0.297
245.9362	0.2785
246.1514	0.2806
246.3665	0.2794
246.5817	0.2657
246.7969	0.271
247.012	0.2653
247.2271	0.2577
247.4423	0.2481
247.6574	0.2639
247.8725	0.2531
248.0876	0.2467
248.3026	0.2415
248.5177	0.2499
248.7328	0.232
248.9478	0.2328
249.1628	0.2303
249.3779	0.2278
249.5929	0.2133
249.8079	0.2269
250.0228	0.2215
250.2378	0.2218
250.4528	0.2175
250.6677	0.2187
250.8827	0.2089
251.0976	0.2036
251.3125	0.2136
251.5274	0.2006
251.7423	0.2083
251.9572	0.2119
252.172	0.2043
252.3869	0.2085
252.6017	0.2006
252.8166	0.2104
253.0314	0.1986
253.2462	0.2068
253.461	0.2121
253.6758	0.1998
253.8906	0.1969
254.1053	0.2007
254.3201	0.2013
254.5348	0.1957
254.7496	0.1999
254.9643	0.1909
255.179	0.2044
255.3937	0.1967
255.6083	0.2056
255.823	0.1942
256.0377	0.1958
256.2523	0.2006
256.467	0.1974
256.6816	0.1984
256.8962	0.1925
257.1108	0.1942
257.3254	0.1964
257.54	0.2001
257.7545	0.191
257.9691	0.1965
258.1836	0.1953
258.3981	0.2006
258.6127	0.1931
258.8272	0.1941
259.0417	0.1957
259.2561	0.1896
259.4706	0.1867
259.6851	0.1847
259.8995	0.1873
260.114	0.1901
260.3284	0.2002
260.5428	0.1967
260.7572	0.1995
260.9716	0.1916
261.186	0.1951
261.4003	0.1954
261.6147	0.1924
261.829	0.2048
262.0433	0.1919
262.2577	0.1935
262.472	0.1888
262.6863	0.1883
262.9005	0.193
263.1148	0.191
263.3291	0.1897
263.5433	0.1844
263.7576	0.1827
263.9718	0.1768
264.186	0.1829
264.4002	0.1887
264.6144	0.185
264.8286	0.186
265.0427	0.1805
265.2569	0.1847
265.471	0.1759
265.6851	0.1745
265.8993	0.1674
266.1134	0.1782
266.3275	0.1801
266.5415	0.1714
266.7556	0.1685
266.9697	0.1755
267.1837	0.1766
267.3978	0.1832
267.6118	0.1841
267.8258	0.1878
268.0398	0.1875
268.2538	0.1891
268.4677	0.1911
268.6817	0.1879
268.8957	0.1797
269.1096	0.1766
269.3235	0.1772
269.5374	0.1651
269.7514	0.1657
269.9652	0.1578
270.1791	0.153
270.393	0.1502
270.6068	0.1429
270.8207	0.1445
271.0345	0.1409
271.2483	0.143
271.4622	0.1447
271.676	0.146
271.8897	0.1409
272.1035	0.1271
272.3173	0.1434
272.531	0.1375
272.7448	0.1336
272.9585	0.1392
273.1722	0.1338
273.3859	0.1347
273.5996	0.1297
273.8133	0.134
274.0269	0.1352
274.2406	0.1337
274.4542	0.1304
274.6679	0.1354
274.8815	0.1354
275.0951	0.1329
275.3087	0.1356
275.5223	0.1292
275.7358	0.1261
275.9494	0.1328
276.1629	0.1332
276.3765	0.1361
276.59	0.1385
276.8035	0.1356
277.017	0.1322
277.2305	0.1378
277.444	0.1281
277.6574	0.1344
277.8709	0.137
278.0843	0.1358
278.2978	0.1356
278.5112	0.1413
278.7246	0.1314
278.938	0.1358
279.1513	0.1443
279.3647	0.1376
279.5781	0.1343
279.7914	0.1433
280.0047	0.1417
280.2181	0.1411
280.4314	0.1481
280.6447	0.1391
280.8579	0.1457
281.0712	0.1482
281.2845	0.1421
281.4977	0.1447
281.711	0.1455
281.9242	0.143
282.1374	0.1476
282.3506	0.1435
282.5638	0.1449
282.7769	0.1501
282.9901	0.1457
283.2033	0.1548
283.4164	0.1555
283.6295	0.1491
283.8426	0.1515
284.0557	0.1503
284.2688	0.1443
284.4819	0.1439
284.695	0.1505
284.908	0.1563
285.1211	0.1626
285.3341	0.1492
285.5471	0.1572
285.7601	0.1582
285.9731	0.1494
286.1861	0.1599
286.3991	0.1583
286.612	0.1597
286.825	0.1653
287.0379	0.1569
287.2508	0.1563
287.4637	0.1617
287.6766	0.1539
287.8895	0.1634
288.1024	0.1651
288.3152	0.1595
288.5281	0.1622
288.7409	0.1561
288.9538	0.1598
289.1666	0.1667
289.3794	0.1617
289.5922	0.1684
289.8049	0.1612
290.0177	0.1697
290.2304	0.1631
290.4432	0.1626
290.6559	0.1602
290.8686	0.1624
291.0813	0.1601
291.294	0.1682
291.5067	0.1688
291.7194	0.1684
291.932	0.168
292.1447	0.1633
292.3573	0.166
292.5699	0.1677
292.7825	0.1686
292.9951	0.1691
293.2077	0.1672
293.4203	0.1706
293.6328	0.1715
293.8454	0.1659
294.0579	0.1649
294.2704	0.1755
294.4829	0.1699
294.6954	0.1682
294.9079	0.1745
295.1204	0.1655
295.3328	0.1717
295.5453	0.1642
295.7577	0.1638
295.9701	0.1689
296.1825	0.1722
296.3949	0.163
296.6073	0.1757
296.8197	0.1714
297.0321	0.1747
297.2444	0.1623
297.4567	0.1662
297.6691	0.1712
297.8814	0.1656
298.0937	0.1664
298.306	0.1718
298.5182	0.1657
298.7305	0.1657
298.9428	0.1594
299.155	0.166
299.3672	0.1682
299.5794	0.1708
299.7916	0.166
300.0038	0.161
300.216	0.1767
300.4282	0.1616
300.6403	0.1658
300.8525	0.1623
301.0646	0.168
301.2767	0.168
301.4888	0.1633
301.7009	0.1674
301.913	0.1729
302.125	0.1659
302.3371	0.1756
302.5491	0.1698
302.7612	0.1699
302.9732	0.1726
303.1852	0.1608
303.3972	0.1656
303.6092	0.1587
303.8211	0.1702
304.0331	0.1546
304.245	0.1652
304.457	0.1588
304.6689	0.1644
304.8808	0.158
305.0927	0.1532
305.3046	0.1525
305.5164	0.1576
305.7283	0.1565
305.9401	0.1509
306.152	0.155
306.3638	0.1595
306.5756	0.1456
306.7874	0.1396
306.9992	0.1478
307.2109	0.1435
307.4227	0.1436
307.6344	0.1365
307.8462	0.136
308.0579	0.1359
308.2696	0.1283
308.4813	0.1354
308.693	0.1372
308.9046	0.1266
309.1163	0.1152
309.328	0.1217
309.5396	0.1267
309.7512	0.1156
309.9628	0.1138
310.1744	0.1274
310.386	0.1138
310.5976	0.1167
310.8091	0.118
311.0207	0.1164
311.2322	0.1132
311.4437	0.1203
311.6552	0.1183
311.8667	0.1146
312.0782	0.1051
312.2897	0.1015
312.5012	0.1101
312.7126	0.1046
312.924	0.1002
313.1355	0.0983
313.3469	0.0989
313.5583	0.1015
313.7696	0.103
313.981	0.1057
314.1924	0.0991
314.4037	0.0921
314.6151	0.0935
314.8264	0.0933
315.0377	0.0963
315.249	0.103
315.4603	0.0966
315.6716	0.099
315.8828	0.0962
316.0941	0.0889
316.3053	0.0914
316.5165	0.082
316.7277	0.0926
316.9389	0.0961
317.1501	0.0887
317.3613	0.0872
317.5724	0.0887
317.7836	0.0919
317.9947	0.0951
318.2058	0.0893
318.417	0.084
318.6281	0.0863
318.8391	0.0906
319.0502	0.0881
319.2613	0.0871
319.4723	0.0934
319.6834	0.089
319.8944	0.0953
320.1054	0.0917
320.3164	0.094
320.5274	0.0934
320.7383	0.0897
320.9493	0.085
321.1602	0.0904
321.3712	0.0953
321.5821	0.0942
321.793	0.0838
322.0039	0.0897
322.2148	0.0952
322.4257	0.0877
322.6365	0.0927
322.8474	0.0853
323.0582	0.1022
323.269	0.0876
323.4798	0.0963
323.6906	0.0864
323.9014	0.0941
324.1122	0.0866
324.3229	0.0968
324.5337	0.0886
324.7444	0.0886
324.9551	0.092
325.1658	0.0971
325.3765	0.0929
325.5872	0.0874
325.7979	0.1018
326.0085	0.0954
326.2192	0.096
326.4298	0.0981
326.6404	0.1012
326.851	0.0948
327.0616	0.0919
327.2722	0.0988
327.4828	0.09
327.6933	0.0951
327.9039	0.1015
328.1144	0.0954
328.3249	0.0993
328.5354	0.0958
328.7459	0.0916
328.9564	0.0956
329.1669	0.0961
329.3773	0.0908
329.5878	0.1006
329.7982	0.0976
330.0086	0.1035
330.219	0.1013
330.4294	0.0918
330.6398	0.0952
330.8502	0.0986
331.0605	0.094
331.2708	0.1004
331.4812	0.1016
331.6915	0.0974
331.9018	0.0956
332.1121	0.0959
332.3224	0.0917
332.5326	0.0939
332.7429	0.0994
332.9531	0.0932
333.1633	0.1068
333.3735	0.101
333.5837	0.0965
333.7939	0.099
334.0041	0.1009
334.2143	0.1027
334.4244	0.0945
334.6346	0.0942
334.8447	0.1013
335.0548	0.1025
335.2649	0.0935
335.475	0.0979
335.685	0.1076
335.8951	0.0957
336.1051	0.0941
336.3152	0.0976
336.5252	0.0998
336.7352	0.1012
336.9452	0.101
337.1552	0.1043
337.3652	0.1034
337.5751	0.1078
337.7851	0.0927
337.995	0.1045
338.2049	0.1028
338.4148	0.1047
338.6247	0.0971
338.8346	0.1008
339.0445	0.1027
339.2543	0.1016
339.4642	0.1006
339.674	0.1033
339.8838	0.0974
340.0936	0.1084
340.3034	0.112
340.5132	0.1048
340.7229	0.1103
340.9327	0.1057
341.1424	0.1018
341.3522	0.1083
341.5619	0.1175
341.7716	0.1123
341.9813	0.1111
342.1909	0.1182
342.4006	0.1052
342.6102	0.1144
342.8199	0.1093
343.0295	0.1049
343.2391	0.1138
343.4487	0.1146
343.6583	0.1176
343.8679	0.1081
344.0774	0.1233
344.287	0.1272
344.4965	0.1095
344.706	0.1203
344.9155	0.1163
345.125	0.1272
345.3345	0.1233
345.544	0.1137
345.7534	0.1152
345.9629	0.1177
346.1723	0.1229
346.3817	0.1303
346.5911	0.1263
346.8005	0.1202
347.0099	0.1198
347.2193	0.1327
347.4286	0.1398
347.638	0.1266
347.8473	0.1215
348.0566	0.1258
348.2659	0.1158
348.4752	0.1308
348.6845	0.1324
348.8937	0.1353
349.103	0.1275
349.3122	0.1246
349.5214	0.1313
349.7306	0.1335
349.9398	0.1307
350.149	0.129
350.3582	0.1304
350.5674	0.1375
350.7765	0.1318
350.9856	0.1363
351.1948	0.1314
351.4039	0.1384
351.613	0.128
351.822	0.1313
352.0311	0.1321
352.2402	0.1389
352.4492	0.1392
352.6582	0.132
352.8672	0.1479
353.0762	0.1443
353.2852	0.1459
353.4942	0.1517
353.7032	0.1433
353.9121	0.1438
354.1211	0.1448
354.33	0.1473
354.5389	0.1444
354.7478	0.1478
354.9567	0.1389
355.1655	0.15
355.3744	0.1546
355.5833	0.1466
355.7921	0.145
356.0009	0.144
356.2097	0.1533
356.4185	0.1522
356.6273	0.1619
356.8361	0.1533
357.0448	0.167
357.2536	0.1533
357.4623	0.1543
357.671	0.1594
357.8797	0.1601
358.0884	0.1575
358.2971	0.163
358.5057	0.1604
358.7144	0.1659
358.923	0.1702
359.1316	0.1628
359.3402	0.1713
359.5488	0.1622
359.7574	0.1704
359.966	0.1696
360.1746	0.17
360.3831	0.1783
360.5916	0.177
360.8002	0.1818
361.0087	0.1732
361.2172	0.1855
361.4256	0.1702
361.6341	0.1761
361.8426	0.1789
362.051	0.1736
362.2594	0.1833
362.4678	0.1817
362.6762	0.1854
362.8846	0.1961
363.093	0.1888
363.3014	0.19
363.5097	0.1833
363.718	0.1942
363.9264	0.1858
364.1347	0.2019
364.343	0.1895
364.5513	0.1893
364.7595	0.1977
364.9678	0.1934
365.176	0.1998
365.3842	0.1969
365.5925	0.1979
365.8007	0.2022
366.0089	0.2099
366.217	0.2097
366.4252	0.2037
366.6333	0.2068
366.8415	0.2028
367.0496	0.2072
367.2577	0.209
367.4658	0.217
367.6739	0.2174
367.882	0.2127
368.09	0.2095
368.2981	0.2283
368.5061	0.2098
368.7141	0.2066
368.9221	0.2041
369.1301	0.2198
369.3381	0.2169
369.5461	0.2159
369.754	0.2109
369.962	0.2242
370.1699	0.2287
370.3778	0.2195
370.5857	0.23
370.7936	0.2242
371.0015	0.2268
371.2093	0.2162
371.4172	0.2255
371.625	0.2207
371.8328	0.2278
372.0406	0.2379
372.2484	0.2222
372.4562	0.2335
372.664	0.2299
372.8717	0.2282
373.0795	0.2232
373.2872	0.2391
373.4949	0.2335
373.7026	0.2387
373.9103	0.2396
374.118	0.2418
374.3256	0.2358
374.5333	0.2366
374.7409	0.2401
374.9485	0.2316
375.1561	0.2473
375.3637	0.2369
375.5713	0.2419
375.7789	0.2353
375.9864	0.2433
376.194	0.2484
376.4015	0.242
376.609	0.2478
376.8165	0.2418
377.024	0.2395
377.2315	0.2429
377.4389	0.2517
377.6464	0.2464
377.8538	0.2535
378.0612	0.2421
378.2686	0.2429
378.476	0.2461
378.6834	0.2637
378.8908	0.249
379.0981	0.2662
379.3055	0.2656
379.5128	0.2557
379.7201	0.2617
379.9274	0.2603
380.1347	0.2588
380.342	0.2593
380.5492	0.2646
380.7565	0.2682
380.9637	0.2671
381.1709	0.2629
381.3781	0.262
381.5853	0.2747
381.7925	0.269
381.9997	0.2689
382.2068	0.2783
382.4139	0.2598
382.6211	0.2698
382.8282	0.2619
383.0353	0.2565
383.2424	0.2686
383.4494	0.276
383.6565	0.2659
383.8635	0.2799
384.0706	0.2683
384.2776	0.2724
384.4846	0.2786
384.6916	0.2838
384.8986	0.2716
385.1055	0.2719
385.3125	0.2851
385.5194	0.2741
385.7263	0.2857
385.9333	0.2852
386.1402	0.2687
386.347	0.2701
386.5539	0.2716
386.7608	0.2851
386.9676	0.2739
387.1744	0.2647
387.3813	0.265
387.5881	0.2716
387.7948	0.2747
388.0016	0.273
388.2084	0.2837
388.4151	0.2698
388.6219	0.2767
388.8286	0.2642
389.0353	0.2682
389.242	0.2698
389.4487	0.2618
389.6553	0.2584
389.862	0.2479
390.0686	0.2571
390.2753	0.2553
390.4819	0.2649
390.6885	0.2685
390.8951	0.2642
391.1016	0.2706
391.3082	0.2614
391.5147	0.2695
391.7213	0.2563
391.9278	0.2532
392.1343	0.2461
392.3408	0.253
392.5473	0.2619
392.7537	0.2575
392.9602	0.2514
393.1666	0.2623
393.373	0.2498
393.5794	0.2576
393.7858	0.2533
393.9922	0.2364
394.1986	0.2465
394.4049	0.2531
394.6113	0.2429
394.8176	0.2378
395.0239	0.2315
395.2302	0.2444
395.4365	0.2438
395.6428	0.2347
395.8491	0.2323
396.0553	0.2311
396.2615	0.2307
396.4678	0.25
396.674	0.2322
396.8802	0.2385
397.0863	0.2336
397.2925	0.2327
397.4987	0.228
397.7048	0.2278
397.9109	0.2444
398.117	0.2364
398.3231	0.2304
398.5292	0.2285
398.7353	0.2284
398.9413	0.2409
399.1474	0.2388
399.3534	0.2191
399.5594	0.226
399.7654	0.2334
399.9714	0.2252
400.1774	0.2279
400.3833	0.2391
400.5893	0.2332
400.7952	0.2238
401.0011	0.2209
401.207	0.2303
401.4129	0.2193
401.6188	0.2172
401.8247	0.2297
402.0305	0.2216
402.2364	0.2366
402.4422	0.2353
402.648	0.2359
402.8538	0.2324
403.0596	0.2242
403.2654	0.2186
403.4711	0.2313
403.6768	0.2375
403.8826	0.2272
404.0883	0.2292
404.294	0.229
404.4997	0.2342
404.7054	0.2299
404.911	0.2327
405.1167	0.2371
405.3223	0.2332
405.5279	0.2245
405.7335	0.2344
405.9391	0.2394
406.1447	0.2331
406.3502	0.2278
406.5558	0.235
406.7613	0.2224
406.9668	0.2301
407.1724	0.2244
407.3778	0.2399
407.5833	0.2297
407.7888	0.2442
407.9942	0.2332
408.1997	0.2349
408.4051	0.2247
408.6105	0.2382
408.8159	0.2517
409.0213	0.2299
409.2267	0.2284
409.432	0.2315
409.6374	0.226
409.8427	0.2399
410.048	0.2251
410.2533	0.2191
410.4586	0.2313
410.6639	0.2168
410.8691	0.2336
411.0744	0.2223
411.2796	0.2286
411.4848	0.2177
411.69	0.2336
411.8952	0.2293
412.1004	0.2224
412.3056	0.2398
412.5107	0.2419
412.7158	0.2192
412.921	0.2295
413.1261	0.2353
413.3312	0.2247
413.5362	0.2214
413.7413	0.2253
413.9464	0.2361
414.1514	0.2176
414.3564	0.237
414.5614	0.2295
414.7664	0.2282
414.9714	0.2193
415.1764	0.2204
415.3813	0.2338
415.5863	0.2207
415.7912	0.2301
415.9961	0.2231
416.201	0.2283
416.4059	0.2221
416.6108	0.2236
416.8156	0.2105
417.0205	0.2203
417.2253	0.2195
417.4301	0.2248
417.6349	0.2357
417.8397	0.208
418.0445	0.2234
418.2492	0.2186
418.454	0.2217
418.6587	0.2112
418.8634	0.217
419.0681	0.2262
419.2728	0.2218
419.4775	0.2066
419.6822	0.2127
419.8868	0.2117
420.0915	0.2159
420.2961	0.2188
420.5007	0.2164
420.7053	0.2074
420.9099	0.2101
421.1144	0.2121
421.319	0.2131
421.5235	0.2196
421.728	0.1994
421.9325	0.2063
422.137	0.1972
422.3415	0.2175
422.546	0.2054
422.7504	0.21
422.9549	0.2094
423.1593	0.2118
423.3637	0.1976
423.5681	0.2128
423.7725	0.1987
423.9769	0.1957
424.1812	0.1949
424.3856	0.198
424.5899	0.1977
424.7942	0.194
424.9985	0.1951
425.2028	0.1736
425.4071	0.188
425.6113	0.197
425.8156	0.1838
426.0198	0.1952
426.224	0.1835
426.4282	0.1881
426.6324	0.1876
