Data from MonoPyChalIsomerACN10uM450nmA_Absorbance_13-11-23-892.txt Node
Date: Tue Jul 09 13:11:23 BST 2024
User: LASERRRRR
Spectrometer: FLMT03099
Trigger mode: 0
Integration Time (sec): 2.000000E-1
Scans to average: 1
Electric dark correction enabled: true
Nonlinearity correction enabled: false
Boxcar width: 0
XAxis mode: Wavelengths
Number of Pixels in Spectrum: 3648
>>>>>Begin Spectral Data<<<<<
179.3399	-0.1535
179.5586	-0.1535
179.7771	-0.1535
179.9957	-0.3761
180.2143	-0.3731
180.4329	-0.2043
180.6514	-0
180.8699	-0.4242
181.0885	-0
181.307	-0
181.5255	0.1457
181.744	-0
181.9625	-0.0266
182.181	-0
182.3994	0.0085
182.6179	-0.2752
182.8363	-0.9605
183.0547	0.1014
183.2732	0.1759
183.4916	0.0341
183.71	0.1952
183.9284	0.1278
184.1467	0.0297
184.3651	0.1128
184.5835	0.0576
184.8018	-0.04
185.0201	0.0978
185.2385	-0.0542
185.4568	-0.0838
185.6751	0.0522
185.8934	0.09
186.1117	-0.0033
186.3299	-0.1103
186.5482	0.0301
186.7664	-0.0176
186.9847	0.0576
187.2029	0.1257
187.4211	-0.0253
187.6393	-0.0335
187.8575	0.0783
188.0757	-0.012
188.2939	0.0471
188.512	0.0711
188.7302	0.0469
188.9483	0.0395
189.1665	0.0555
189.3846	0.1911
189.6027	0.1685
189.8208	0.1203
190.0389	0.1827
190.257	0.2262
190.475	0.213
190.6931	0.1031
190.9111	0.2316
191.1292	0.2572
191.3472	0.3176
191.5652	0.335
191.7832	0.3326
192.0012	0.3731
192.2192	0.4844
192.4371	0.4713
192.6551	0.527
192.873	0.4349
193.091	0.4627
193.3089	0.6229
193.5268	0.4891
193.7447	0.5421
193.9626	0.5083
194.1805	0.5351
194.3984	0.4794
194.6162	0.5526
194.8341	0.568
195.0519	0.5289
195.2697	0.5402
195.4875	0.5798
195.7054	0.5634
195.9231	0.6654
196.1409	0.6074
196.3587	0.6407
196.5765	0.6407
196.7942	0.6761
197.012	0.627
197.2297	0.6667
197.4474	0.7052
197.6651	0.7034
197.8828	0.7889
198.1005	0.8043
198.3182	0.7437
198.5358	0.7268
198.7535	0.6748
198.9711	0.8511
199.1888	0.7837
199.4064	0.8761
199.624	0.7703
199.8416	0.7231
200.0592	0.7993
200.2767	0.7806
200.4943	0.8012
200.7119	0.8587
200.9294	0.8779
201.1469	0.7496
201.3645	0.9282
201.582	0.9653
201.7995	0.735
202.017	0.9134
202.2344	0.7371
202.4519	0.9581
202.6694	0.7702
202.8868	0.9252
203.1042	0.9554
203.3217	0.98
203.5391	0.9522
203.7565	0.9343
203.9739	1.0085
204.1913	0.859
204.4086	0.9442
204.626	0.9828
204.8433	0.8461
205.0607	0.8555
205.278	0.8907
205.4953	1.0411
205.7126	0.8985
205.9299	1.0033
206.1472	0.9574
206.3644	1.0798
206.5817	1.1126
206.7989	0.9871
207.0162	1.0343
207.2334	0.9196
207.4506	0.9468
207.6678	1.1191
207.885	1.0411
208.1022	0.9753
208.3194	1.1289
208.5365	1.022
208.7537	1.0036
208.9708	0.9443
209.1879	1.0484
209.405	1.0505
209.6222	1.0073
209.8392	1.0728
210.0563	0.9729
210.2734	1.0883
210.4905	1.0293
210.7075	1.0496
210.9245	0.9768
211.1416	1.1574
211.3586	1.0778
211.5756	1.0327
211.7926	1.0569
212.0096	1.0221
212.2265	1.0383
212.4435	1.0342
212.6604	1.0922
212.8774	1.0349
213.0943	0.9799
213.3112	0.9871
213.5281	1.1335
213.745	0.9946
213.9619	0.9391
214.1788	0.9841
214.3956	1.0055
214.6125	0.8507
214.8293	0.8093
215.0461	0.8729
215.2629	0.9165
215.4798	0.8511
215.6965	0.8061
215.9133	0.8543
216.1301	0.8022
216.3469	0.8254
216.5636	0.7663
216.7803	0.7672
216.9971	0.7456
217.2138	0.7071
217.4305	0.7305
217.6472	0.6878
217.8639	0.6517
218.0805	0.5963
218.2972	0.5761
218.5138	0.546
218.7305	0.5283
218.9471	0.4762
219.1637	0.4551
219.3803	0.4299
219.5969	0.3976
219.8135	0.3711
220.0301	0.3471
220.2466	0.3481
220.4632	0.3368
220.6797	0.3193
220.8962	0.3084
221.1127	0.2997
221.3292	0.3121
221.5457	0.2764
221.7622	0.2922
221.9787	0.2834
222.1951	0.2829
222.4116	0.2747
222.628	0.2902
222.8444	0.273
223.0608	0.2695
223.2772	0.2715
223.4936	0.2765
223.71	0.2613
223.9264	0.2813
224.1427	0.2679
224.3591	0.2699
224.5754	0.275
224.7917	0.2887
225.008	0.2778
225.2243	0.2741
225.4406	0.28
225.6569	0.2771
225.8732	0.2887
226.0894	0.2758
226.3057	0.2845
226.5219	0.291
226.7381	0.2934
226.9543	0.2796
227.1705	0.2934
227.3867	0.3133
227.6029	0.2859
227.8191	0.2906
228.0352	0.3017
228.2513	0.3059
228.4675	0.3028
228.6836	0.3222
228.8997	0.3199
229.1158	0.3232
229.3319	0.3121
229.548	0.3259
229.764	0.3221
229.9801	0.3184
230.1961	0.3263
230.4121	0.3352
230.6282	0.3434
230.8442	0.3307
231.0602	0.3524
231.2761	0.34
231.4921	0.3469
231.7081	0.3582
231.924	0.3646
232.14	0.3647
232.3559	0.372
232.5718	0.3538
232.7877	0.3516
233.0036	0.3755
233.2195	0.3647
233.4353	0.3761
233.6512	0.3678
233.867	0.36
234.0829	0.384
234.2987	0.375
234.5145	0.3809
234.7303	0.3931
234.9461	0.3992
235.1619	0.3799
235.3776	0.3898
235.5934	0.3932
235.8091	0.3885
236.0249	0.389
236.2406	0.3973
236.4563	0.3907
236.672	0.4131
236.8877	0.4102
237.1034	0.3883
237.319	0.4044
237.5347	0.406
237.7503	0.4124
237.966	0.4135
238.1816	0.4107
238.3972	0.4084
238.6128	0.4037
238.8284	0.4227
239.0439	0.4217
239.2595	0.4268
239.475	0.4159
239.6906	0.426
239.9061	0.3982
240.1216	0.4163
240.3371	0.4238
240.5526	0.4283
240.7681	0.4038
240.9836	0.4131
241.199	0.4029
241.4145	0.3977
241.6299	0.4008
241.8453	0.4077
242.0607	0.3854
242.2761	0.3949
242.4915	0.3861
242.7069	0.3786
242.9223	0.3647
243.1376	0.3768
243.353	0.3575
243.5683	0.3637
243.7836	0.3478
243.9989	0.3364
244.2142	0.3328
244.4295	0.3303
244.6448	0.3238
244.86	0.3288
245.0753	0.3066
245.2905	0.3067
245.5057	0.3015
245.721	0.2991
245.9362	0.2777
246.1514	0.2798
246.3665	0.2837
246.5817	0.2687
246.7969	0.2781
247.012	0.2733
247.2271	0.265
247.4423	0.26
247.6574	0.2633
247.8725	0.2484
248.0876	0.2602
248.3026	0.2493
248.5177	0.2542
248.7328	0.2361
248.9478	0.2409
249.1628	0.2316
249.3779	0.2243
249.5929	0.2331
249.8079	0.2437
250.0228	0.23
250.2378	0.2275
250.4528	0.2155
250.6677	0.2213
250.8827	0.211
251.0976	0.2084
251.3125	0.2105
251.5274	0.2187
251.7423	0.2143
251.9572	0.215
252.172	0.2094
252.3869	0.2062
252.6017	0.2064
252.8166	0.2067
253.0314	0.2028
253.2462	0.2111
253.461	0.2051
253.6758	0.1974
253.8906	0.2021
254.1053	0.1974
254.3201	0.2007
254.5348	0.2063
254.7496	0.2057
254.9643	0.1963
255.179	0.2026
255.3937	0.1943
255.6083	0.1977
255.823	0.1922
256.0377	0.1961
256.2523	0.1936
256.467	0.199
256.6816	0.1947
256.8962	0.1937
257.1108	0.196
257.3254	0.1964
257.54	0.1909
257.7545	0.1923
257.9691	0.1946
258.1836	0.1872
258.3981	0.2003
258.6127	0.1984
258.8272	0.1949
259.0417	0.1972
259.2561	0.1995
259.4706	0.1865
259.6851	0.1862
259.8995	0.1975
260.114	0.1923
260.3284	0.2005
260.5428	0.2004
260.7572	0.2087
260.9716	0.1945
261.186	0.1991
261.4003	0.2049
261.6147	0.1978
261.829	0.1991
262.0433	0.1989
262.2577	0.1986
262.472	0.1966
262.6863	0.191
262.9005	0.1957
263.1148	0.1982
263.3291	0.1908
263.5433	0.187
263.7576	0.189
263.9718	0.197
264.186	0.1841
264.4002	0.1858
264.6144	0.1906
264.8286	0.1809
265.0427	0.1795
265.2569	0.1826
265.471	0.1816
265.6851	0.174
265.8993	0.175
266.1134	0.171
266.3275	0.181
266.5415	0.1697
266.7556	0.1865
266.9697	0.174
267.1837	0.174
267.3978	0.1886
267.6118	0.193
267.8258	0.1887
268.0398	0.1979
268.2538	0.1926
268.4677	0.1999
268.6817	0.1976
268.8957	0.1905
269.1096	0.1846
269.3235	0.175
269.5374	0.178
269.7514	0.1657
269.9652	0.1667
270.1791	0.1585
270.393	0.1519
270.6068	0.1574
270.8207	0.1466
271.0345	0.1526
271.2483	0.1536
271.4622	0.1476
271.676	0.1494
271.8897	0.1506
272.1035	0.1351
272.3173	0.1495
272.531	0.1413
272.7448	0.1445
272.9585	0.1399
273.1722	0.1374
273.3859	0.1429
273.5996	0.1284
273.8133	0.1459
274.0269	0.1482
274.2406	0.1439
274.4542	0.1438
274.6679	0.1341
274.8815	0.1429
275.0951	0.1499
275.3087	0.14
275.5223	0.1334
275.7358	0.1347
275.9494	0.1535
276.1629	0.1423
276.3765	0.1418
276.59	0.1446
276.8035	0.1508
277.017	0.1418
277.2305	0.1445
277.444	0.1391
277.6574	0.1507
277.8709	0.1553
278.0843	0.1486
278.2978	0.1466
278.5112	0.1485
278.7246	0.1392
278.938	0.1534
279.1513	0.1474
279.3647	0.1515
279.5781	0.1487
279.7914	0.1496
280.0047	0.1458
280.2181	0.1475
280.4314	0.1497
280.6447	0.1491
280.8579	0.1498
281.0712	0.1551
281.2845	0.1466
281.4977	0.1602
281.711	0.1524
281.9242	0.1517
282.1374	0.1516
282.3506	0.1441
282.5638	0.1562
282.7769	0.1596
282.9901	0.1525
283.2033	0.1553
283.4164	0.1567
283.6295	0.1565
283.8426	0.1578
284.0557	0.1522
284.2688	0.1479
284.4819	0.1523
284.695	0.1586
284.908	0.1557
285.1211	0.1611
285.3341	0.1553
285.5471	0.1571
285.7601	0.1536
285.9731	0.1552
286.1861	0.1651
286.3991	0.1582
286.612	0.1514
286.825	0.1549
287.0379	0.1612
287.2508	0.1507
287.4637	0.168
287.6766	0.1581
287.8895	0.1625
288.1024	0.1653
288.3152	0.1538
288.5281	0.1627
288.7409	0.152
288.9538	0.16
289.1666	0.1645
289.3794	0.155
289.5922	0.1623
289.8049	0.1611
290.0177	0.1618
290.2304	0.1615
290.4432	0.1612
290.6559	0.1655
290.8686	0.1569
291.0813	0.1595
291.294	0.1661
291.5067	0.1564
291.7194	0.1591
291.932	0.163
292.1447	0.1588
292.3573	0.1554
292.5699	0.1684
292.7825	0.1588
292.9951	0.1654
293.2077	0.1563
293.4203	0.1581
293.6328	0.1665
293.8454	0.1598
294.0579	0.1638
294.2704	0.1636
294.4829	0.1672
294.6954	0.1591
294.9079	0.166
295.1204	0.1668
295.3328	0.1559
295.5453	0.1617
295.7577	0.1497
295.9701	0.1581
296.1825	0.159
296.3949	0.1538
296.6073	0.1601
296.8197	0.158
297.0321	0.1597
297.2444	0.1553
297.4567	0.1569
297.6691	0.1606
297.8814	0.146
298.0937	0.1595
298.306	0.1593
298.5182	0.1521
298.7305	0.1597
298.9428	0.1469
299.155	0.1578
299.3672	0.157
299.5794	0.1586
299.7916	0.1543
300.0038	0.1518
300.216	0.1598
300.4282	0.1556
300.6403	0.1622
300.8525	0.1487
301.0646	0.1545
301.2767	0.1546
301.4888	0.1506
301.7009	0.1565
301.913	0.1686
302.125	0.1589
302.3371	0.1594
302.5491	0.1567
302.7612	0.159
302.9732	0.1632
303.1852	0.1552
303.3972	0.155
303.6092	0.1601
303.8211	0.1529
304.0331	0.149
304.245	0.1536
304.457	0.1561
304.6689	0.1538
304.8808	0.1501
305.0927	0.1555
305.3046	0.1473
305.5164	0.151
305.7283	0.1442
305.9401	0.1466
306.152	0.146
306.3638	0.1475
306.5756	0.1441
306.7874	0.1418
306.9992	0.1366
307.2109	0.1386
307.4227	0.1379
307.6344	0.1275
307.8462	0.1276
308.0579	0.1337
308.2696	0.1247
308.4813	0.1305
308.693	0.1278
308.9046	0.1214
309.1163	0.1272
309.328	0.1179
309.5396	0.1187
309.7512	0.1203
309.9628	0.1173
310.1744	0.1191
310.386	0.1082
310.5976	0.1172
310.8091	0.1195
311.0207	0.113
311.2322	0.1209
311.4437	0.1181
311.6552	0.108
311.8667	0.1116
312.0782	0.1101
312.2897	0.1021
312.5012	0.1139
312.7126	0.0969
312.924	0.0964
313.1355	0.1046
313.3469	0.1046
313.5583	0.1059
313.7696	0.1113
313.981	0.1027
314.1924	0.1021
314.4037	0.0956
314.6151	0.0944
314.8264	0.1065
315.0377	0.0954
315.249	0.1017
315.4603	0.1031
315.6716	0.0996
315.8828	0.0988
316.0941	0.0929
316.3053	0.092
316.5165	0.0911
316.7277	0.0871
316.9389	0.1001
317.1501	0.0936
317.3613	0.0912
317.5724	0.0959
317.7836	0.0953
317.9947	0.1012
318.2058	0.0955
318.417	0.0858
318.6281	0.0924
318.8391	0.088
319.0502	0.0937
319.2613	0.0966
319.4723	0.0985
319.6834	0.0943
319.8944	0.0973
320.1054	0.0921
320.3164	0.1074
320.5274	0.1004
320.7383	0.0907
320.9493	0.1011
321.1602	0.0958
321.3712	0.1018
321.5821	0.0977
321.793	0.0951
322.0039	0.0888
322.2148	0.0948
322.4257	0.0963
322.6365	0.0899
322.8474	0.1008
323.0582	0.1049
323.269	0.095
323.4798	0.096
323.6906	0.0946
323.9014	0.0946
324.1122	0.0993
324.3229	0.1008
324.5337	0.0967
324.7444	0.098
324.9551	0.103
325.1658	0.0947
325.3765	0.0963
325.5872	0.0958
325.7979	0.1032
326.0085	0.1071
326.2192	0.1025
326.4298	0.1027
326.6404	0.103
326.851	0.0989
327.0616	0.094
327.2722	0.1009
327.4828	0.0988
327.6933	0.0999
327.9039	0.1073
328.1144	0.0979
328.3249	0.1047
328.5354	0.099
328.7459	0.1024
328.9564	0.1006
329.1669	0.1064
329.3773	0.104
329.5878	0.1117
329.7982	0.1061
330.0086	0.1057
330.219	0.1096
330.4294	0.0988
330.6398	0.1109
330.8502	0.1051
331.0605	0.1036
331.2708	0.1015
331.4812	0.1078
331.6915	0.0974
331.9018	0.1004
332.1121	0.1021
332.3224	0.1051
332.5326	0.0992
332.7429	0.1043
332.9531	0.1033
333.1633	0.1217
333.3735	0.1079
333.5837	0.1056
333.7939	0.1082
334.0041	0.1047
334.2143	0.1042
334.4244	0.1031
334.6346	0.1019
334.8447	0.1034
335.0548	0.1039
335.2649	0.1061
335.475	0.0963
335.685	0.113
335.8951	0.1087
336.1051	0.1048
336.3152	0.1031
336.5252	0.1043
336.7352	0.1106
336.9452	0.1045
337.1552	0.11
337.3652	0.1089
337.5751	0.1125
337.7851	0.0957
337.995	0.1108
338.2049	0.1088
338.4148	0.1127
338.6247	0.1073
338.8346	0.1094
339.0445	0.1094
339.2543	0.1119
339.4642	0.1173
339.674	0.1068
339.8838	0.1132
340.0936	0.1139
340.3034	0.1167
340.5132	0.1098
340.7229	0.1197
340.9327	0.1197
341.1424	0.1118
341.3522	0.1119
341.5619	0.1235
341.7716	0.1207
341.9813	0.1183
342.1909	0.1177
342.4006	0.1095
342.6102	0.1209
342.8199	0.1182
343.0295	0.1182
343.2391	0.1251
343.4487	0.1149
343.6583	0.1191
343.8679	0.1188
344.0774	0.1279
344.287	0.1248
344.4965	0.1245
344.706	0.1271
344.9155	0.1258
345.125	0.1294
345.3345	0.1307
345.544	0.1124
345.7534	0.1274
345.9629	0.1278
346.1723	0.13
346.3817	0.1362
346.5911	0.1294
346.8005	0.125
347.0099	0.1189
347.2193	0.1342
347.4286	0.135
347.638	0.1376
347.8473	0.1257
348.0566	0.1313
348.2659	0.1284
348.4752	0.1308
348.6845	0.1292
348.8937	0.1387
349.103	0.1338
349.3122	0.1334
349.5214	0.1331
349.7306	0.1318
349.9398	0.1331
350.149	0.135
350.3582	0.1327
350.5674	0.1427
350.7765	0.1382
350.9856	0.1348
351.1948	0.1373
351.4039	0.1373
351.613	0.1304
351.822	0.1361
352.0311	0.1356
352.2402	0.1421
352.4492	0.1389
352.6582	0.1466
352.8672	0.1355
353.0762	0.1464
353.2852	0.1568
353.4942	0.1467
353.7032	0.1479
353.9121	0.1491
354.1211	0.1479
354.33	0.1453
354.5389	0.1454
354.7478	0.1478
354.9567	0.1452
355.1655	0.1475
355.3744	0.1642
355.5833	0.1511
355.7921	0.1521
356.0009	0.1516
356.2097	0.1495
356.4185	0.1525
356.6273	0.1671
356.8361	0.154
357.0448	0.1539
357.2536	0.1475
357.4623	0.1519
357.671	0.1592
357.8797	0.1635
358.0884	0.1565
358.2971	0.1634
358.5057	0.1554
358.7144	0.159
358.923	0.1628
359.1316	0.1642
359.3402	0.179
359.5488	0.1706
359.7574	0.1743
359.966	0.1686
360.1746	0.159
360.3831	0.1829
360.5916	0.1749
360.8002	0.1743
361.0087	0.1732
361.2172	0.1778
361.4256	0.1759
361.6341	0.1838
361.8426	0.1864
362.051	0.1724
362.2594	0.1793
362.4678	0.1752
362.6762	0.1834
362.8846	0.1739
363.093	0.1853
363.3014	0.1894
363.5097	0.192
363.718	0.1909
363.9264	0.1818
364.1347	0.197
364.343	0.1856
364.5513	0.1862
364.7595	0.1904
364.9678	0.1845
365.176	0.1886
365.3842	0.1875
365.5925	0.1958
365.8007	0.1937
366.0089	0.2001
366.217	0.1844
366.4252	0.2082
366.6333	0.1918
366.8415	0.1854
367.0496	0.1964
367.2577	0.2103
367.4658	0.2024
367.6739	0.1982
367.882	0.2012
368.09	0.1964
368.2981	0.2107
368.5061	0.1918
368.7141	0.2032
368.9221	0.1959
369.1301	0.2129
369.3381	0.2114
369.5461	0.211
369.754	0.2075
369.962	0.2023
370.1699	0.2077
370.3778	0.2082
370.5857	0.2113
370.7936	0.2049
371.0015	0.2139
371.2093	0.2103
371.4172	0.2126
371.625	0.215
371.8328	0.2104
372.0406	0.2254
372.2484	0.2112
372.4562	0.2197
372.664	0.2229
372.8717	0.2195
373.0795	0.2103
373.2872	0.2201
373.4949	0.2209
373.7026	0.2179
373.9103	0.2139
374.118	0.2222
374.3256	0.2153
374.5333	0.2166
374.7409	0.2207
374.9485	0.224
375.1561	0.2215
375.3637	0.2143
375.5713	0.2228
375.7789	0.2229
375.9864	0.2311
376.194	0.2285
376.4015	0.2369
376.609	0.2344
376.8165	0.2216
377.024	0.2246
377.2315	0.2329
377.4389	0.2279
377.6464	0.2256
377.8538	0.2334
378.0612	0.2302
378.2686	0.228
378.476	0.233
378.6834	0.2327
378.8908	0.2424
379.0981	0.2384
379.3055	0.238
379.5128	0.2343
379.7201	0.2369
379.9274	0.24
380.1347	0.2449
380.342	0.2341
380.5492	0.2433
380.7565	0.2575
380.9637	0.2564
381.1709	0.2437
381.3781	0.2359
381.5853	0.2532
381.7925	0.2388
381.9997	0.2486
382.2068	0.246
382.4139	0.2445
382.6211	0.2471
382.8282	0.2411
383.0353	0.2427
383.2424	0.2432
383.4494	0.2468
383.6565	0.2524
383.8635	0.2587
384.0706	0.2444
384.2776	0.2592
384.4846	0.2411
384.6916	0.2466
384.8986	0.2531
385.1055	0.2587
385.3125	0.2524
385.5194	0.2517
385.7263	0.2571
385.9333	0.26
386.1402	0.2479
386.347	0.2455
386.5539	0.2539
386.7608	0.2534
386.9676	0.2542
387.1744	0.2423
387.3813	0.2437
387.5881	0.2402
387.7948	0.2444
388.0016	0.243
388.2084	0.2494
388.4151	0.2465
388.6219	0.2448
388.8286	0.2535
389.0353	0.2367
389.242	0.2405
389.4487	0.2298
389.6553	0.2377
389.862	0.2297
390.0686	0.2335
390.2753	0.2382
390.4819	0.2303
390.6885	0.2411
390.8951	0.2308
391.1016	0.2382
391.3082	0.2397
391.5147	0.2425
391.7213	0.2333
391.9278	0.2314
392.1343	0.236
392.3408	0.2264
392.5473	0.2249
392.7537	0.2374
392.9602	0.224
393.1666	0.2243
393.373	0.227
393.5794	0.2284
393.7858	0.2217
393.9922	0.2199
394.1986	0.2185
394.4049	0.2279
394.6113	0.218
394.8176	0.2045
395.0239	0.2124
395.2302	0.2071
395.4365	0.2181
395.6428	0.2124
395.8491	0.2107
396.0553	0.2082
396.2615	0.2082
396.4678	0.2218
396.674	0.2147
396.8802	0.211
397.0863	0.2056
397.2925	0.2083
397.4987	0.2075
397.7048	0.1988
397.9109	0.2154
398.117	0.2088
398.3231	0.2045
398.5292	0.2041
398.7353	0.2173
398.9413	0.2132
399.1474	0.2109
399.3534	0.2061
399.5594	0.1985
399.7654	0.2084
399.9714	0.2008
400.1774	0.2105
400.3833	0.2013
400.5893	0.2054
400.7952	0.2024
401.0011	0.1997
401.207	0.2027
401.4129	0.1848
401.6188	0.1946
401.8247	0.1964
402.0305	0.2035
402.2364	0.2054
402.4422	0.1977
402.648	0.2004
402.8538	0.1972
403.0596	0.1938
403.2654	0.1933
403.4711	0.1912
403.6768	0.2135
403.8826	0.2023
404.0883	0.2059
404.294	0.2136
404.4997	0.2001
404.7054	0.209
404.911	0.2082
405.1167	0.216
405.3223	0.2019
405.5279	0.1982
405.7335	0.2053
405.9391	0.2062
406.1447	0.2143
406.3502	0.2094
406.5558	0.2025
406.7613	0.1907
406.9668	0.2033
407.1724	0.199
407.3778	0.2073
407.5833	0.2056
407.7888	0.214
407.9942	0.2003
408.1997	0.2164
408.4051	0.2011
408.6105	0.2072
408.8159	0.2141
409.0213	0.1972
409.2267	0.2086
409.432	0.1999
409.6374	0.2089
409.8427	0.2115
410.048	0.1995
410.2533	0.195
410.4586	0.203
410.6639	0.2032
410.8691	0.1886
411.0744	0.1917
411.2796	0.2047
411.4848	0.1849
411.69	0.2021
411.8952	0.1994
412.1004	0.2018
412.3056	0.2131
412.5107	0.2076
412.7158	0.1932
412.921	0.1986
413.1261	0.1903
413.3312	0.2084
413.5362	0.2032
413.7413	0.1904
413.9464	0.2055
414.1514	0.1907
414.3564	0.2061
414.5614	0.2123
414.7664	0.2082
414.9714	0.1912
415.1764	0.1983
415.3813	0.2002
415.5863	0.2009
415.7912	0.1934
415.9961	0.2057
416.201	0.2091
416.4059	0.193
416.6108	0.1891
416.8156	0.204
417.0205	0.1976
417.2253	0.1976
417.4301	0.1968
417.6349	0.1953
417.8397	0.1946
418.0445	0.1917
418.2492	0.1792
418.454	0.1949
418.6587	0.1909
418.8634	0.202
419.0681	0.1876
419.2728	0.1941
419.4775	0.1862
419.6822	0.1856
419.8868	0.1881
420.0915	0.1921
420.2961	0.1922
420.5007	0.1971
420.7053	0.186
420.9099	0.1752
421.1144	0.1835
421.319	0.1835
421.5235	0.1894
421.728	0.1811
421.9325	0.1663
422.137	0.1772
422.3415	0.1932
422.546	0.1848
422.7504	0.1857
422.9549	0.1813
423.1593	0.182
423.3637	0.1821
423.5681	0.174
423.7725	0.1726
423.9769	0.1723
424.1812	0.1734
424.3856	0.169
424.5899	0.1726
424.7942	0.1755
424.9985	0.1713
425.2028	0.1584
425.4071	0.1602
425.6113	0.1769
425.8156	0.1581
426.0198	0.1644
426.224	0.1438
426.4282	0.1619
