Data from MonoPyChalIsomerACN10uM450nmA_Absorbance_13-11-25-291.txt Node
Date: Tue Jul 09 13:11:25 BST 2024
User: LASERRRRR
Spectrometer: FLMT03099
Trigger mode: 0
Integration Time (sec): 2.000000E-1
Scans to average: 1
Electric dark correction enabled: true
Nonlinearity correction enabled: false
Boxcar width: 0
XAxis mode: Wavelengths
Number of Pixels in Spectrum: 3648
>>>>>Begin Spectral Data<<<<<
179.3399	-0.0903
179.5586	-0.0903
179.7771	-0.0903
179.9957	0.0522
180.2143	-0
180.4329	-0.0319
180.6514	-0
180.8699	-0
181.0885	-0
181.307	-0
181.5255	-0
181.744	-0.5606
181.9625	1.4606
182.181	-0
182.3994	0.0222
182.6179	-0.332
182.8363	-0
183.0547	0.2463
183.2732	0.0819
183.4916	0.0053
183.71	0.0896
183.9284	-0.0684
184.1467	0.0354
184.3651	-0.001
184.5835	0.0888
184.8018	0.0348
185.0201	0.1783
185.2385	0.081
185.4568	-0.0533
185.6751	0.0838
185.8934	-0.0227
186.1117	0.0489
186.3299	0.036
186.5482	-0.0111
186.7664	-0.0641
186.9847	0.0744
187.2029	0.0269
187.4211	0.0057
187.6393	-0.0316
187.8575	0.0436
188.0757	-0.0201
188.2939	0.0094
188.512	-0.0456
188.7302	0.0714
188.9483	0.0967
189.1665	0.0766
189.3846	0.1186
189.6027	0.0361
189.8208	0.1765
190.0389	0.1597
190.257	0.2431
190.475	0.2436
190.6931	0.0792
190.9111	0.2976
191.1292	0.2209
191.3472	0.4133
191.5652	0.3507
191.7832	0.3053
192.0012	0.3759
192.2192	0.4132
192.4371	0.4576
192.6551	0.4148
192.873	0.331
193.091	0.4399
193.3089	0.4861
193.5268	0.464
193.7447	0.4219
193.9626	0.4958
194.1805	0.4718
194.3984	0.5454
194.6162	0.5571
194.8341	0.6172
195.0519	0.5176
195.2697	0.5746
195.4875	0.6042
195.7054	0.513
195.9231	0.6842
196.1409	0.7944
196.3587	0.5957
196.5765	0.6884
196.7942	0.6782
197.012	0.5906
197.2297	0.7591
197.4474	0.7573
197.6651	0.6866
197.8828	0.7911
198.1005	0.7856
198.3182	0.7561
198.5358	0.7372
198.7535	0.7475
198.9711	0.8691
199.1888	0.7984
199.4064	0.8125
199.624	0.7394
199.8416	0.8214
200.0592	0.7815
200.2767	0.7805
200.4943	0.7774
200.7119	0.88
200.9294	0.8231
201.1469	0.8324
201.3645	0.749
201.582	0.99
201.7995	0.8488
202.017	0.9971
202.2344	0.8606
202.4519	0.8814
202.6694	0.8169
202.8868	0.9381
203.1042	0.9125
203.3217	0.9296
203.5391	1.0287
203.7565	0.8682
203.9739	0.8857
204.1913	0.8118
204.4086	0.924
204.626	0.9355
204.8433	0.888
205.0607	0.906
205.278	0.9006
205.4953	0.8904
205.7126	0.8875
205.9299	1.0946
206.1472	0.9259
206.3644	0.9697
206.5817	1.0206
206.7989	1.0482
207.0162	0.9823
207.2334	0.9164
207.4506	0.9402
207.6678	0.9867
207.885	1.0508
208.1022	1.0803
208.3194	1.049
208.5365	0.9551
208.7537	0.9905
208.9708	1.031
209.1879	0.9961
209.405	1.0007
209.6222	1.0568
209.8392	1.2455
210.0563	1.001
210.2734	1.0104
210.4905	1.0167
210.7075	1.0694
210.9245	1.0051
211.1416	1.066
211.3586	1.1372
211.5756	1.089
211.7926	1.0163
212.0096	1.0234
212.2265	1.0216
212.4435	0.9956
212.6604	1.0492
212.8774	1.0155
213.0943	1.0547
213.3112	0.954
213.5281	1.0248
213.745	0.9858
213.9619	0.9611
214.1788	0.924
214.3956	0.9079
214.6125	0.9047
214.8293	0.8673
215.0461	0.8631
215.2629	0.8698
215.4798	0.8454
215.6965	0.8321
215.9133	0.8144
216.1301	0.78
216.3469	0.8029
216.5636	0.7998
216.7803	0.755
216.9971	0.7432
217.2138	0.74
217.4305	0.6924
217.6472	0.6646
217.8639	0.6406
218.0805	0.6244
218.2972	0.568
218.5138	0.5505
218.7305	0.5289
218.9471	0.4621
219.1637	0.4596
219.3803	0.4284
219.5969	0.3784
219.8135	0.3795
220.0301	0.3544
220.2466	0.376
220.4632	0.3253
220.6797	0.3288
220.8962	0.3136
221.1127	0.3112
221.3292	0.2959
221.5457	0.286
221.7622	0.2775
221.9787	0.2732
222.1951	0.2759
222.4116	0.273
222.628	0.2567
222.8444	0.2602
223.0608	0.2637
223.2772	0.2706
223.4936	0.2645
223.71	0.2612
223.9264	0.2825
224.1427	0.2727
224.3591	0.2633
224.5754	0.2609
224.7917	0.2739
225.008	0.281
225.2243	0.2751
225.4406	0.2793
225.6569	0.2706
225.8732	0.2954
226.0894	0.2799
226.3057	0.2904
226.5219	0.2906
226.7381	0.2852
226.9543	0.2743
227.1705	0.2967
227.3867	0.2908
227.6029	0.289
227.8191	0.2955
228.0352	0.2885
228.2513	0.3003
228.4675	0.3142
228.6836	0.311
228.8997	0.3304
229.1158	0.3223
229.3319	0.3196
229.548	0.318
229.764	0.3238
229.9801	0.3242
230.1961	0.3233
230.4121	0.3365
230.6282	0.3307
230.8442	0.3397
231.0602	0.3511
231.2761	0.3401
231.4921	0.3382
231.7081	0.3569
231.924	0.3502
232.14	0.3507
232.3559	0.3517
232.5718	0.3594
232.7877	0.356
233.0036	0.3607
233.2195	0.362
233.4353	0.3656
233.6512	0.374
233.867	0.3712
234.0829	0.386
234.2987	0.3801
234.5145	0.3955
234.7303	0.39
234.9461	0.3976
235.1619	0.3885
235.3776	0.3714
235.5934	0.3939
235.8091	0.3735
236.0249	0.3879
236.2406	0.3773
236.4563	0.3875
236.672	0.406
236.8877	0.3951
237.1034	0.3943
237.319	0.4072
237.5347	0.3992
237.7503	0.3979
237.966	0.4222
238.1816	0.4138
238.3972	0.4079
238.6128	0.4141
238.8284	0.4053
239.0439	0.4032
239.2595	0.4159
239.475	0.4204
239.6906	0.4127
239.9061	0.4039
240.1216	0.422
240.3371	0.4268
240.5526	0.4242
240.7681	0.4009
240.9836	0.4136
241.199	0.403
241.4145	0.3907
241.6299	0.4058
241.8453	0.4088
242.0607	0.3851
242.2761	0.3881
242.4915	0.3735
242.7069	0.3795
242.9223	0.3705
243.1376	0.3862
243.353	0.3544
243.5683	0.3524
243.7836	0.3507
243.9989	0.3418
244.2142	0.3419
244.4295	0.3319
244.6448	0.332
244.86	0.3223
245.0753	0.3113
245.2905	0.3079
245.5057	0.3025
245.721	0.2894
245.9362	0.2815
246.1514	0.2863
246.3665	0.2855
246.5817	0.264
246.7969	0.2728
247.012	0.2699
247.2271	0.2649
247.4423	0.2644
247.6574	0.2607
247.8725	0.2484
248.0876	0.2468
248.3026	0.249
248.5177	0.2484
248.7328	0.2428
248.9478	0.2508
249.1628	0.235
249.3779	0.2286
249.5929	0.2352
249.8079	0.226
250.0228	0.2272
250.2378	0.2328
250.4528	0.2219
250.6677	0.2281
250.8827	0.2095
251.0976	0.2183
251.3125	0.2149
251.5274	0.1971
251.7423	0.2139
251.9572	0.2122
252.172	0.2023
252.3869	0.2064
252.6017	0.2042
252.8166	0.2114
253.0314	0.2026
253.2462	0.2066
253.461	0.2062
253.6758	0.1976
253.8906	0.1946
254.1053	0.2115
254.3201	0.2027
254.5348	0.1954
254.7496	0.2074
254.9643	0.1965
255.179	0.1989
255.3937	0.1964
255.6083	0.2005
255.823	0.1971
256.0377	0.1943
256.2523	0.1987
256.467	0.198
256.6816	0.1852
256.8962	0.1925
257.1108	0.1949
257.3254	0.1887
257.54	0.1886
257.7545	0.1991
257.9691	0.2043
258.1836	0.1907
258.3981	0.2015
258.6127	0.195
258.8272	0.1901
259.0417	0.2001
259.2561	0.1956
259.4706	0.189
259.6851	0.1948
259.8995	0.1891
260.114	0.184
260.3284	0.2018
260.5428	0.1922
260.7572	0.2027
260.9716	0.1995
261.186	0.1988
261.4003	0.202
261.6147	0.2031
261.829	0.2029
262.0433	0.195
262.2577	0.2045
262.472	0.2007
262.6863	0.1908
262.9005	0.1962
263.1148	0.1927
263.3291	0.1935
263.5433	0.1846
263.7576	0.1945
263.9718	0.1916
264.186	0.1853
264.4002	0.1836
264.6144	0.1852
264.8286	0.1839
265.0427	0.1855
265.2569	0.1783
265.471	0.182
265.6851	0.1744
265.8993	0.1751
266.1134	0.1763
266.3275	0.181
266.5415	0.1755
266.7556	0.1865
266.9697	0.1868
267.1837	0.1796
267.3978	0.1886
267.6118	0.1892
267.8258	0.1886
268.0398	0.1952
268.2538	0.1976
268.4677	0.1849
268.6817	0.1907
268.8957	0.185
269.1096	0.1827
269.3235	0.1826
269.5374	0.1813
269.7514	0.1643
269.9652	0.1754
270.1791	0.1579
270.393	0.16
270.6068	0.1531
270.8207	0.156
271.0345	0.1583
271.2483	0.1603
271.4622	0.1479
271.676	0.1444
271.8897	0.1397
272.1035	0.1417
272.3173	0.1475
272.531	0.1422
272.7448	0.1438
272.9585	0.1419
273.1722	0.136
273.3859	0.1427
273.5996	0.1477
273.8133	0.1443
274.0269	0.1448
274.2406	0.1366
274.4542	0.1418
274.6679	0.1455
274.8815	0.1491
275.0951	0.148
275.3087	0.1402
275.5223	0.1431
275.7358	0.1461
275.9494	0.142
276.1629	0.1482
276.3765	0.1466
276.59	0.151
276.8035	0.1425
277.017	0.1391
277.2305	0.1445
277.444	0.1428
277.6574	0.142
277.8709	0.1479
278.0843	0.1488
278.2978	0.1473
278.5112	0.1474
278.7246	0.1371
278.938	0.1493
279.1513	0.1504
279.3647	0.1467
279.5781	0.1518
279.7914	0.1519
280.0047	0.1441
280.2181	0.1546
280.4314	0.1481
280.6447	0.1627
280.8579	0.1557
281.0712	0.1537
281.2845	0.1533
281.4977	0.1548
281.711	0.1543
281.9242	0.1532
282.1374	0.1466
282.3506	0.1479
282.5638	0.1551
282.7769	0.1577
282.9901	0.1521
283.2033	0.1612
283.4164	0.1595
283.6295	0.1625
283.8426	0.1583
284.0557	0.1544
284.2688	0.1553
284.4819	0.1521
284.695	0.1615
284.908	0.1644
285.1211	0.1643
285.3341	0.1504
285.5471	0.1489
285.7601	0.1547
285.9731	0.1592
286.1861	0.1623
286.3991	0.1592
286.612	0.1552
286.825	0.1594
287.0379	0.1575
287.2508	0.1575
287.4637	0.1626
287.6766	0.1534
287.8895	0.1571
288.1024	0.1605
288.3152	0.1548
288.5281	0.1605
288.7409	0.1481
288.9538	0.1615
289.1666	0.1564
289.3794	0.1567
289.5922	0.1651
289.8049	0.1589
290.0177	0.1603
290.2304	0.1589
290.4432	0.1549
290.6559	0.1583
290.8686	0.1607
291.0813	0.1577
291.294	0.1576
291.5067	0.1546
291.7194	0.1675
291.932	0.1603
292.1447	0.1604
292.3573	0.1548
292.5699	0.1672
292.7825	0.1584
292.9951	0.1553
293.2077	0.1608
293.4203	0.1535
293.6328	0.1642
293.8454	0.1591
294.0579	0.1626
294.2704	0.1587
294.4829	0.1614
294.6954	0.1539
294.9079	0.1617
295.1204	0.162
295.3328	0.1586
295.5453	0.1589
295.7577	0.1548
295.9701	0.1587
296.1825	0.158
296.3949	0.1519
296.6073	0.1621
296.8197	0.1593
297.0321	0.1608
297.2444	0.1518
297.4567	0.154
297.6691	0.1526
297.8814	0.1483
298.0937	0.161
298.306	0.1566
298.5182	0.1494
298.7305	0.16
298.9428	0.1528
299.155	0.1511
299.3672	0.1562
299.5794	0.1567
299.7916	0.1596
300.0038	0.1574
300.216	0.1565
300.4282	0.1544
300.6403	0.155
300.8525	0.1506
301.0646	0.1591
301.2767	0.1545
301.4888	0.1478
301.7009	0.1583
301.913	0.1638
302.125	0.1504
302.3371	0.1597
302.5491	0.1521
302.7612	0.1617
302.9732	0.1637
303.1852	0.1532
303.3972	0.1564
303.6092	0.1573
303.8211	0.1622
304.0331	0.1447
304.245	0.1483
304.457	0.1486
304.6689	0.156
304.8808	0.1505
305.0927	0.1445
305.3046	0.1437
305.5164	0.1453
305.7283	0.1437
305.9401	0.1417
306.152	0.1449
306.3638	0.1558
306.5756	0.1448
306.7874	0.136
306.9992	0.1333
307.2109	0.1358
307.4227	0.1428
307.6344	0.1316
307.8462	0.1274
308.0579	0.1314
308.2696	0.1319
308.4813	0.1388
308.693	0.125
308.9046	0.1246
309.1163	0.1224
309.328	0.1229
309.5396	0.1193
309.7512	0.1206
309.9628	0.1188
310.1744	0.1205
310.386	0.1134
310.5976	0.1181
310.8091	0.1158
311.0207	0.1224
311.2322	0.1161
311.4437	0.122
311.6552	0.1125
311.8667	0.1128
312.0782	0.1089
312.2897	0.1088
312.5012	0.1145
312.7126	0.1031
312.924	0.0985
313.1355	0.1009
313.3469	0.1011
313.5583	0.1011
313.7696	0.1011
313.981	0.1031
314.1924	0.097
314.4037	0.099
314.6151	0.1007
314.8264	0.1031
315.0377	0.0966
315.249	0.0984
315.4603	0.0986
315.6716	0.097
315.8828	0.0958
316.0941	0.0961
316.3053	0.0968
316.5165	0.0946
316.7277	0.0925
316.9389	0.1034
317.1501	0.0957
317.3613	0.0937
317.5724	0.0903
317.7836	0.0966
317.9947	0.0947
318.2058	0.0922
318.417	0.0954
318.6281	0.0989
318.8391	0.0957
319.0502	0.0901
319.2613	0.0917
319.4723	0.0932
319.6834	0.0912
319.8944	0.0941
320.1054	0.101
320.3164	0.098
320.5274	0.0938
320.7383	0.0928
320.9493	0.0989
321.1602	0.0973
321.3712	0.1097
321.5821	0.0975
321.793	0.0922
322.0039	0.09
322.2148	0.096
322.4257	0.0972
322.6365	0.101
322.8474	0.0981
323.0582	0.1081
323.269	0.0992
323.4798	0.0992
323.6906	0.1056
323.9014	0.0965
324.1122	0.0934
324.3229	0.1024
324.5337	0.0916
324.7444	0.0997
324.9551	0.094
325.1658	0.0992
325.3765	0.0993
325.5872	0.0954
325.7979	0.1035
326.0085	0.1093
326.2192	0.0998
326.4298	0.1144
326.6404	0.099
326.851	0.0993
327.0616	0.0983
327.2722	0.0945
327.4828	0.1021
327.6933	0.1012
327.9039	0.0983
328.1144	0.1019
328.3249	0.1061
328.5354	0.0987
328.7459	0.102
328.9564	0.1066
329.1669	0.1019
329.3773	0.1121
329.5878	0.1071
329.7982	0.1058
330.0086	0.1026
330.219	0.1074
330.4294	0.0946
330.6398	0.1094
330.8502	0.1077
331.0605	0.1105
331.2708	0.1062
331.4812	0.1032
331.6915	0.1083
331.9018	0.1018
332.1121	0.1072
332.3224	0.1033
332.5326	0.1005
332.7429	0.1009
332.9531	0.1013
333.1633	0.1138
333.3735	0.1105
333.5837	0.1082
333.7939	0.1092
334.0041	0.107
334.2143	0.0992
334.4244	0.1016
334.6346	0.1013
334.8447	0.1107
335.0548	0.1073
335.2649	0.0991
335.475	0.1057
335.685	0.1107
335.8951	0.1126
336.1051	0.101
336.3152	0.1041
336.5252	0.1038
336.7352	0.1068
336.9452	0.1062
337.1552	0.1059
337.3652	0.1102
337.5751	0.1063
337.7851	0.1042
337.995	0.1133
338.2049	0.1
338.4148	0.1139
338.6247	0.1033
338.8346	0.1159
339.0445	0.1136
339.2543	0.1241
339.4642	0.1149
339.674	0.113
339.8838	0.111
340.0936	0.1165
340.3034	0.1232
340.5132	0.1207
340.7229	0.1248
340.9327	0.1161
341.1424	0.1157
341.3522	0.115
341.5619	0.1265
341.7716	0.1253
341.9813	0.1175
342.1909	0.121
342.4006	0.1085
342.6102	0.1199
342.8199	0.1231
343.0295	0.1188
343.2391	0.1227
343.4487	0.124
343.6583	0.1237
343.8679	0.1181
344.0774	0.1269
344.287	0.1264
344.4965	0.1301
344.706	0.1285
344.9155	0.1326
345.125	0.1314
345.3345	0.1261
345.544	0.1174
345.7534	0.1281
345.9629	0.1233
346.1723	0.1351
346.3817	0.1314
346.5911	0.1263
346.8005	0.1349
347.0099	0.1237
347.2193	0.1353
347.4286	0.136
347.638	0.1346
347.8473	0.129
348.0566	0.1409
348.2659	0.1241
348.4752	0.1365
348.6845	0.1304
348.8937	0.1384
349.103	0.1318
349.3122	0.1377
349.5214	0.1379
349.7306	0.1414
349.9398	0.1353
350.149	0.141
350.3582	0.1368
350.5674	0.14
350.7765	0.1395
350.9856	0.1365
351.1948	0.1413
351.4039	0.1398
351.613	0.1338
351.822	0.1351
352.0311	0.1352
352.2402	0.1475
352.4492	0.1332
352.6582	0.1437
352.8672	0.1441
353.0762	0.1543
353.2852	0.1577
353.4942	0.1457
353.7032	0.1448
353.9121	0.1497
354.1211	0.1471
354.33	0.1429
354.5389	0.1511
354.7478	0.1518
354.9567	0.1518
355.1655	0.1568
355.3744	0.1559
355.5833	0.1515
355.7921	0.1548
356.0009	0.1447
356.2097	0.1454
356.4185	0.1521
356.6273	0.1604
356.8361	0.1491
357.0448	0.1545
357.2536	0.156
357.4623	0.1578
357.671	0.1591
357.8797	0.1649
358.0884	0.1659
358.2971	0.1582
358.5057	0.1649
358.7144	0.1606
358.923	0.1714
359.1316	0.1636
359.3402	0.1713
359.5488	0.1605
359.7574	0.1719
359.966	0.1827
360.1746	0.1707
360.3831	0.1778
360.5916	0.178
360.8002	0.1795
361.0087	0.1746
361.2172	0.1749
361.4256	0.1752
361.6341	0.1812
361.8426	0.1818
362.051	0.1842
362.2594	0.183
362.4678	0.1761
362.6762	0.1816
362.8846	0.1804
363.093	0.1812
363.3014	0.1842
363.5097	0.1759
363.718	0.1997
363.9264	0.1798
364.1347	0.192
364.343	0.1708
364.5513	0.1885
364.7595	0.1883
364.9678	0.1846
365.176	0.1973
365.3842	0.187
365.5925	0.1866
365.8007	0.1893
366.0089	0.1983
366.217	0.1901
366.4252	0.2025
366.6333	0.1819
366.8415	0.1949
367.0496	0.1933
367.2577	0.1994
367.4658	0.1999
367.6739	0.2034
367.882	0.1973
368.09	0.1994
368.2981	0.2115
368.5061	0.1989
368.7141	0.2011
368.9221	0.2034
369.1301	0.2088
369.3381	0.2128
369.5461	0.2122
369.754	0.2016
369.962	0.2016
370.1699	0.2108
370.3778	0.2079
370.5857	0.2184
370.7936	0.2076
371.0015	0.2085
371.2093	0.2072
371.4172	0.2198
371.625	0.2053
371.8328	0.218
372.0406	0.2284
372.2484	0.2126
372.4562	0.2157
372.664	0.2133
372.8717	0.2074
373.0795	0.2104
373.2872	0.2209
373.4949	0.2179
373.7026	0.2205
373.9103	0.2186
374.118	0.2171
374.3256	0.2114
374.5333	0.2182
374.7409	0.2136
374.9485	0.2248
375.1561	0.2267
375.3637	0.2175
375.5713	0.2296
375.7789	0.227
375.9864	0.2207
376.194	0.226
376.4015	0.2267
376.609	0.2238
376.8165	0.2249
377.024	0.222
377.2315	0.2261
377.4389	0.223
377.6464	0.2204
377.8538	0.2346
378.0612	0.2226
378.2686	0.2289
378.476	0.2195
378.6834	0.241
378.8908	0.2404
379.0981	0.2379
379.3055	0.2294
379.5128	0.2334
379.7201	0.2305
379.9274	0.2379
380.1347	0.2342
380.342	0.2318
380.5492	0.2372
380.7565	0.2354
380.9637	0.2478
381.1709	0.238
381.3781	0.2298
381.5853	0.2453
381.7925	0.2424
381.9997	0.2396
382.2068	0.2386
382.4139	0.2475
382.6211	0.2436
382.8282	0.2387
383.0353	0.2326
383.2424	0.2408
383.4494	0.2449
383.6565	0.2291
383.8635	0.2472
384.0706	0.241
384.2776	0.2438
384.4846	0.25
384.6916	0.2457
384.8986	0.2458
385.1055	0.2559
385.3125	0.2563
385.5194	0.2406
385.7263	0.2461
385.9333	0.2519
386.1402	0.2552
386.347	0.2496
386.5539	0.2482
386.7608	0.2612
386.9676	0.2475
387.1744	0.2401
387.3813	0.2461
387.5881	0.2514
387.7948	0.2428
388.0016	0.2395
388.2084	0.2495
388.4151	0.228
388.6219	0.2407
388.8286	0.2415
389.0353	0.2358
389.242	0.2303
389.4487	0.2283
389.6553	0.24
389.862	0.2326
390.0686	0.2311
390.2753	0.2316
390.4819	0.2228
390.6885	0.2409
390.8951	0.2353
391.1016	0.2382
391.3082	0.2298
391.5147	0.2333
391.7213	0.2164
391.9278	0.229
392.1343	0.2332
392.3408	0.2224
392.5473	0.2403
392.7537	0.2302
392.9602	0.2133
393.1666	0.216
393.373	0.2206
393.5794	0.2268
393.7858	0.2173
393.9922	0.2084
394.1986	0.2174
394.4049	0.2157
394.6113	0.2249
394.8176	0.2044
395.0239	0.2071
395.2302	0.2104
395.4365	0.2098
395.6428	0.2016
395.8491	0.1954
396.0553	0.2085
396.2615	0.1959
396.4678	0.2194
396.674	0.2135
396.8802	0.2059
397.0863	0.2087
397.2925	0.2046
397.4987	0.2047
397.7048	0.1988
397.9109	0.2169
398.117	0.2045
398.3231	0.1991
398.5292	0.1925
398.7353	0.2001
398.9413	0.2028
399.1474	0.2034
399.3534	0.1973
399.5594	0.2029
399.7654	0.2086
399.9714	0.1983
400.1774	0.2026
400.3833	0.2027
400.5893	0.1991
400.7952	0.1964
401.0011	0.1928
401.207	0.1919
401.4129	0.1882
401.6188	0.1909
401.8247	0.2019
402.0305	0.1965
402.2364	0.1992
402.4422	0.2002
402.648	0.2026
402.8538	0.2047
403.0596	0.1915
403.2654	0.1955
403.4711	0.1995
403.6768	0.205
403.8826	0.1997
404.0883	0.1978
404.294	0.206
404.4997	0.1974
404.7054	0.1935
404.911	0.2041
405.1167	0.2055
405.3223	0.1929
405.5279	0.2002
405.7335	0.2086
405.9391	0.1965
406.1447	0.2019
406.3502	0.1874
406.5558	0.1926
406.7613	0.185
406.9668	0.2016
407.1724	0.1987
407.3778	0.2096
407.5833	0.2029
407.7888	0.2063
407.9942	0.2046
408.1997	0.2001
408.4051	0.2006
408.6105	0.199
408.8159	0.2017
409.0213	0.2044
409.2267	0.1905
409.432	0.2008
409.6374	0.2011
409.8427	0.2068
410.048	0.1982
410.2533	0.1972
410.4586	0.195
410.6639	0.186
410.8691	0.1943
411.0744	0.1978
411.2796	0.2109
411.4848	0.1886
411.69	0.1934
411.8952	0.1939
412.1004	0.2029
412.3056	0.2162
412.5107	0.2022
412.7158	0.1915
412.921	0.1992
413.1261	0.1894
413.3312	0.2103
413.5362	0.2026
413.7413	0.1794
413.9464	0.1919
414.1514	0.1861
414.3564	0.2086
414.5614	0.1973
414.7664	0.2026
414.9714	0.1837
415.1764	0.192
415.3813	0.1891
415.5863	0.1854
415.7912	0.1995
415.9961	0.1943
416.201	0.2044
416.4059	0.1859
416.6108	0.1961
416.8156	0.1853
417.0205	0.1967
417.2253	0.191
417.4301	0.19
417.6349	0.1852
417.8397	0.1901
418.0445	0.1955
418.2492	0.1844
418.454	0.1849
418.6587	0.1931
418.8634	0.1857
419.0681	0.1968
419.2728	0.194
419.4775	0.1897
419.6822	0.1882
419.8868	0.1768
420.0915	0.1948
420.2961	0.1815
420.5007	0.1868
420.7053	0.1784
420.9099	0.1612
421.1144	0.1901
421.319	0.179
421.5235	0.1921
421.728	0.1847
421.9325	0.1794
422.137	0.1706
422.3415	0.1832
422.546	0.1819
422.7504	0.1798
422.9549	0.1734
423.1593	0.1655
423.3637	0.1722
423.5681	0.1845
423.7725	0.169
423.9769	0.1689
424.1812	0.1707
424.3856	0.1667
424.5899	0.1768
424.7942	0.1609
424.9985	0.1694
425.2028	0.1665
425.4071	0.1606
425.6113	0.1688
425.8156	0.1529
426.0198	0.1729
426.224	0.1619
426.4282	0.1515
426.6324	0.1661
426.8366	0.1596
