Data from MonoPyChalIsomerACN10uM450nmA_Absorbance_13-11-20-491.txt Node
Date: Tue Jul 09 13:11:20 BST 2024
User: LASERRRRR
Spectrometer: FLMT03099
Trigger mode: 0
Integration Time (sec): 2.000000E-1
Scans to average: 1
Electric dark correction enabled: true
Nonlinearity correction enabled: false
Boxcar width: 0
XAxis mode: Wavelengths
Number of Pixels in Spectrum: 3648
>>>>>Begin Spectral Data<<<<<
179.3399	0.0282
179.5586	0.0282
179.7771	0.0282
179.9957	-0.3043
180.2143	-0.5563
180.4329	0.8491
180.6514	-0
180.8699	-0
181.0885	0.7456
181.307	-0
181.5255	0.3935
181.744	-0.1801
181.9625	1.4358
182.181	-0.0415
182.3994	0.6033
182.6179	0.0515
182.8363	-0
183.0547	0.1418
183.2732	0.1738
183.4916	0.1168
183.71	-0.0424
183.9284	0.0394
184.1467	0.0123
184.3651	0.1021
184.5835	0.1645
184.8018	-0.0052
185.0201	0.187
185.2385	-0.0661
185.4568	-0.0039
185.6751	0.2301
185.8934	-0.0146
186.1117	0.0159
186.3299	0.0772
186.5482	-0.0035
186.7664	0.0558
186.9847	0.1227
187.2029	0.1362
187.4211	0.0708
187.6393	0.0151
187.8575	0.0556
188.0757	0.0866
188.2939	0.1391
188.512	0.074
188.7302	0.0469
188.9483	0.1503
189.1665	0.3179
189.3846	0.2662
189.6027	0.3097
189.8208	0.145
190.0389	0.2944
190.257	0.2262
190.475	0.2962
190.6931	0.2277
190.9111	0.2532
191.1292	0.2818
191.3472	0.237
191.5652	0.2904
191.7832	0.2862
192.0012	0.3856
192.2192	0.405
192.4371	0.4448
192.6551	0.4623
192.873	0.4595
193.091	0.4744
193.3089	0.5009
193.5268	0.5436
193.7447	0.5977
193.9626	0.5983
194.1805	0.5546
194.3984	0.6598
194.6162	0.7223
194.8341	0.6076
195.0519	0.6256
195.2697	0.5824
195.4875	0.5285
195.7054	0.6755
195.9231	0.5986
196.1409	0.6859
196.3587	0.5784
196.5765	0.6864
196.7942	0.8128
197.012	0.6548
197.2297	0.7094
197.4474	0.7773
197.6651	0.7142
197.8828	0.7794
198.1005	0.8617
198.3182	0.7759
198.5358	0.8146
198.7535	0.7642
198.9711	0.8773
199.1888	0.7634
199.4064	0.8506
199.624	0.7798
199.8416	0.7615
200.0592	0.7798
200.2767	0.7505
200.4943	0.837
200.7119	0.9054
200.9294	1.0264
201.1469	0.8678
201.3645	0.8165
201.582	0.8628
201.7995	0.7703
202.017	0.9156
202.2344	0.9365
202.4519	0.8937
202.6694	0.852
202.8868	0.9252
203.1042	1.0312
203.3217	0.9067
203.5391	1.0237
203.7565	0.9725
203.9739	0.945
204.1913	0.8197
204.4086	0.9696
204.626	0.9982
204.8433	0.9552
205.0607	1.0497
205.278	0.936
205.4953	1.0912
205.7126	0.8985
205.9299	1.0266
206.1472	0.9574
206.3644	1.0193
206.5817	1.0726
206.7989	1.0955
207.0162	1.0855
207.2334	0.9901
207.4506	1.048
207.6678	1.0285
207.885	1.1683
208.1022	1.109
208.3194	1.1224
208.5365	1.1078
208.7537	0.9525
208.9708	0.9799
209.1879	1.0326
209.405	1.1638
209.6222	1.0974
209.8392	1.0655
210.0563	1.0151
210.2734	1.0535
210.4905	1.0623
210.7075	0.981
210.9245	0.9951
211.1416	1.0798
211.3586	1.1354
211.5756	1.096
211.7926	1.0778
212.0096	1.0543
212.2265	1.0475
212.4435	1.0969
212.6604	1.0889
212.8774	1.0507
213.0943	0.9861
213.3112	0.9703
213.5281	1.1123
213.745	0.9199
213.9619	0.9796
214.1788	0.9669
214.3956	1.003
214.6125	0.9346
214.8293	0.8941
215.0461	0.9442
215.2629	0.9253
215.4798	0.8716
215.6965	0.8119
215.9133	0.821
216.1301	0.8359
216.3469	0.8368
216.5636	0.8212
216.7803	0.749
216.9971	0.7491
217.2138	0.746
217.4305	0.7305
217.6472	0.666
217.8639	0.6358
218.0805	0.632
218.2972	0.578
218.5138	0.5402
218.7305	0.5113
218.9471	0.4877
219.1637	0.4557
219.3803	0.4246
219.5969	0.3972
219.8135	0.3672
220.0301	0.3571
220.2466	0.3609
220.4632	0.3337
220.6797	0.3288
220.8962	0.3174
221.1127	0.3137
221.3292	0.2947
221.5457	0.2902
221.7622	0.2971
221.9787	0.2909
222.1951	0.2827
222.4116	0.2863
222.628	0.2873
222.8444	0.276
223.0608	0.2715
223.2772	0.277
223.4936	0.2639
223.71	0.2778
223.9264	0.2835
224.1427	0.2681
224.3591	0.2736
224.5754	0.2793
224.7917	0.2657
225.008	0.2747
225.2243	0.2729
225.4406	0.2921
225.6569	0.2905
225.8732	0.2922
226.0894	0.2767
226.3057	0.2892
226.5219	0.2858
226.7381	0.2943
226.9543	0.2871
227.1705	0.2915
227.3867	0.3162
227.6029	0.3025
227.8191	0.313
228.0352	0.3089
228.2513	0.3081
228.4675	0.3134
228.6836	0.3297
228.8997	0.3221
229.1158	0.33
229.3319	0.322
229.548	0.3224
229.764	0.3241
229.9801	0.3216
230.1961	0.3453
230.4121	0.3185
230.6282	0.3478
230.8442	0.3544
231.0602	0.3517
231.2761	0.3514
231.4921	0.35
231.7081	0.368
231.924	0.3554
232.14	0.3792
232.3559	0.3643
232.5718	0.3623
232.7877	0.3612
233.0036	0.3749
233.2195	0.3671
233.4353	0.3601
233.6512	0.3723
233.867	0.3732
234.0829	0.3728
234.2987	0.3865
234.5145	0.3723
234.7303	0.3894
234.9461	0.3968
235.1619	0.388
235.3776	0.3864
235.5934	0.4001
235.8091	0.3765
236.0249	0.3867
236.2406	0.3852
236.4563	0.396
236.672	0.3974
236.8877	0.4037
237.1034	0.4077
237.319	0.4049
237.5347	0.4082
237.7503	0.4085
237.966	0.4112
238.1816	0.417
238.3972	0.4157
238.6128	0.4093
238.8284	0.4203
239.0439	0.4148
239.2595	0.4315
239.475	0.4267
239.6906	0.4213
239.9061	0.419
240.1216	0.418
240.3371	0.431
240.5526	0.4225
240.7681	0.4099
240.9836	0.4187
241.199	0.4126
241.4145	0.3903
241.6299	0.4038
241.8453	0.4003
242.0607	0.3884
242.2761	0.3903
242.4915	0.3904
242.7069	0.3786
242.9223	0.3639
243.1376	0.3751
243.353	0.3603
243.5683	0.3611
243.7836	0.3555
243.9989	0.3372
244.2142	0.3462
244.4295	0.3287
244.6448	0.3159
244.86	0.326
245.0753	0.3111
245.2905	0.3004
245.5057	0.3
245.721	0.2967
245.9362	0.2894
246.1514	0.2881
246.3665	0.2928
246.5817	0.2722
246.7969	0.2759
247.012	0.2733
247.2271	0.2605
247.4423	0.2571
247.6574	0.2537
247.8725	0.2565
248.0876	0.2533
248.3026	0.2519
248.5177	0.2478
248.7328	0.2357
248.9478	0.2415
249.1628	0.2317
249.3779	0.228
249.5929	0.2271
249.8079	0.2368
250.0228	0.2226
250.2378	0.2229
250.4528	0.2108
250.6677	0.2145
250.8827	0.2134
251.0976	0.2132
251.3125	0.2121
251.5274	0.2044
251.7423	0.2125
251.9572	0.2093
252.172	0.2077
252.3869	0.202
252.6017	0.2062
252.8166	0.2065
253.0314	0.2052
253.2462	0.2127
253.461	0.2063
253.6758	0.1987
253.8906	0.2082
254.1053	0.2079
254.3201	0.202
254.5348	0.1969
254.7496	0.1921
254.9643	0.1945
255.179	0.2001
255.3937	0.2043
255.6083	0.2033
255.823	0.1949
256.0377	0.1885
256.2523	0.1999
256.467	0.2037
256.6816	0.1943
256.8962	0.1971
257.1108	0.1983
257.3254	0.1994
257.54	0.2022
257.7545	0.1996
257.9691	0.2051
258.1836	0.1978
258.3981	0.1958
258.6127	0.2064
258.8272	0.2004
259.0417	0.1948
259.2561	0.191
259.4706	0.1892
259.6851	0.1948
259.8995	0.197
260.114	0.1905
260.3284	0.1985
260.5428	0.1999
260.7572	0.2078
260.9716	0.1948
261.186	0.207
261.4003	0.2025
261.6147	0.192
261.829	0.1998
262.0433	0.2015
262.2577	0.2086
262.472	0.189
262.6863	0.1855
262.9005	0.1952
263.1148	0.1961
263.3291	0.186
263.5433	0.187
263.7576	0.1877
263.9718	0.1947
264.186	0.1907
264.4002	0.1845
264.6144	0.185
264.8286	0.1792
265.0427	0.1831
265.2569	0.1828
265.471	0.1783
265.6851	0.1791
265.8993	0.1748
266.1134	0.1791
266.3275	0.1846
266.5415	0.1728
266.7556	0.1774
266.9697	0.1754
267.1837	0.1842
267.3978	0.1851
267.6118	0.1917
267.8258	0.1912
268.0398	0.1945
268.2538	0.1931
268.4677	0.1903
268.6817	0.1845
268.8957	0.1865
269.1096	0.187
269.3235	0.1803
269.5374	0.173
269.7514	0.1657
269.9652	0.169
270.1791	0.161
270.393	0.1596
270.6068	0.1505
270.8207	0.1557
271.0345	0.1603
271.2483	0.1543
271.4622	0.1586
271.676	0.1457
271.8897	0.1377
272.1035	0.1362
272.3173	0.1442
272.531	0.1433
272.7448	0.1441
272.9585	0.1337
273.1722	0.1396
273.3859	0.1417
273.5996	0.1342
273.8133	0.1411
274.0269	0.1464
274.2406	0.1373
274.4542	0.1409
274.6679	0.1389
274.8815	0.1369
275.0951	0.1418
275.3087	0.1355
275.5223	0.1321
275.7358	0.1434
275.9494	0.142
276.1629	0.1449
276.3765	0.1357
276.59	0.1449
276.8035	0.1436
277.017	0.1351
277.2305	0.1419
277.444	0.1449
277.6574	0.1387
277.8709	0.1491
278.0843	0.1512
278.2978	0.1492
278.5112	0.1448
278.7246	0.146
278.938	0.1488
279.1513	0.1483
279.3647	0.1478
279.5781	0.138
279.7914	0.1514
280.0047	0.1451
280.2181	0.1504
280.4314	0.1483
280.6447	0.1447
280.8579	0.1569
281.0712	0.1479
281.2845	0.1405
281.4977	0.151
281.711	0.1521
281.9242	0.156
282.1374	0.1448
282.3506	0.1511
282.5638	0.153
282.7769	0.1496
282.9901	0.1509
283.2033	0.1577
283.4164	0.153
283.6295	0.1535
283.8426	0.1561
284.0557	0.1547
284.2688	0.1569
284.4819	0.1502
284.695	0.1636
284.908	0.1603
285.1211	0.1543
285.3341	0.1525
285.5471	0.1619
285.7601	0.1543
285.9731	0.153
286.1861	0.1643
286.3991	0.158
286.612	0.1598
286.825	0.1596
287.0379	0.1589
287.2508	0.1605
287.4637	0.1676
287.6766	0.15
287.8895	0.1579
288.1024	0.1592
288.3152	0.1597
288.5281	0.163
288.7409	0.1566
288.9538	0.1648
289.1666	0.1575
289.3794	0.1598
289.5922	0.1645
289.8049	0.1559
290.0177	0.1602
290.2304	0.163
290.4432	0.1545
290.6559	0.1588
290.8686	0.1585
291.0813	0.1629
291.294	0.1654
291.5067	0.1622
291.7194	0.1603
291.932	0.1653
292.1447	0.1581
292.3573	0.156
292.5699	0.1687
292.7825	0.1684
292.9951	0.1634
293.2077	0.1599
293.4203	0.1576
293.6328	0.1643
293.8454	0.1567
294.0579	0.1599
294.2704	0.1645
294.4829	0.1697
294.6954	0.1568
294.9079	0.1666
295.1204	0.1682
295.3328	0.1563
295.5453	0.1608
295.7577	0.1633
295.9701	0.1561
296.1825	0.1678
296.3949	0.1568
296.6073	0.1652
296.8197	0.163
297.0321	0.1644
297.2444	0.159
297.4567	0.1607
297.6691	0.1649
297.8814	0.1539
298.0937	0.1573
298.306	0.1625
298.5182	0.1524
298.7305	0.16
298.9428	0.1553
299.155	0.1642
299.3672	0.1572
299.5794	0.1633
299.7916	0.1649
300.0038	0.1602
300.216	0.1729
300.4282	0.1606
300.6403	0.1576
300.8525	0.1657
301.0646	0.16
301.2767	0.1597
301.4888	0.1522
301.7009	0.163
301.913	0.1581
302.125	0.1572
302.3371	0.16
302.5491	0.1518
302.7612	0.1559
302.9732	0.1708
303.1852	0.161
303.3972	0.1583
303.6092	0.1562
303.8211	0.1593
304.0331	0.1515
304.245	0.1563
304.457	0.1611
304.6689	0.1563
304.8808	0.1571
305.0927	0.1449
305.3046	0.1473
305.5164	0.1512
305.7283	0.1568
305.9401	0.1469
306.152	0.1499
306.3638	0.1565
306.5756	0.1434
306.7874	0.1421
306.9992	0.1452
307.2109	0.1371
307.4227	0.1347
307.6344	0.1347
307.8462	0.1356
308.0579	0.1349
308.2696	0.1274
308.4813	0.129
308.693	0.1316
308.9046	0.1241
309.1163	0.117
309.328	0.122
309.5396	0.1252
309.7512	0.1277
309.9628	0.1213
310.1744	0.1225
310.386	0.1169
310.5976	0.1122
310.8091	0.1172
311.0207	0.1173
311.2322	0.1135
311.4437	0.1231
311.6552	0.114
311.8667	0.1101
312.0782	0.1025
312.2897	0.1018
312.5012	0.1126
312.7126	0.0991
312.924	0.0988
313.1355	0.104
313.3469	0.1016
313.5583	0.1063
313.7696	0.1031
313.981	0.0929
314.1924	0.0985
314.4037	0.0988
314.6151	0.0932
314.8264	0.0981
315.0377	0.0983
315.249	0.0997
315.4603	0.0996
315.6716	0.0966
315.8828	0.0987
316.0941	0.0926
316.3053	0.0964
316.5165	0.0848
316.7277	0.096
316.9389	0.1028
317.1501	0.0967
317.3613	0.0984
317.5724	0.0923
317.7836	0.0959
317.9947	0.0947
318.2058	0.0952
318.417	0.0908
318.6281	0.0995
318.8391	0.086
319.0502	0.0927
319.2613	0.0956
319.4723	0.0911
319.6834	0.0897
319.8944	0.0958
320.1054	0.0949
320.3164	0.0994
320.5274	0.0949
320.7383	0.0951
320.9493	0.0869
321.1602	0.094
321.3712	0.0975
321.5821	0.0961
321.793	0.0922
322.0039	0.088
322.2148	0.0986
322.4257	0.0965
322.6365	0.0979
322.8474	0.0993
323.0582	0.1092
323.269	0.096
323.4798	0.1021
323.6906	0.0935
323.9014	0.0917
324.1122	0.0972
324.3229	0.0962
324.5337	0.0894
324.7444	0.0955
324.9551	0.0969
325.1658	0.095
325.3765	0.1022
325.5872	0.0953
325.7979	0.0978
326.0085	0.1003
326.2192	0.105
326.4298	0.1065
326.6404	0.101
326.851	0.0969
327.0616	0.0978
327.2722	0.1
327.4828	0.0958
327.6933	0.1029
327.9039	0.1043
328.1144	0.0999
328.3249	0.1018
328.5354	0.0957
328.7459	0.1033
328.9564	0.0989
329.1669	0.0926
329.3773	0.1016
329.5878	0.1066
329.7982	0.1004
330.0086	0.1026
330.219	0.1049
330.4294	0.0994
330.6398	0.1102
330.8502	0.1049
331.0605	0.0976
331.2708	0.1071
331.4812	0.1051
331.6915	0.1006
331.9018	0.0944
332.1121	0.1051
332.3224	0.1
332.5326	0.1055
332.7429	0.1064
332.9531	0.1009
333.1633	0.1125
333.3735	0.1109
333.5837	0.0963
333.7939	0.102
334.0041	0.1117
334.2143	0.1042
334.4244	0.0971
334.6346	0.0997
334.8447	0.1056
335.0548	0.1106
335.2649	0.0887
335.475	0.1028
335.685	0.1116
335.8951	0.1095
336.1051	0.0998
336.3152	0.1039
336.5252	0.1097
336.7352	0.1109
336.9452	0.1021
337.1552	0.1014
337.3652	0.107
337.5751	0.1106
337.7851	0.0958
337.995	0.1054
338.2049	0.1043
338.4148	0.1038
338.6247	0.1091
338.8346	0.1095
339.0445	0.1118
339.2543	0.1053
339.4642	0.1098
339.674	0.1126
339.8838	0.1044
340.0936	0.112
340.3034	0.1215
340.5132	0.1101
340.7229	0.1129
340.9327	0.1154
341.1424	0.1125
341.3522	0.1139
341.5619	0.1154
341.7716	0.1246
341.9813	0.1143
342.1909	0.1185
342.4006	0.1148
342.6102	0.1184
342.8199	0.1152
343.0295	0.1134
343.2391	0.1221
343.4487	0.1153
343.6583	0.1203
343.8679	0.12
344.0774	0.1195
344.287	0.1211
344.4965	0.1222
344.706	0.1258
344.9155	0.1346
345.125	0.1294
345.3345	0.1228
345.544	0.1203
345.7534	0.12
345.9629	0.1247
346.1723	0.1277
346.3817	0.134
346.5911	0.139
346.8005	0.131
347.0099	0.1251
347.2193	0.1337
347.4286	0.1347
347.638	0.1382
347.8473	0.129
348.0566	0.1412
348.2659	0.1185
348.4752	0.1278
348.6845	0.1297
348.8937	0.139
349.103	0.1361
349.3122	0.134
349.5214	0.1408
349.7306	0.1282
349.9398	0.1353
350.149	0.133
350.3582	0.1305
350.5674	0.1503
350.7765	0.1335
350.9856	0.1303
351.1948	0.1393
351.4039	0.1349
351.613	0.1274
351.822	0.142
352.0311	0.137
352.2402	0.1411
352.4492	0.1433
352.6582	0.1418
352.8672	0.1442
353.0762	0.1489
353.2852	0.1494
353.4942	0.1479
353.7032	0.1415
353.9121	0.1527
354.1211	0.1483
354.33	0.1408
354.5389	0.149
354.7478	0.146
354.9567	0.1475
355.1655	0.1442
355.3744	0.1461
355.5833	0.152
355.7921	0.1453
356.0009	0.1549
356.2097	0.1521
356.4185	0.1517
356.6273	0.162
356.8361	0.1594
357.0448	0.1553
357.2536	0.1469
357.4623	0.1593
357.671	0.1651
357.8797	0.1689
358.0884	0.1635
358.2971	0.1611
358.5057	0.163
358.7144	0.168
358.923	0.1693
359.1316	0.1678
359.3402	0.1798
359.5488	0.161
359.7574	0.1737
359.966	0.1785
360.1746	0.1662
360.3831	0.1809
360.5916	0.1825
360.8002	0.1846
361.0087	0.1729
361.2172	0.185
361.4256	0.1824
361.6341	0.1745
361.8426	0.1777
362.051	0.1664
362.2594	0.1852
362.4678	0.1844
362.6762	0.1797
362.8846	0.1884
363.093	0.1827
363.3014	0.1928
363.5097	0.1813
363.718	0.187
363.9264	0.1903
364.1347	0.2043
364.343	0.1818
364.5513	0.1868
364.7595	0.1936
364.9678	0.1975
365.176	0.1963
365.3842	0.1825
365.5925	0.1921
365.8007	0.1833
366.0089	0.2001
366.217	0.1974
366.4252	0.2105
366.6333	0.1927
366.8415	0.2025
367.0496	0.1972
367.2577	0.2071
367.4658	0.192
367.6739	0.206
367.882	0.2107
368.09	0.215
368.2981	0.2227
368.5061	0.205
368.7141	0.2117
368.9221	0.2055
369.1301	0.2144
369.3381	0.2128
369.5461	0.2193
369.754	0.2128
369.962	0.2106
370.1699	0.2217
370.3778	0.222
370.5857	0.2148
370.7936	0.2186
371.0015	0.2171
371.2093	0.2068
371.4172	0.2308
371.625	0.217
371.8328	0.2227
372.0406	0.2236
372.2484	0.2159
372.4562	0.2248
372.664	0.2193
372.8717	0.2167
373.0795	0.2254
373.2872	0.2363
373.4949	0.2221
373.7026	0.2262
373.9103	0.2254
374.118	0.2317
374.3256	0.226
374.5333	0.2252
374.7409	0.226
374.9485	0.2315
375.1561	0.2259
375.3637	0.2178
375.5713	0.2195
375.7789	0.2227
375.9864	0.2353
376.194	0.2255
376.4015	0.2446
376.609	0.2295
376.8165	0.2343
377.024	0.2352
377.2315	0.2441
377.4389	0.2388
377.6464	0.2326
377.8538	0.2419
378.0612	0.2346
378.2686	0.2355
378.476	0.2354
378.6834	0.2467
378.8908	0.2392
379.0981	0.2508
379.3055	0.2437
379.5128	0.2366
379.7201	0.2476
379.9274	0.2471
380.1347	0.2468
380.342	0.2481
380.5492	0.2482
380.7565	0.2585
380.9637	0.2632
381.1709	0.2517
381.3781	0.2335
381.5853	0.254
381.7925	0.2621
381.9997	0.2522
382.2068	0.2538
382.4139	0.2602
382.6211	0.2556
382.8282	0.2453
383.0353	0.2539
383.2424	0.2487
383.4494	0.2569
383.6565	0.2497
383.8635	0.2786
384.0706	0.2513
384.2776	0.2629
384.4846	0.2584
384.6916	0.2464
384.8986	0.2627
385.1055	0.268
385.3125	0.2711
385.5194	0.2582
385.7263	0.2622
385.9333	0.2624
386.1402	0.2641
386.347	0.266
386.5539	0.2524
386.7608	0.2476
386.9676	0.2652
387.1744	0.2583
387.3813	0.2481
387.5881	0.2536
387.7948	0.2629
388.0016	0.2521
388.2084	0.263
388.4151	0.2456
388.6219	0.2539
388.8286	0.2584
389.0353	0.2428
389.242	0.2577
389.4487	0.2485
389.6553	0.264
389.862	0.2284
390.0686	0.2378
390.2753	0.2488
390.4819	0.2408
390.6885	0.2506
390.8951	0.2486
391.1016	0.2525
391.3082	0.2464
391.5147	0.238
391.7213	0.2428
391.9278	0.244
392.1343	0.2473
392.3408	0.2333
392.5473	0.2424
392.7537	0.2369
392.9602	0.2326
393.1666	0.2353
393.373	0.2341
393.5794	0.238
393.7858	0.2328
393.9922	0.2207
394.1986	0.2355
394.4049	0.2296
394.6113	0.233
394.8176	0.2158
395.0239	0.2294
395.2302	0.212
395.4365	0.2229
395.6428	0.2213
395.8491	0.2278
396.0553	0.2199
396.2615	0.2323
396.4678	0.2192
396.674	0.2271
396.8802	0.2315
397.0863	0.2161
397.2925	0.2205
397.4987	0.2211
397.7048	0.2162
397.9109	0.2226
398.117	0.2095
398.3231	0.2161
398.5292	0.2071
398.7353	0.2134
398.9413	0.223
399.1474	0.2184
399.3534	0.216
399.5594	0.2068
399.7654	0.2129
399.9714	0.2167
400.1774	0.2168
400.3833	0.2142
400.5893	0.2076
400.7952	0.2025
401.0011	0.2005
401.207	0.2176
401.4129	0.2021
401.6188	0.203
401.8247	0.2075
402.0305	0.2124
402.2364	0.2185
402.4422	0.202
402.648	0.2156
402.8538	0.2172
403.0596	0.2136
403.2654	0.2123
403.4711	0.2066
403.6768	0.2231
403.8826	0.2162
404.0883	0.2146
404.294	0.2171
404.4997	0.217
404.7054	0.2141
404.911	0.2076
405.1167	0.2283
405.3223	0.2184
405.5279	0.2147
405.7335	0.2088
405.9391	0.2156
406.1447	0.2084
406.3502	0.222
406.5558	0.2036
406.7613	0.214
406.9668	0.2227
407.1724	0.1977
407.3778	0.2229
407.5833	0.2031
407.7888	0.2287
407.9942	0.2233
408.1997	0.2245
408.4051	0.2125
408.6105	0.2198
408.8159	0.2327
409.0213	0.207
409.2267	0.207
409.432	0.2045
409.6374	0.2224
409.8427	0.2225
410.048	0.2073
410.2533	0.2023
410.4586	0.2058
410.6639	0.2053
410.8691	0.2035
411.0744	0.2128
411.2796	0.2121
411.4848	0.1964
411.69	0.2129
411.8952	0.2047
412.1004	0.2038
412.3056	0.2039
412.5107	0.2097
412.7158	0.2124
412.921	0.2137
413.1261	0.1997
413.3312	0.2091
413.5362	0.2134
413.7413	0.2282
413.9464	0.2013
414.1514	0.1954
414.3564	0.2098
414.5614	0.2056
414.7664	0.2157
414.9714	0.2012
415.1764	0.2091
415.3813	0.2069
415.5863	0.2079
415.7912	0.2217
415.9961	0.2032
416.201	0.2135
416.4059	0.2033
416.6108	0.2076
416.8156	0.2025
417.0205	0.2116
417.2253	0.2124
417.4301	0.2052
417.6349	0.2055
417.8397	0.1999
418.0445	0.2025
418.2492	0.2032
418.454	0.1965
418.6587	0.1954
418.8634	0.2033
419.0681	0.2016
419.2728	0.2074
419.4775	0.2005
419.6822	0.1975
419.8868	0.1913
420.0915	0.1926
420.2961	0.19
420.5007	0.2037
420.7053	0.1933
420.9099	0.1908
421.1144	0.2015
421.319	0.1854
421.5235	0.1969
421.728	0.1887
421.9325	0.1915
422.137	0.1863
422.3415	0.1924
422.546	0.1978
422.7504	0.1882
422.9549	0.1926
423.1593	0.1843
423.3637	0.1804
423.5681	0.1949
423.7725	0.1821
423.9769	0.1831
424.1812	0.1737
424.3856	0.1808
424.5899	0.1838
424.7942	0.1835
424.9985	0.1773
425.2028	0.1603
425.4071	0.1688
425.6113	0.1758
425.8156	0.1691
426.0198	0.1843
426.224	0.1594
426.4282	0.1658
426.6324	0.1677
426.8366	0.1747
