Data from MonoPyChalIsomerACN10uM450nmA_Absorbance_13-11-21-291.txt Node
Date: Tue Jul 09 13:11:21 BST 2024
User: LASERRRRR
Spectrometer: FLMT03099
Trigger mode: 0
Integration Time (sec): 2.000000E-1
Scans to average: 1
Electric dark correction enabled: true
Nonlinearity correction enabled: false
Boxcar width: 0
XAxis mode: Wavelengths
Number of Pixels in Spectrum: 3648
>>>>>Begin Spectral Data<<<<<
179.3399	-0.0079
179.5586	-0.0079
179.7771	-0.0079
179.9957	0.0467
180.2143	0.0632
180.4329	0.2611
180.6514	0.3133
180.8699	-0
181.0885	-0
181.307	1.0802
181.5255	-0
181.744	-0.6315
181.9625	0.4606
182.181	-0.2075
182.3994	0.1392
182.6179	-0.3429
182.8363	-0
183.0547	0.085
183.2732	0.2093
183.4916	0.0426
183.71	0.0618
183.9284	0.0522
184.1467	0.0574
184.3651	0.182
184.5835	0.1082
184.8018	-0.0599
185.0201	0.1975
185.2385	0.0215
185.4568	0.0234
185.6751	0.096
185.8934	0.0855
186.1117	0.0929
186.3299	-0.0635
186.5482	0.1282
186.7664	0.0952
186.9847	0.0549
187.2029	0.0409
187.4211	0.1524
187.6393	0.0459
187.8575	0.1127
188.0757	0.1203
188.2939	0.0283
188.512	0.0475
188.7302	0.0916
188.9483	0.0427
189.1665	0.1571
189.3846	0.1758
189.6027	0.18
189.8208	0.1467
190.0389	0.4118
190.257	0.1437
190.475	0.2371
190.6931	0.1786
190.9111	0.2566
191.1292	0.2546
191.3472	0.4008
191.5652	0.4532
191.7832	0.2514
192.0012	0.363
192.2192	0.4013
192.4371	0.4984
192.6551	0.4516
192.873	0.391
193.091	0.4689
193.3089	0.6089
193.5268	0.5401
193.7447	0.4437
193.9626	0.5246
194.1805	0.6081
194.3984	0.6174
194.6162	0.5883
194.8341	0.5394
195.0519	0.659
195.2697	0.5502
195.4875	0.524
195.7054	0.6173
195.9231	0.608
196.1409	0.6418
196.3587	0.6706
196.5765	0.7592
196.7942	0.7849
197.012	0.6175
197.2297	0.6272
197.4474	0.7332
197.6651	0.729
197.8828	0.767
198.1005	0.7162
198.3182	0.7228
198.5358	0.724
198.7535	0.801
198.9711	1.0582
199.1888	0.7667
199.4064	0.8142
199.624	0.732
199.8416	0.8349
200.0592	0.8087
200.2767	0.7764
200.4943	0.7866
200.7119	0.7973
200.9294	0.9035
201.1469	0.8779
201.3645	0.905
201.582	0.8794
201.7995	0.7566
202.017	0.9286
202.2344	0.8248
202.4519	0.9455
202.6694	0.8182
202.8868	0.9014
203.1042	1.1091
203.3217	1.0527
203.5391	1.0281
203.7565	0.9041
203.9739	0.8133
204.1913	0.8053
204.4086	1.0099
204.626	1.0732
204.8433	0.9414
205.0607	0.9606
205.278	0.9447
205.4953	0.9808
205.7126	0.9757
205.9299	0.9965
206.1472	0.9924
206.3644	0.9657
206.5817	1.0308
206.7989	1.029
207.0162	1.0774
207.2334	0.9429
207.4506	0.9365
207.6678	1.0021
207.885	1.0961
208.1022	1.1174
208.3194	1.0504
208.5365	1.0541
208.7537	1.0014
208.9708	1.0342
209.1879	1.046
209.405	1.0517
209.6222	1.1565
209.8392	1.117
210.0563	0.9915
210.2734	1.0254
210.4905	1.0792
210.7075	1.027
210.9245	1.032
211.1416	1.0656
211.3586	1.0789
211.5756	1.075
211.7926	1.0335
212.0096	1.0382
212.2265	1.0897
212.4435	1.0932
212.6604	1.0414
212.8774	0.9753
213.0943	1.0845
213.3112	1.0442
213.5281	1.0376
213.745	0.9423
213.9619	0.9653
214.1788	0.9907
214.3956	1.0076
214.6125	0.9342
214.8293	0.9163
215.0461	0.9043
215.2629	0.9038
215.4798	0.8901
215.6965	0.8243
215.9133	0.8229
216.1301	0.8013
216.3469	0.786
216.5636	0.8037
216.7803	0.7572
216.9971	0.746
217.2138	0.7208
217.4305	0.7501
217.6472	0.6939
217.8639	0.6202
218.0805	0.5962
218.2972	0.572
218.5138	0.5418
218.7305	0.5217
218.9471	0.4697
219.1637	0.4556
219.3803	0.4232
219.5969	0.4111
219.8135	0.3711
220.0301	0.3645
220.2466	0.368
220.4632	0.3412
220.6797	0.3099
220.8962	0.3136
221.1127	0.2958
221.3292	0.2985
221.5457	0.2999
221.7622	0.2855
221.9787	0.2839
222.1951	0.2909
222.4116	0.28
222.628	0.2737
222.8444	0.2731
223.0608	0.2666
223.2772	0.2697
223.4936	0.2581
223.71	0.2717
223.9264	0.2832
224.1427	0.2571
224.3591	0.2718
224.5754	0.2797
224.7917	0.2821
225.008	0.2805
225.2243	0.282
225.4406	0.2874
225.6569	0.2822
225.8732	0.3021
226.0894	0.2838
226.3057	0.2888
226.5219	0.2869
226.7381	0.281
226.9543	0.2886
227.1705	0.2863
227.3867	0.3031
227.6029	0.3064
227.8191	0.305
228.0352	0.3062
228.2513	0.3108
228.4675	0.3138
228.6836	0.3173
228.8997	0.318
229.1158	0.323
229.3319	0.321
229.548	0.3303
229.764	0.3285
229.9801	0.3314
230.1961	0.3305
230.4121	0.3359
230.6282	0.3384
230.8442	0.3504
231.0602	0.3431
231.2761	0.3383
231.4921	0.3583
231.7081	0.3592
231.924	0.3602
232.14	0.3705
232.3559	0.3621
232.5718	0.3627
232.7877	0.3552
233.0036	0.3683
233.2195	0.3683
233.4353	0.3614
233.6512	0.3642
233.867	0.3817
234.0829	0.3792
234.2987	0.3763
234.5145	0.3848
234.7303	0.3875
234.9461	0.3904
235.1619	0.3839
235.3776	0.3701
235.5934	0.3909
235.8091	0.3877
236.0249	0.3964
236.2406	0.396
236.4563	0.3915
236.672	0.3984
236.8877	0.3949
237.1034	0.3961
237.319	0.4212
237.5347	0.4025
237.7503	0.4072
237.966	0.4059
238.1816	0.416
238.3972	0.4179
238.6128	0.4151
238.8284	0.4129
239.0439	0.4188
239.2595	0.4198
239.475	0.4254
239.6906	0.4284
239.9061	0.4216
240.1216	0.4051
240.3371	0.4172
240.5526	0.4207
240.7681	0.4093
240.9836	0.4058
241.199	0.4139
241.4145	0.4147
241.6299	0.4079
241.8453	0.4021
242.0607	0.3848
242.2761	0.3944
242.4915	0.3794
242.7069	0.3799
242.9223	0.3668
243.1376	0.377
243.353	0.3583
243.5683	0.3664
243.7836	0.343
243.9989	0.346
244.2142	0.3404
244.4295	0.3288
244.6448	0.3233
244.86	0.3292
245.0753	0.3068
245.2905	0.304
245.5057	0.301
245.721	0.2959
245.9362	0.2909
246.1514	0.285
246.3665	0.2835
246.5817	0.2722
246.7969	0.2805
247.012	0.2645
247.2271	0.2603
247.4423	0.2687
247.6574	0.2569
247.8725	0.2553
248.0876	0.2511
248.3026	0.2516
248.5177	0.2461
248.7328	0.2372
248.9478	0.235
249.1628	0.2392
249.3779	0.2356
249.5929	0.2303
249.8079	0.2256
250.0228	0.2288
250.2378	0.2287
250.4528	0.2202
250.6677	0.2203
250.8827	0.2165
251.0976	0.2124
251.3125	0.2188
251.5274	0.2057
251.7423	0.2093
251.9572	0.2021
252.172	0.2067
252.3869	0.2028
252.6017	0.2121
252.8166	0.2109
253.0314	0.2037
253.2462	0.2114
253.461	0.2101
253.6758	0.1926
253.8906	0.208
254.1053	0.2026
254.3201	0.2114
254.5348	0.2044
254.7496	0.2021
254.9643	0.1959
255.179	0.1976
255.3937	0.1997
255.6083	0.2075
255.823	0.1929
256.0377	0.189
256.2523	0.1927
256.467	0.1925
256.6816	0.1906
256.8962	0.1941
257.1108	0.1956
257.3254	0.1948
257.54	0.1953
257.7545	0.2
257.9691	0.1979
258.1836	0.1914
258.3981	0.2016
258.6127	0.1925
258.8272	0.197
259.0417	0.1922
259.2561	0.203
259.4706	0.1919
259.6851	0.1989
259.8995	0.184
260.114	0.1877
260.3284	0.1996
260.5428	0.1879
260.7572	0.2026
260.9716	0.1908
261.186	0.1991
261.4003	0.2018
261.6147	0.1927
261.829	0.2027
262.0433	0.1963
262.2577	0.1978
262.472	0.2049
262.6863	0.1914
262.9005	0.1968
263.1148	0.1957
263.3291	0.1817
263.5433	0.1892
263.7576	0.1861
263.9718	0.187
264.186	0.1893
264.4002	0.1823
264.6144	0.1862
264.8286	0.1855
265.0427	0.1819
265.2569	0.1788
265.471	0.1745
265.6851	0.1741
265.8993	0.1815
266.1134	0.1756
266.3275	0.1797
266.5415	0.1765
266.7556	0.1805
266.9697	0.1806
267.1837	0.1794
267.3978	0.1856
267.6118	0.1909
267.8258	0.1872
268.0398	0.1908
268.2538	0.1913
268.4677	0.1953
268.6817	0.1898
268.8957	0.1847
269.1096	0.1891
269.3235	0.1799
269.5374	0.1812
269.7514	0.1671
269.9652	0.1722
270.1791	0.1547
270.393	0.1624
270.6068	0.153
270.8207	0.1514
271.0345	0.1554
271.2483	0.152
271.4622	0.1528
271.676	0.145
271.8897	0.1427
272.1035	0.1409
272.3173	0.144
272.531	0.1474
272.7448	0.1439
272.9585	0.1434
273.1722	0.1354
273.3859	0.1449
273.5996	0.131
273.8133	0.1389
274.0269	0.1443
274.2406	0.1377
274.4542	0.1358
274.6679	0.1406
274.8815	0.1445
275.0951	0.1433
275.3087	0.1351
275.5223	0.1389
275.7358	0.1367
275.9494	0.1443
276.1629	0.1412
276.3765	0.142
276.59	0.1406
276.8035	0.1455
277.017	0.142
277.2305	0.1458
277.444	0.1386
277.6574	0.1443
277.8709	0.1487
278.0843	0.1534
278.2978	0.1432
278.5112	0.1426
278.7246	0.1459
278.938	0.1498
279.1513	0.1503
279.3647	0.147
279.5781	0.1478
279.7914	0.1523
280.0047	0.149
280.2181	0.1506
280.4314	0.146
280.6447	0.1513
280.8579	0.1541
281.0712	0.1484
281.2845	0.148
281.4977	0.1513
281.711	0.1509
281.9242	0.1595
282.1374	0.153
282.3506	0.1458
282.5638	0.1574
282.7769	0.152
282.9901	0.1483
283.2033	0.1592
283.4164	0.1499
283.6295	0.1628
283.8426	0.1561
284.0557	0.15
284.2688	0.1492
284.4819	0.1615
284.695	0.1511
284.908	0.1665
285.1211	0.1563
285.3341	0.1507
285.5471	0.1574
285.7601	0.1534
285.9731	0.1587
286.1861	0.1626
286.3991	0.169
286.612	0.158
286.825	0.1613
287.0379	0.1571
287.2508	0.1565
287.4637	0.1615
287.6766	0.1501
287.8895	0.1683
288.1024	0.1677
288.3152	0.1586
288.5281	0.1646
288.7409	0.16
288.9538	0.1583
289.1666	0.159
289.3794	0.1583
289.5922	0.1711
289.8049	0.1583
290.0177	0.1662
290.2304	0.1585
290.4432	0.1599
290.6559	0.1613
290.8686	0.1581
291.0813	0.1654
291.294	0.168
291.5067	0.1635
291.7194	0.1701
291.932	0.1599
292.1447	0.1594
292.3573	0.1521
292.5699	0.1607
292.7825	0.161
292.9951	0.1662
293.2077	0.1595
293.4203	0.1584
293.6328	0.17
293.8454	0.165
294.0579	0.155
294.2704	0.1652
294.4829	0.163
294.6954	0.166
294.9079	0.1625
295.1204	0.1632
295.3328	0.1597
295.5453	0.1587
295.7577	0.1525
295.9701	0.164
296.1825	0.1651
296.3949	0.1554
296.6073	0.1636
296.8197	0.1636
297.0321	0.1641
297.2444	0.1532
297.4567	0.1612
297.6691	0.1589
297.8814	0.1585
298.0937	0.1622
298.306	0.1606
298.5182	0.1529
298.7305	0.1615
298.9428	0.1576
299.155	0.1545
299.3672	0.1556
299.5794	0.166
299.7916	0.1671
300.0038	0.1567
300.216	0.1591
300.4282	0.1591
300.6403	0.1515
300.8525	0.1601
301.0646	0.1595
301.2767	0.1628
301.4888	0.1512
301.7009	0.1666
301.913	0.1625
302.125	0.1606
302.3371	0.1577
302.5491	0.1551
302.7612	0.1589
302.9732	0.166
303.1852	0.154
303.3972	0.1551
303.6092	0.1613
303.8211	0.1611
304.0331	0.1526
304.245	0.1589
304.457	0.1626
304.6689	0.1549
304.8808	0.1547
305.0927	0.1591
305.3046	0.1527
305.5164	0.155
305.7283	0.1506
305.9401	0.1502
306.152	0.1466
306.3638	0.1515
306.5756	0.1442
306.7874	0.1404
306.9992	0.1424
307.2109	0.1405
307.4227	0.1348
307.6344	0.1398
307.8462	0.138
308.0579	0.1342
308.2696	0.1283
308.4813	0.1282
308.693	0.1294
308.9046	0.1283
309.1163	0.1174
309.328	0.1203
309.5396	0.1168
309.7512	0.1282
309.9628	0.121
310.1744	0.1204
310.386	0.1113
310.5976	0.1128
310.8091	0.1139
311.0207	0.118
311.2322	0.1178
311.4437	0.121
311.6552	0.1141
311.8667	0.108
312.0782	0.1105
312.2897	0.1046
312.5012	0.1121
312.7126	0.1038
312.924	0.0996
313.1355	0.0995
313.3469	0.1044
313.5583	0.1021
313.7696	0.1008
313.981	0.1012
314.1924	0.0943
314.4037	0.1019
314.6151	0.094
314.8264	0.1023
315.0377	0.0958
315.249	0.0984
315.4603	0.0949
315.6716	0.1005
315.8828	0.0978
316.0941	0.0974
316.3053	0.0968
316.5165	0.0912
316.7277	0.0958
316.9389	0.098
317.1501	0.0916
317.3613	0.0879
317.5724	0.0977
317.7836	0.0911
317.9947	0.0913
318.2058	0.0974
318.417	0.086
318.6281	0.0971
318.8391	0.0937
319.0502	0.089
319.2613	0.0946
319.4723	0.097
319.6834	0.0845
319.8944	0.0971
320.1054	0.0917
320.3164	0.1039
320.5274	0.1006
320.7383	0.0904
320.9493	0.09
321.1602	0.0938
321.3712	0.1029
321.5821	0.0935
321.793	0.0868
322.0039	0.0996
322.2148	0.0931
322.4257	0.0914
322.6365	0.0938
322.8474	0.0915
323.0582	0.1026
323.269	0.0907
323.4798	0.101
323.6906	0.0977
323.9014	0.0995
324.1122	0.1015
324.3229	0.1
324.5337	0.0984
324.7444	0.0932
324.9551	0.1019
325.1658	0.101
325.3765	0.0906
325.5872	0.0901
325.7979	0.1067
326.0085	0.1057
326.2192	0.1004
326.4298	0.1046
326.6404	0.0977
326.851	0.0986
327.0616	0.0979
327.2722	0.1043
327.4828	0.0965
327.6933	0.1037
327.9039	0.0985
328.1144	0.105
328.3249	0.0954
328.5354	0.0993
328.7459	0.089
328.9564	0.0962
329.1669	0.0977
329.3773	0.1009
329.5878	0.1049
329.7982	0.1032
330.0086	0.1072
330.219	0.1038
330.4294	0.0997
330.6398	0.0963
330.8502	0.1066
331.0605	0.1062
331.2708	0.104
331.4812	0.1019
331.6915	0.1012
331.9018	0.1024
332.1121	0.1064
332.3224	0.0967
332.5326	0.106
332.7429	0.1051
332.9531	0.0983
333.1633	0.1077
333.3735	0.1051
333.5837	0.1039
333.7939	0.1099
334.0041	0.1004
334.2143	0.1001
334.4244	0.1019
334.6346	0.1006
334.8447	0.1105
335.0548	0.1103
335.2649	0.0967
335.475	0.0969
335.685	0.1075
335.8951	0.1081
336.1051	0.0989
336.3152	0.104
336.5252	0.1042
336.7352	0.1041
336.9452	0.1098
337.1552	0.112
337.3652	0.1065
337.5751	0.1075
337.7851	0.0993
337.995	0.1127
338.2049	0.1106
338.4148	0.109
338.6247	0.1123
338.8346	0.1126
339.0445	0.1049
339.2543	0.1124
339.4642	0.1077
339.674	0.1109
339.8838	0.1098
340.0936	0.1166
340.3034	0.113
340.5132	0.1108
340.7229	0.1197
340.9327	0.1185
341.1424	0.1225
341.3522	0.1116
341.5619	0.1259
341.7716	0.1216
341.9813	0.1121
342.1909	0.1183
342.4006	0.1124
342.6102	0.1178
342.8199	0.1216
343.0295	0.1165
343.2391	0.1226
343.4487	0.1186
343.6583	0.1205
343.8679	0.1113
344.0774	0.1327
344.287	0.1246
344.4965	0.1222
344.706	0.1235
344.9155	0.1205
345.125	0.1308
345.3345	0.1247
345.544	0.1162
345.7534	0.1231
345.9629	0.1278
346.1723	0.1289
346.3817	0.1242
346.5911	0.1337
346.8005	0.1295
347.0099	0.1204
347.2193	0.129
347.4286	0.1377
347.638	0.1361
347.8473	0.1291
348.0566	0.1373
348.2659	0.1204
348.4752	0.1357
348.6845	0.1328
348.8937	0.143
349.103	0.1375
349.3122	0.1331
349.5214	0.1418
349.7306	0.1368
349.9398	0.1316
350.149	0.1299
350.3582	0.1373
350.5674	0.1376
350.7765	0.1389
350.9856	0.1346
351.1948	0.1444
351.4039	0.1288
351.613	0.1393
351.822	0.142
352.0311	0.1462
352.2402	0.1324
352.4492	0.1383
352.6582	0.1413
352.8672	0.147
353.0762	0.1441
353.2852	0.1473
353.4942	0.147
353.7032	0.1418
353.9121	0.1459
354.1211	0.1483
354.33	0.1426
354.5389	0.151
354.7478	0.1456
354.9567	0.1437
355.1655	0.1494
355.3744	0.1531
355.5833	0.145
355.7921	0.1422
356.0009	0.1554
356.2097	0.1561
356.4185	0.1631
356.6273	0.1592
356.8361	0.1479
357.0448	0.1579
357.2536	0.1554
357.4623	0.15
357.671	0.1569
357.8797	0.1566
358.0884	0.1568
358.2971	0.1691
358.5057	0.1651
358.7144	0.1623
358.923	0.1752
359.1316	0.1589
359.3402	0.1797
359.5488	0.1715
359.7574	0.1717
359.966	0.1668
360.1746	0.1791
360.3831	0.171
360.5916	0.1759
360.8002	0.1816
361.0087	0.1714
361.2172	0.1752
361.4256	0.1767
361.6341	0.1871
361.8426	0.1723
362.051	0.1825
362.2594	0.1809
362.4678	0.1839
362.6762	0.1779
362.8846	0.1847
363.093	0.1787
363.3014	0.1851
363.5097	0.179
363.718	0.1909
363.9264	0.1853
364.1347	0.2029
364.343	0.1825
364.5513	0.1947
364.7595	0.1906
364.9678	0.1976
365.176	0.1956
365.3842	0.1871
365.5925	0.1958
365.8007	0.185
366.0089	0.2011
366.217	0.1979
366.4252	0.2028
366.6333	0.2019
366.8415	0.1955
367.0496	0.2094
367.2577	0.2067
367.4658	0.2083
367.6739	0.2053
367.882	0.1975
368.09	0.2049
368.2981	0.217
368.5061	0.2038
368.7141	0.2017
368.9221	0.2147
369.1301	0.2029
369.3381	0.2144
369.5461	0.2192
369.754	0.2114
369.962	0.2116
370.1699	0.2093
370.3778	0.2114
370.5857	0.2135
370.7936	0.2029
371.0015	0.2125
371.2093	0.2155
371.4172	0.2216
371.625	0.2221
371.8328	0.2215
372.0406	0.2203
372.2484	0.2108
372.4562	0.2277
372.664	0.2292
372.8717	0.2158
373.0795	0.2242
373.2872	0.2169
373.4949	0.2138
373.7026	0.2208
373.9103	0.2229
374.118	0.2373
374.3256	0.2238
374.5333	0.2207
374.7409	0.225
374.9485	0.23
375.1561	0.2352
375.3637	0.2271
375.5713	0.234
375.7789	0.2281
375.9864	0.2241
376.194	0.2396
376.4015	0.2416
376.609	0.23
376.8165	0.23
377.024	0.2213
377.2315	0.2325
377.4389	0.2288
377.6464	0.2324
377.8538	0.2446
378.0612	0.2345
378.2686	0.2309
378.476	0.2381
378.6834	0.2471
378.8908	0.2406
379.0981	0.2595
379.3055	0.2344
379.5128	0.2309
379.7201	0.2432
379.9274	0.2538
380.1347	0.2477
380.342	0.2519
380.5492	0.2349
380.7565	0.2527
380.9637	0.2546
381.1709	0.2402
381.3781	0.245
381.5853	0.2516
381.7925	0.2454
381.9997	0.2478
382.2068	0.2519
382.4139	0.2485
382.6211	0.2515
382.8282	0.2487
383.0353	0.2534
383.2424	0.2533
383.4494	0.262
383.6565	0.2573
383.8635	0.2608
384.0706	0.2481
384.2776	0.2582
384.4846	0.2582
384.6916	0.2552
384.8986	0.2582
385.1055	0.2631
385.3125	0.2588
385.5194	0.257
385.7263	0.269
385.9333	0.2593
386.1402	0.2594
386.347	0.2658
386.5539	0.2519
386.7608	0.2536
386.9676	0.2525
387.1744	0.2498
387.3813	0.2553
387.5881	0.2487
387.7948	0.2504
388.0016	0.2496
388.2084	0.2558
388.4151	0.2522
388.6219	0.2559
388.8286	0.2516
389.0353	0.2482
389.242	0.2538
389.4487	0.2392
389.6553	0.2467
389.862	0.2368
390.0686	0.2419
390.2753	0.248
390.4819	0.2452
390.6885	0.2467
390.8951	0.2387
391.1016	0.2582
391.3082	0.2392
391.5147	0.244
391.7213	0.2414
391.9278	0.2367
392.1343	0.2227
392.3408	0.2308
392.5473	0.2459
392.7537	0.235
392.9602	0.2209
393.1666	0.2409
393.373	0.2281
393.5794	0.2297
393.7858	0.2282
393.9922	0.215
394.1986	0.226
394.4049	0.2263
394.6113	0.2357
394.8176	0.2104
395.0239	0.2214
395.2302	0.2103
395.4365	0.2171
395.6428	0.2161
395.8491	0.2138
396.0553	0.2165
396.2615	0.2129
396.4678	0.2275
396.674	0.2208
396.8802	0.2133
397.0863	0.2072
397.2925	0.2222
397.4987	0.2125
397.7048	0.2086
397.9109	0.2143
398.117	0.2114
398.3231	0.2179
398.5292	0.2061
398.7353	0.2108
398.9413	0.2121
399.1474	0.2147
399.3534	0.2063
399.5594	0.2019
399.7654	0.2157
399.9714	0.2206
400.1774	0.2174
400.3833	0.2138
400.5893	0.2109
400.7952	0.2054
401.0011	0.2128
401.207	0.2121
401.4129	0.1975
401.6188	0.2099
401.8247	0.1999
402.0305	0.1988
402.2364	0.216
402.4422	0.2102
402.648	0.2177
402.8538	0.2098
403.0596	0.2062
403.2654	0.1968
403.4711	0.2088
403.6768	0.2133
403.8826	0.2195
404.0883	0.2087
404.294	0.2055
404.4997	0.2081
404.7054	0.1959
404.911	0.2197
405.1167	0.2148
405.3223	0.2141
405.5279	0.2106
405.7335	0.2066
405.9391	0.2159
406.1447	0.2104
406.3502	0.2083
406.5558	0.2073
406.7613	0.2047
406.9668	0.2018
407.1724	0.2027
407.3778	0.2073
407.5833	0.207
407.7888	0.2273
407.9942	0.2008
408.1997	0.2198
408.4051	0.2062
408.6105	0.2065
408.8159	0.2264
409.0213	0.2128
409.2267	0.2054
409.432	0.206
409.6374	0.215
409.8427	0.2186
410.048	0.2182
410.2533	0.2065
410.4586	0.2016
410.6639	0.2068
410.8691	0.206
411.0744	0.2058
411.2796	0.2185
411.4848	0.2022
411.69	0.2194
411.8952	0.2003
412.1004	0.2215
412.3056	0.214
412.5107	0.2094
412.7158	0.2015
412.921	0.2068
413.1261	0.206
413.3312	0.2163
413.5362	0.2059
413.7413	0.2013
413.9464	0.1963
414.1514	0.1923
414.3564	0.2071
414.5614	0.2075
414.7664	0.2099
414.9714	0.1986
415.1764	0.2072
415.3813	0.1947
415.5863	0.2111
415.7912	0.2057
415.9961	0.2034
416.201	0.2141
416.4059	0.1942
416.6108	0.1882
416.8156	0.2012
417.0205	0.2092
417.2253	0.1962
417.4301	0.2108
417.6349	0.2038
417.8397	0.1989
418.0445	0.2078
418.2492	0.2071
418.454	0.1928
418.6587	0.1963
418.8634	0.1952
419.0681	0.1933
419.2728	0.199
419.4775	0.1993
419.6822	0.2027
419.8868	0.1845
420.0915	0.1937
420.2961	0.1939
420.5007	0.1972
420.7053	0.1924
420.9099	0.1773
421.1144	0.1927
421.319	0.1857
421.5235	0.2
421.728	0.1812
421.9325	0.1817
422.137	0.1848
422.3415	0.1924
422.546	0.188
422.7504	0.1909
422.9549	0.1954
423.1593	0.1811
423.3637	0.188
423.5681	0.1933
423.7725	0.1842
423.9769	0.1803
424.1812	0.1818
424.3856	0.169
424.5899	0.1937
424.7942	0.1809
424.9985	0.1805
425.2028	0.1654
425.4071	0.1714
425.6113	0.1798
425.8156	0.1672
426.0198	0.189
426.224	0.1553
426.4282	0.1561
426.6324	0.1666
426.8366	0.1641
