Data from MonoPyChalIsomerACN10uM450nmA_Absorbance_13-11-18-892.txt Node
Date: Tue Jul 09 13:11:18 BST 2024
User: LASERRRRR
Spectrometer: FLMT03099
Trigger mode: 0
Integration Time (sec): 2.000000E-1
Scans to average: 1
Electric dark correction enabled: true
Nonlinearity correction enabled: false
Boxcar width: 0
XAxis mode: Wavelengths
Number of Pixels in Spectrum: 3648
>>>>>Begin Spectral Data<<<<<
179.3399	1.0116
179.5586	1.0116
179.7771	1.0116
179.9957	-0.5133
180.2143	-0
180.4329	0.6206
180.6514	0.3662
180.8699	-0.7562
181.0885	-0
181.307	-0
181.5255	-0
181.744	0.2512
181.9625	0.0934
182.181	0.1776
182.3994	0.1561
182.6179	1.0623
182.8363	-0
183.0547	0.1272
183.2732	0.1301
183.4916	-0.0787
183.71	0.1226
183.9284	-0.0621
184.1467	0.0151
184.3651	0.0752
184.5835	0.073
184.8018	0.0002
185.0201	0.0571
185.2385	-0.0132
185.4568	-0.0849
185.6751	0.1393
185.8934	0.0528
186.1117	-0.0138
186.3299	-0.1841
186.5482	0.086
186.7664	-0.0234
186.9847	0.0284
187.2029	0.0782
187.4211	0.1551
187.6393	-0.0782
187.8575	0.0467
188.0757	0.0375
188.2939	-0.01
188.512	0.0874
188.7302	-0.0351
188.9483	0.0828
189.1665	0.0867
189.3846	0.1802
189.6027	0.104
189.8208	0.2244
190.0389	0.3168
190.257	0.1364
190.475	0.2541
190.6931	0.1501
190.9111	0.2989
191.1292	0.2602
191.3472	0.242
191.5652	0.3109
191.7832	0.3553
192.0012	0.3536
192.2192	0.5033
192.4371	0.4726
192.6551	0.4298
192.873	0.4105
193.091	0.4197
193.3089	0.5173
193.5268	0.5217
193.7447	0.3386
193.9626	0.487
194.1805	0.6179
194.3984	0.5557
194.6162	0.4573
194.8341	0.4937
195.0519	0.5798
195.2697	0.5892
195.4875	0.6596
195.7054	0.5838
195.9231	0.5469
196.1409	0.6
196.3587	0.6339
196.5765	0.6963
196.7942	0.773
197.012	0.6051
197.2297	0.7313
197.4474	0.6832
197.6651	0.66
197.8828	0.7576
198.1005	0.8029
198.3182	0.6901
198.5358	0.669
198.7535	0.7848
198.9711	0.7995
199.1888	0.719
199.4064	0.7446
199.624	0.8024
199.8416	0.7113
200.0592	0.7371
200.2767	0.7199
200.4943	0.7506
200.7119	0.7696
200.9294	0.9007
201.1469	0.8798
201.3645	0.7779
201.582	0.7988
201.7995	0.7628
202.017	0.9078
202.2344	0.8134
202.4519	1.0075
202.6694	0.7538
202.8868	0.9766
203.1042	1.0352
203.3217	0.9308
203.5391	0.9381
203.7565	0.9605
203.9739	0.8466
204.1913	0.865
204.4086	0.9291
204.626	1.0727
204.8433	0.8922
205.0607	0.8871
205.278	0.905
205.4953	0.9825
205.7126	0.9735
205.9299	1.0547
206.1472	0.9693
206.3644	0.9214
206.5817	1.0092
206.7989	0.9526
207.0162	1.0557
207.2334	0.9266
207.4506	0.8835
207.6678	1.0735
207.885	1.0979
208.1022	1.0201
208.3194	0.9749
208.5365	1.0193
208.7537	0.9947
208.9708	1.016
209.1879	1.0317
209.405	1.0834
209.6222	1.0081
209.8392	1.0381
210.0563	0.9868
210.2734	1.0315
210.4905	1.0718
210.7075	1.0117
210.9245	0.9469
211.1416	1.0859
211.3586	1.1175
211.5756	1.0848
211.7926	1.077
212.0096	1.0883
212.2265	0.9925
212.4435	1.0945
212.6604	1.1083
212.8774	1.0427
213.0943	1.0111
213.3112	1.0143
213.5281	1.0191
213.745	0.9534
213.9619	0.9291
214.1788	0.9125
214.3956	0.9259
214.6125	0.9455
214.8293	0.8509
215.0461	0.8627
215.2629	0.9027
215.4798	0.8661
215.6965	0.8372
215.9133	0.8699
216.1301	0.8515
216.3469	0.7921
216.5636	0.7818
216.7803	0.7371
216.9971	0.7813
217.2138	0.7287
217.4305	0.7242
217.6472	0.6808
217.8639	0.6771
218.0805	0.6309
218.2972	0.5682
218.5138	0.5329
218.7305	0.5334
218.9471	0.4717
219.1637	0.4402
219.3803	0.427
219.5969	0.4018
219.8135	0.3837
220.0301	0.3466
220.2466	0.3767
220.4632	0.3509
220.6797	0.3072
220.8962	0.315
221.1127	0.3053
221.3292	0.294
221.5457	0.286
221.7622	0.288
221.9787	0.2765
222.1951	0.2794
222.4116	0.2719
222.628	0.2808
222.8444	0.2692
223.0608	0.282
223.2772	0.2743
223.4936	0.2671
223.71	0.2751
223.9264	0.2725
224.1427	0.2543
224.3591	0.2685
224.5754	0.2744
224.7917	0.2781
225.008	0.2782
225.2243	0.2759
225.4406	0.288
225.6569	0.2666
225.8732	0.2912
226.0894	0.281
226.3057	0.2902
226.5219	0.282
226.7381	0.2858
226.9543	0.2816
227.1705	0.2997
227.3867	0.3045
227.6029	0.2968
227.8191	0.3029
228.0352	0.3066
228.2513	0.3063
228.4675	0.2996
228.6836	0.3176
228.8997	0.3091
229.1158	0.3269
229.3319	0.3175
229.548	0.3207
229.764	0.3224
229.9801	0.3227
230.1961	0.3232
230.4121	0.321
230.6282	0.3354
230.8442	0.3378
231.0602	0.3397
231.2761	0.3424
231.4921	0.3482
231.7081	0.3628
231.924	0.3515
232.14	0.3669
232.3559	0.3683
232.5718	0.3687
232.7877	0.3525
233.0036	0.3754
233.2195	0.3619
233.4353	0.3558
233.6512	0.3725
233.867	0.3714
234.0829	0.3833
234.2987	0.3753
234.5145	0.3778
234.7303	0.3913
234.9461	0.398
235.1619	0.3812
235.3776	0.3851
235.5934	0.3847
235.8091	0.3895
236.0249	0.3918
236.2406	0.3811
236.4563	0.3915
236.672	0.4005
236.8877	0.4022
237.1034	0.3995
237.319	0.4085
237.5347	0.4085
237.7503	0.3964
237.966	0.4051
238.1816	0.4015
238.3972	0.4146
238.6128	0.4233
238.8284	0.4198
239.0439	0.4195
239.2595	0.4296
239.475	0.4171
239.6906	0.4183
239.9061	0.4122
240.1216	0.4214
240.3371	0.4153
240.5526	0.4193
240.7681	0.4068
240.9836	0.4092
241.199	0.3984
241.4145	0.4128
241.6299	0.4005
241.8453	0.3881
242.0607	0.3952
242.2761	0.3938
242.4915	0.3805
242.7069	0.3739
242.9223	0.3682
243.1376	0.3642
243.353	0.3548
243.5683	0.3624
243.7836	0.3381
243.9989	0.3408
244.2142	0.3225
244.4295	0.3317
244.6448	0.3207
244.86	0.3143
245.0753	0.3017
245.2905	0.2934
245.5057	0.2973
245.721	0.2877
245.9362	0.2843
246.1514	0.2889
246.3665	0.2773
246.5817	0.2711
246.7969	0.2811
247.012	0.2709
247.2271	0.2555
247.4423	0.2472
247.6574	0.2494
247.8725	0.2521
248.0876	0.2419
248.3026	0.2435
248.5177	0.242
248.7328	0.2356
248.9478	0.2378
249.1628	0.2343
249.3779	0.2298
249.5929	0.2281
249.8079	0.2261
250.0228	0.2182
250.2378	0.2274
250.4528	0.2159
250.6677	0.2263
250.8827	0.2147
251.0976	0.2011
251.3125	0.212
251.5274	0.2018
251.7423	0.2088
251.9572	0.1983
252.172	0.2059
252.3869	0.2061
252.6017	0.206
252.8166	0.2045
253.0314	0.2003
253.2462	0.2062
253.461	0.205
253.6758	0.1995
253.8906	0.1992
254.1053	0.1987
254.3201	0.2071
254.5348	0.2026
254.7496	0.2058
254.9643	0.1993
255.179	0.1967
255.3937	0.2066
255.6083	0.2003
255.823	0.1956
256.0377	0.1883
256.2523	0.19
256.467	0.2021
256.6816	0.191
256.8962	0.1931
257.1108	0.1983
257.3254	0.1901
257.54	0.193
257.7545	0.1947
257.9691	0.2033
258.1836	0.1902
258.3981	0.1938
258.6127	0.1916
258.8272	0.1919
259.0417	0.1938
259.2561	0.2047
259.4706	0.1887
259.6851	0.1839
259.8995	0.1906
260.114	0.1896
260.3284	0.1923
260.5428	0.1942
260.7572	0.2051
260.9716	0.1937
261.186	0.2007
261.4003	0.2029
261.6147	0.1956
261.829	0.2017
262.0433	0.1964
262.2577	0.1992
262.472	0.1977
262.6863	0.1913
262.9005	0.2026
263.1148	0.192
263.3291	0.1909
263.5433	0.1927
263.7576	0.1968
263.9718	0.1858
264.186	0.1874
264.4002	0.1821
264.6144	0.185
264.8286	0.1815
265.0427	0.1832
265.2569	0.1791
265.471	0.1759
265.6851	0.1751
265.8993	0.174
266.1134	0.178
266.3275	0.1828
266.5415	0.1709
266.7556	0.1728
266.9697	0.1734
267.1837	0.1775
267.3978	0.186
267.6118	0.1873
267.8258	0.1909
268.0398	0.1929
268.2538	0.1935
268.4677	0.1859
268.6817	0.1936
268.8957	0.1872
269.1096	0.1864
269.3235	0.1672
269.5374	0.1793
269.7514	0.1683
269.9652	0.1749
270.1791	0.1614
270.393	0.1566
270.6068	0.1434
270.8207	0.1565
271.0345	0.1529
271.2483	0.1486
271.4622	0.1501
271.676	0.146
271.8897	0.1351
272.1035	0.135
272.3173	0.1437
272.531	0.1397
272.7448	0.1455
272.9585	0.1383
273.1722	0.1309
273.3859	0.1338
273.5996	0.1338
273.8133	0.1471
274.0269	0.1339
274.2406	0.1358
274.4542	0.1436
274.6679	0.1301
274.8815	0.1418
275.0951	0.1376
275.3087	0.1394
275.5223	0.139
275.7358	0.1365
275.9494	0.1435
276.1629	0.1397
276.3765	0.1366
276.59	0.1422
276.8035	0.1344
277.017	0.1416
277.2305	0.1423
277.444	0.1401
277.6574	0.1394
277.8709	0.1404
278.0843	0.1428
278.2978	0.1398
278.5112	0.151
278.7246	0.139
278.938	0.1429
279.1513	0.1431
279.3647	0.1463
279.5781	0.1389
279.7914	0.1449
280.0047	0.1469
280.2181	0.147
280.4314	0.1399
280.6447	0.152
280.8579	0.1475
281.0712	0.1454
281.2845	0.1537
281.4977	0.1517
281.711	0.1463
281.9242	0.1482
282.1374	0.1509
282.3506	0.14
282.5638	0.1451
282.7769	0.1546
282.9901	0.1475
283.2033	0.1507
283.4164	0.1513
283.6295	0.1567
283.8426	0.1461
284.0557	0.1476
284.2688	0.1495
284.4819	0.1588
284.695	0.1545
284.908	0.1529
285.1211	0.159
285.3341	0.145
285.5471	0.149
285.7601	0.1503
285.9731	0.1583
286.1861	0.16
286.3991	0.1602
286.612	0.1626
286.825	0.1661
287.0379	0.1611
287.2508	0.1515
287.4637	0.1559
287.6766	0.1519
287.8895	0.1577
288.1024	0.1623
288.3152	0.158
288.5281	0.1581
288.7409	0.1529
288.9538	0.1581
289.1666	0.1623
289.3794	0.1574
289.5922	0.165
289.8049	0.1644
290.0177	0.1584
290.2304	0.1657
290.4432	0.1676
290.6559	0.1695
290.8686	0.1662
291.0813	0.1619
291.294	0.1607
291.5067	0.1603
291.7194	0.1666
291.932	0.1667
292.1447	0.1615
292.3573	0.1615
292.5699	0.1653
292.7825	0.1592
292.9951	0.1674
293.2077	0.1586
293.4203	0.1548
293.6328	0.1655
293.8454	0.1655
294.0579	0.157
294.2704	0.1685
294.4829	0.166
294.6954	0.1691
294.9079	0.1695
295.1204	0.1621
295.3328	0.1596
295.5453	0.1662
295.7577	0.1549
295.9701	0.1663
296.1825	0.1695
296.3949	0.1605
296.6073	0.1673
296.8197	0.1624
297.0321	0.1671
297.2444	0.1491
297.4567	0.1557
297.6691	0.1611
297.8814	0.1527
298.0937	0.1628
298.306	0.1606
298.5182	0.1489
298.7305	0.1607
298.9428	0.1518
299.155	0.1548
299.3672	0.1602
299.5794	0.1663
299.7916	0.1615
300.0038	0.1603
300.216	0.166
300.4282	0.1562
300.6403	0.1628
300.8525	0.1587
301.0646	0.1613
301.2767	0.1606
301.4888	0.1501
301.7009	0.1559
301.913	0.1622
302.125	0.1582
302.3371	0.1636
302.5491	0.1553
302.7612	0.1639
302.9732	0.1721
303.1852	0.156
303.3972	0.1627
303.6092	0.1571
303.8211	0.1557
304.0331	0.1544
304.245	0.1582
304.457	0.1644
304.6689	0.153
304.8808	0.1549
305.0927	0.1571
305.3046	0.1563
305.5164	0.1536
305.7283	0.1522
305.9401	0.1569
306.152	0.1487
306.3638	0.1549
306.5756	0.1413
306.7874	0.1501
306.9992	0.1461
307.2109	0.1393
307.4227	0.1414
307.6344	0.1365
307.8462	0.1388
308.0579	0.1298
308.2696	0.1272
308.4813	0.1295
308.693	0.1305
308.9046	0.1246
309.1163	0.1221
309.328	0.12
309.5396	0.1253
309.7512	0.1233
309.9628	0.1204
310.1744	0.12
310.386	0.1175
310.5976	0.1193
310.8091	0.1169
311.0207	0.1171
311.2322	0.1153
311.4437	0.1169
311.6552	0.1173
311.8667	0.1059
312.0782	0.1029
312.2897	0.1048
312.5012	0.1077
312.7126	0.1036
312.924	0.0972
313.1355	0.0976
313.3469	0.1035
313.5583	0.1055
313.7696	0.0981
313.981	0.0978
314.1924	0.0981
314.4037	0.0961
314.6151	0.0936
314.8264	0.0947
315.0377	0.0946
315.249	0.1011
315.4603	0.0957
315.6716	0.0967
315.8828	0.101
316.0941	0.0985
316.3053	0.1016
316.5165	0.0901
316.7277	0.0895
316.9389	0.0937
317.1501	0.0856
317.3613	0.0905
317.5724	0.0903
317.7836	0.0919
317.9947	0.0981
318.2058	0.0886
318.417	0.0817
318.6281	0.0934
318.8391	0.0934
319.0502	0.0861
319.2613	0.0946
319.4723	0.0975
319.6834	0.0871
319.8944	0.0965
320.1054	0.0943
320.3164	0.0963
320.5274	0.0958
320.7383	0.0942
320.9493	0.092
321.1602	0.0952
321.3712	0.1002
321.5821	0.0973
321.793	0.0928
322.0039	0.0902
322.2148	0.0949
322.4257	0.0906
322.6365	0.0904
322.8474	0.0946
323.0582	0.1005
323.269	0.0972
323.4798	0.0967
323.6906	0.0949
323.9014	0.0925
324.1122	0.0934
324.3229	0.1006
324.5337	0.0829
324.7444	0.0953
324.9551	0.0968
325.1658	0.0957
325.3765	0.0948
325.5872	0.0918
325.7979	0.1034
326.0085	0.0984
326.2192	0.1043
326.4298	0.1051
326.6404	0.0956
326.851	0.0987
327.0616	0.0949
327.2722	0.1003
327.4828	0.0942
327.6933	0.1008
327.9039	0.0998
328.1144	0.0969
328.3249	0.0986
328.5354	0.0949
328.7459	0.0914
328.9564	0.0983
329.1669	0.0999
329.3773	0.0997
329.5878	0.1074
329.7982	0.0949
330.0086	0.1021
330.219	0.1045
330.4294	0.0937
330.6398	0.0971
330.8502	0.0957
331.0605	0.0977
331.2708	0.1002
331.4812	0.1057
331.6915	0.0992
331.9018	0.0933
332.1121	0.1067
332.3224	0.0956
332.5326	0.0927
332.7429	0.1039
332.9531	0.0967
333.1633	0.1116
333.3735	0.1045
333.5837	0.1029
333.7939	0.0974
334.0041	0.0998
334.2143	0.104
334.4244	0.1013
334.6346	0.1014
334.8447	0.1018
335.0548	0.1018
335.2649	0.0984
335.475	0.0982
335.685	0.1083
335.8951	0.1009
336.1051	0.1004
336.3152	0.1082
336.5252	0.0994
336.7352	0.1024
336.9452	0.102
337.1552	0.1045
337.3652	0.108
337.5751	0.1133
337.7851	0.0978
337.995	0.1055
338.2049	0.1037
338.4148	0.1086
338.6247	0.1061
338.8346	0.1038
339.0445	0.1105
339.2543	0.1106
339.4642	0.1093
339.674	0.1104
339.8838	0.0963
340.0936	0.1088
340.3034	0.1133
340.5132	0.1093
340.7229	0.1186
340.9327	0.11
341.1424	0.1115
341.3522	0.113
341.5619	0.1206
341.7716	0.1219
341.9813	0.1183
342.1909	0.1204
342.4006	0.104
342.6102	0.1123
342.8199	0.1156
343.0295	0.1135
343.2391	0.1224
343.4487	0.1174
343.6583	0.1187
343.8679	0.111
344.0774	0.1205
344.287	0.1275
344.4965	0.117
344.706	0.121
344.9155	0.1259
345.125	0.1277
345.3345	0.1218
345.544	0.1126
345.7534	0.1196
345.9629	0.1247
346.1723	0.1285
346.3817	0.1247
346.5911	0.1305
346.8005	0.1207
347.0099	0.1234
347.2193	0.1265
347.4286	0.134
347.638	0.1348
347.8473	0.1314
348.0566	0.1335
348.2659	0.1173
348.4752	0.1292
348.6845	0.1315
348.8937	0.1354
349.103	0.1283
349.3122	0.1323
349.5214	0.1448
349.7306	0.1241
349.9398	0.1258
350.149	0.1363
350.3582	0.1354
350.5674	0.1374
350.7765	0.137
350.9856	0.1301
351.1948	0.1385
351.4039	0.1349
351.613	0.1302
351.822	0.1366
352.0311	0.1342
352.2402	0.1502
352.4492	0.1373
352.6582	0.1372
352.8672	0.14
353.0762	0.1503
353.2852	0.1536
353.4942	0.1499
353.7032	0.1453
353.9121	0.1474
354.1211	0.1472
354.33	0.1442
354.5389	0.1536
354.7478	0.1532
354.9567	0.153
355.1655	0.1492
355.3744	0.1542
355.5833	0.1438
355.7921	0.1529
356.0009	0.145
356.2097	0.1455
356.4185	0.1485
356.6273	0.1657
356.8361	0.1503
357.0448	0.154
357.2536	0.1461
357.4623	0.1586
357.671	0.1554
357.8797	0.1653
358.0884	0.1585
358.2971	0.1606
358.5057	0.1662
358.7144	0.1593
358.923	0.1663
359.1316	0.1674
359.3402	0.1691
359.5488	0.1713
359.7574	0.1688
359.966	0.1668
360.1746	0.166
360.3831	0.1839
360.5916	0.1817
360.8002	0.177
361.0087	0.1682
361.2172	0.1793
361.4256	0.1706
361.6341	0.1667
361.8426	0.1848
362.051	0.1639
362.2594	0.1893
362.4678	0.1754
362.6762	0.176
362.8846	0.1863
363.093	0.1814
363.3014	0.1814
363.5097	0.1828
363.718	0.1889
363.9264	0.1785
364.1347	0.1991
364.343	0.1804
364.5513	0.183
364.7595	0.1885
364.9678	0.1854
365.176	0.1953
365.3842	0.1897
365.5925	0.1905
365.8007	0.1923
366.0089	0.1931
366.217	0.1992
366.4252	0.2013
366.6333	0.199
366.8415	0.1966
367.0496	0.2032
367.2577	0.2029
367.4658	0.2026
367.6739	0.2099
367.882	0.2045
368.09	0.2086
368.2981	0.2128
368.5061	0.2061
368.7141	0.2059
368.9221	0.2059
369.1301	0.2246
369.3381	0.2115
369.5461	0.2133
369.754	0.2143
369.962	0.2088
370.1699	0.2171
370.3778	0.2046
370.5857	0.2153
370.7936	0.2159
371.0015	0.2199
371.2093	0.2092
371.4172	0.2212
371.625	0.2122
371.8328	0.2258
372.0406	0.2213
372.2484	0.2181
372.4562	0.2194
372.664	0.2243
372.8717	0.2244
373.0795	0.2314
373.2872	0.2342
373.4949	0.2223
373.7026	0.226
373.9103	0.2237
374.118	0.2249
374.3256	0.2192
374.5333	0.2225
374.7409	0.2256
374.9485	0.2215
375.1561	0.2236
375.3637	0.2299
375.5713	0.2255
375.7789	0.2325
375.9864	0.2295
376.194	0.2297
376.4015	0.2375
376.609	0.2392
376.8165	0.2428
377.024	0.2193
377.2315	0.2411
377.4389	0.2331
377.6464	0.2355
377.8538	0.2406
378.0612	0.2294
378.2686	0.232
378.476	0.2455
378.6834	0.2491
378.8908	0.2459
379.0981	0.2449
379.3055	0.2462
379.5128	0.2383
379.7201	0.2478
379.9274	0.2512
380.1347	0.248
380.342	0.2405
380.5492	0.2487
380.7565	0.2425
380.9637	0.2559
381.1709	0.2418
381.3781	0.2486
381.5853	0.2471
381.7925	0.2532
381.9997	0.2444
382.2068	0.2468
382.4139	0.2624
382.6211	0.2467
382.8282	0.2499
383.0353	0.2516
383.2424	0.2606
383.4494	0.2641
383.6565	0.2541
383.8635	0.278
384.0706	0.2564
384.2776	0.2549
384.4846	0.2564
384.6916	0.2616
384.8986	0.2615
385.1055	0.27
385.3125	0.2725
385.5194	0.2564
385.7263	0.2651
385.9333	0.2641
386.1402	0.2647
386.347	0.2715
386.5539	0.2565
386.7608	0.2603
386.9676	0.2637
387.1744	0.2589
387.3813	0.2614
387.5881	0.2553
387.7948	0.2566
388.0016	0.2551
388.2084	0.2653
388.4151	0.2573
388.6219	0.2609
388.8286	0.2597
389.0353	0.2581
389.242	0.2577
389.4487	0.2413
389.6553	0.2445
389.862	0.2502
390.0686	0.2485
390.2753	0.247
390.4819	0.2424
390.6885	0.2451
390.8951	0.2484
391.1016	0.2507
391.3082	0.2482
391.5147	0.2434
391.7213	0.2315
391.9278	0.2363
392.1343	0.2533
392.3408	0.224
392.5473	0.255
392.7537	0.2411
392.9602	0.2297
393.1666	0.2439
393.373	0.2361
393.5794	0.2462
393.7858	0.231
393.9922	0.2247
394.1986	0.2234
394.4049	0.2444
394.6113	0.2249
394.8176	0.2105
395.0239	0.2296
395.2302	0.2158
395.4365	0.2305
395.6428	0.2214
395.8491	0.214
396.0553	0.2288
396.2615	0.2236
396.4678	0.2275
396.674	0.2185
396.8802	0.2236
397.0863	0.2207
397.2925	0.2159
397.4987	0.2202
397.7048	0.211
397.9109	0.2219
398.117	0.2223
398.3231	0.2332
398.5292	0.2164
398.7353	0.221
398.9413	0.2177
399.1474	0.2169
399.3534	0.2217
399.5594	0.214
399.7654	0.2175
399.9714	0.2091
400.1774	0.2075
400.3833	0.2099
400.5893	0.2075
400.7952	0.2103
401.0011	0.2137
401.207	0.2227
401.4129	0.1989
401.6188	0.2113
401.8247	0.2126
402.0305	0.2108
402.2364	0.2116
402.4422	0.2171
402.648	0.2272
402.8538	0.2101
403.0596	0.2099
403.2654	0.2027
403.4711	0.2178
403.6768	0.2227
403.8826	0.2229
404.0883	0.2031
404.294	0.2122
404.4997	0.2069
404.7054	0.2101
404.911	0.226
405.1167	0.2213
405.3223	0.2166
405.5279	0.2148
405.7335	0.222
405.9391	0.2154
406.1447	0.2202
406.3502	0.2108
406.5558	0.2161
406.7613	0.2106
406.9668	0.2146
407.1724	0.2135
407.3778	0.2207
407.5833	0.2157
407.7888	0.2313
407.9942	0.2201
408.1997	0.2215
408.4051	0.2063
408.6105	0.225
408.8159	0.2258
409.0213	0.2086
409.2267	0.2144
409.432	0.2209
409.6374	0.2106
409.8427	0.2203
410.048	0.2109
410.2533	0.2067
410.4586	0.2129
410.6639	0.2097
410.8691	0.2068
411.0744	0.2195
411.2796	0.2054
411.4848	0.1991
411.69	0.2191
411.8952	0.2134
412.1004	0.2183
412.3056	0.2124
412.5107	0.2175
412.7158	0.2094
412.921	0.217
413.1261	0.1968
413.3312	0.2221
413.5362	0.2067
413.7413	0.1947
413.9464	0.2104
414.1514	0.2032
414.3564	0.2228
414.5614	0.2105
414.7664	0.2246
414.9714	0.2022
415.1764	0.2176
415.3813	0.2076
415.5863	0.2117
415.7912	0.2094
415.9961	0.2279
416.201	0.2109
416.4059	0.1973
416.6108	0.1975
416.8156	0.2053
417.0205	0.2106
417.2253	0.2051
417.4301	0.2037
417.6349	0.2192
417.8397	0.2068
418.0445	0.2056
418.2492	0.2143
418.454	0.2017
418.6587	0.2029
418.8634	0.2044
419.0681	0.2003
419.2728	0.2011
419.4775	0.187
419.6822	0.2066
419.8868	0.186
420.0915	0.1964
420.2961	0.2075
420.5007	0.1942
420.7053	0.1895
420.9099	0.181
421.1144	0.1994
421.319	0.1845
421.5235	0.198
421.728	0.1855
421.9325	0.1904
422.137	0.1781
422.3415	0.1905
422.546	0.1972
422.7504	0.1984
422.9549	0.1885
423.1593	0.192
423.3637	0.186
423.5681	0.1927
423.7725	0.1898
423.9769	0.185
424.1812	0.183
424.3856	0.183
424.5899	0.1747
424.7942	0.183
424.9985	0.1798
425.2028	0.1724
425.4071	0.1825
425.6113	0.1728
425.8156	0.1778
426.0198	0.186
426.224	0.1683
426.4282	0.1762
