Data from MonoPyChalIsomerACN10uM450nmA_Absorbance_13-11-30-691.txt Node
Date: Tue Jul 09 13:11:30 BST 2024
User: LASERRRRR
Spectrometer: FLMT03099
Trigger mode: 0
Integration Time (sec): 2.000000E-1
Scans to average: 1
Electric dark correction enabled: true
Nonlinearity correction enabled: false
Boxcar width: 0
XAxis mode: Wavelengths
Number of Pixels in Spectrum: 3648
>>>>>Begin Spectral Data<<<<<
179.3399	0.0941
179.5586	0.0941
179.7771	0.0941
179.9957	-0.3288
180.2143	1.1489
180.4329	0.0193
180.6514	0.422
180.8699	-0
181.0885	-0
181.307	-0
181.5255	-0
181.744	-0
181.9625	1.3294
182.181	-0
182.3994	-0.1757
182.6179	-0.2608
182.8363	-0
183.0547	0.0553
183.2732	0.1914
183.4916	0.1771
183.71	0.0679
183.9284	0.2164
184.1467	-0.0127
184.3651	0.0652
184.5835	0.0964
184.8018	0.0676
185.0201	0.0305
185.2385	-0.0653
185.4568	0.0623
185.6751	0.1333
185.8934	-0.0292
186.1117	0.0556
186.3299	-0.0782
186.5482	0.0339
186.7664	0.0914
186.9847	0.1094
187.2029	0.2217
187.4211	0.094
187.6393	0.0452
187.8575	0.0877
188.0757	0.0028
188.2939	0.0083
188.512	0.0552
188.7302	0.0407
188.9483	0.1319
189.1665	0.0648
189.3846	0.1155
189.6027	0.1064
189.8208	0.0461
190.0389	0.1098
190.257	0.3249
190.475	0.339
190.6931	0.1003
190.9111	0.341
191.1292	0.2869
191.3472	0.2752
191.5652	0.2445
191.7832	0.4824
192.0012	0.4096
192.2192	0.4006
192.4371	0.4067
192.6551	0.4026
192.873	0.3904
193.091	0.4754
193.3089	0.5327
193.5268	0.4607
193.7447	0.5129
193.9626	0.5284
194.1805	0.5623
194.3984	0.6038
194.6162	0.5559
194.8341	0.5389
195.0519	0.5861
195.2697	0.6543
195.4875	0.5594
195.7054	0.7402
195.9231	0.6327
196.1409	0.6575
196.3587	0.586
196.5765	0.6241
196.7942	0.6528
197.012	0.58
197.2297	0.8375
197.4474	0.7327
197.6651	0.6466
197.8828	0.8147
198.1005	0.8883
198.3182	0.7928
198.5358	0.7907
198.7535	0.8097
198.9711	0.8178
199.1888	0.8082
199.4064	0.7893
199.624	0.8083
199.8416	0.7766
200.0592	0.7318
200.2767	0.8178
200.4943	0.8041
200.7119	0.8482
200.9294	0.8496
201.1469	0.8008
201.3645	0.8233
201.582	0.9253
201.7995	0.8379
202.017	0.9446
202.2344	0.7408
202.4519	0.9312
202.6694	0.9081
202.8868	0.9029
203.1042	1.1519
203.3217	0.946
203.5391	0.9444
203.7565	0.8587
203.9739	0.85
204.1913	0.8188
204.4086	0.9289
204.626	0.9403
204.8433	0.9676
205.0607	0.8887
205.278	0.9135
205.4953	1.1226
205.7126	0.9304
205.9299	1.1473
206.1472	0.9823
206.3644	0.9461
206.5817	1.0049
206.7989	1.0493
207.0162	0.9717
207.2334	0.9111
207.4506	0.9711
207.6678	1.0548
207.885	1.0518
208.1022	0.976
208.3194	1.0573
208.5365	1.0265
208.7537	1.0143
208.9708	1.0229
209.1879	1.0789
209.405	1.0972
209.6222	1.1365
209.8392	1.0484
210.0563	1.0643
210.2734	1.0459
210.4905	1.0098
210.7075	1.0519
210.9245	1.0074
211.1416	1.0822
211.3586	1.2051
211.5756	1.0729
211.7926	1.0607
212.0096	1.0566
212.2265	1.127
212.4435	1.0404
212.6604	1.0996
212.8774	1.0175
213.0943	1.0598
213.3112	1.0026
213.5281	1.0014
213.745	1.017
213.9619	0.9696
214.1788	0.9584
214.3956	0.9629
214.6125	0.9319
214.8293	0.8818
215.0461	0.8908
215.2629	0.8728
215.4798	0.8443
215.6965	0.8594
215.9133	0.8593
216.1301	0.7991
216.3469	0.8046
216.5636	0.8008
216.7803	0.7601
216.9971	0.7529
217.2138	0.7409
217.4305	0.7258
217.6472	0.6909
217.8639	0.6601
218.0805	0.6195
218.2972	0.5818
218.5138	0.5591
218.7305	0.5048
218.9471	0.4517
219.1637	0.453
219.3803	0.4349
219.5969	0.3992
219.8135	0.3739
220.0301	0.3491
220.2466	0.3462
220.4632	0.3347
220.6797	0.3088
220.8962	0.3132
221.1127	0.2924
221.3292	0.3122
221.5457	0.285
221.7622	0.2888
221.9787	0.2779
222.1951	0.2912
222.4116	0.2737
222.628	0.2728
222.8444	0.269
223.0608	0.2762
223.2772	0.2849
223.4936	0.2681
223.71	0.2735
223.9264	0.2777
224.1427	0.2485
224.3591	0.2753
224.5754	0.2643
224.7917	0.2736
225.008	0.2806
225.2243	0.2787
225.4406	0.2964
225.6569	0.2889
225.8732	0.2809
226.0894	0.2648
226.3057	0.2944
226.5219	0.2939
226.7381	0.2847
226.9543	0.28
227.1705	0.2801
227.3867	0.2989
227.6029	0.2966
227.8191	0.2956
228.0352	0.2922
228.2513	0.3064
228.4675	0.3046
228.6836	0.3045
228.8997	0.317
229.1158	0.32
229.3319	0.3144
229.548	0.323
229.764	0.329
229.9801	0.3237
230.1961	0.326
230.4121	0.3434
230.6282	0.3393
230.8442	0.3371
231.0602	0.3426
231.2761	0.3421
231.4921	0.3564
231.7081	0.3502
231.924	0.3462
232.14	0.3612
232.3559	0.3698
232.5718	0.3565
232.7877	0.3531
233.0036	0.3632
233.2195	0.3597
233.4353	0.361
233.6512	0.3644
233.867	0.3755
234.0829	0.3785
234.2987	0.3818
234.5145	0.3818
234.7303	0.3863
234.9461	0.3859
235.1619	0.3863
235.3776	0.3909
235.5934	0.3898
235.8091	0.3962
236.0249	0.3815
236.2406	0.3924
236.4563	0.3803
236.672	0.3994
236.8877	0.3982
237.1034	0.3952
237.319	0.408
237.5347	0.3936
237.7503	0.4087
237.966	0.4166
238.1816	0.3999
238.3972	0.4046
238.6128	0.4108
238.8284	0.4185
239.0439	0.4069
239.2595	0.4277
239.475	0.4174
239.6906	0.4274
239.9061	0.4129
240.1216	0.4211
240.3371	0.4201
240.5526	0.4288
240.7681	0.4123
240.9836	0.4151
241.199	0.418
241.4145	0.4016
241.6299	0.4044
241.8453	0.3928
242.0607	0.3894
242.2761	0.4007
242.4915	0.3905
242.7069	0.3847
242.9223	0.3785
243.1376	0.3747
243.353	0.3621
243.5683	0.3604
243.7836	0.3586
243.9989	0.3467
244.2142	0.3368
244.4295	0.3352
244.6448	0.3323
244.86	0.3301
245.0753	0.3149
245.2905	0.3034
245.5057	0.3103
245.721	0.3064
245.9362	0.2821
246.1514	0.2886
246.3665	0.2943
246.5817	0.2764
246.7969	0.2779
247.012	0.281
247.2271	0.27
247.4423	0.268
247.6574	0.2683
247.8725	0.2551
248.0876	0.2609
248.3026	0.2571
248.5177	0.2563
248.7328	0.2457
248.9478	0.2454
249.1628	0.2338
249.3779	0.2339
249.5929	0.2266
249.8079	0.2354
250.0228	0.2309
250.2378	0.2334
250.4528	0.2239
250.6677	0.2227
250.8827	0.2116
251.0976	0.2122
251.3125	0.2207
251.5274	0.2067
251.7423	0.2061
251.9572	0.2108
252.172	0.2077
252.3869	0.2187
252.6017	0.2136
252.8166	0.2104
253.0314	0.2065
253.2462	0.2196
253.461	0.2062
253.6758	0.203
253.8906	0.2062
254.1053	0.2118
254.3201	0.2049
254.5348	0.1988
254.7496	0.2026
254.9643	0.1971
255.179	0.1985
255.3937	0.198
255.6083	0.2091
255.823	0.2009
256.0377	0.1952
256.2523	0.1951
256.467	0.2002
256.6816	0.1932
256.8962	0.1993
257.1108	0.2058
257.3254	0.1988
257.54	0.1934
257.7545	0.1988
257.9691	0.1999
258.1836	0.183
258.3981	0.2012
258.6127	0.1932
258.8272	0.1979
259.0417	0.2081
259.2561	0.1972
259.4706	0.1891
259.6851	0.1938
259.8995	0.183
260.114	0.1898
260.3284	0.1986
260.5428	0.1946
260.7572	0.1996
260.9716	0.2012
261.186	0.2007
261.4003	0.2094
261.6147	0.2004
261.829	0.2071
262.0433	0.1975
262.2577	0.2007
262.472	0.1944
262.6863	0.187
262.9005	0.2004
263.1148	0.1957
263.3291	0.1954
263.5433	0.1923
263.7576	0.1929
263.9718	0.1898
264.186	0.1866
264.4002	0.1851
264.6144	0.1804
264.8286	0.1853
265.0427	0.1768
265.2569	0.1915
265.471	0.1865
265.6851	0.1797
265.8993	0.1788
266.1134	0.1783
266.3275	0.1862
266.5415	0.1835
266.7556	0.1787
266.9697	0.1774
267.1837	0.1777
267.3978	0.1893
267.6118	0.1919
267.8258	0.2003
268.0398	0.1987
268.2538	0.195
268.4677	0.1943
268.6817	0.1981
268.8957	0.1943
269.1096	0.1888
269.3235	0.1829
269.5374	0.183
269.7514	0.1688
269.9652	0.171
270.1791	0.1684
270.393	0.1534
270.6068	0.156
270.8207	0.1599
271.0345	0.1653
271.2483	0.1619
271.4622	0.1534
271.676	0.1486
271.8897	0.1436
272.1035	0.1467
272.3173	0.1511
272.531	0.149
272.7448	0.1494
272.9585	0.1459
273.1722	0.1388
273.3859	0.1479
273.5996	0.1457
273.8133	0.1547
274.0269	0.1443
274.2406	0.1491
274.4542	0.1515
274.6679	0.1471
274.8815	0.1506
275.0951	0.1564
275.3087	0.1429
275.5223	0.1467
275.7358	0.1417
275.9494	0.1571
276.1629	0.1461
276.3765	0.1518
276.59	0.1493
276.8035	0.1576
277.017	0.1491
277.2305	0.1561
277.444	0.1509
277.6574	0.154
277.8709	0.1497
278.0843	0.1538
278.2978	0.1514
278.5112	0.1532
278.7246	0.1466
278.938	0.1522
279.1513	0.1585
279.3647	0.1591
279.5781	0.1521
279.7914	0.1603
280.0047	0.1502
280.2181	0.1633
280.4314	0.1517
280.6447	0.1484
280.8579	0.1601
281.0712	0.1656
281.2845	0.1594
281.4977	0.151
281.711	0.1612
281.9242	0.1587
282.1374	0.1612
282.3506	0.1471
282.5638	0.163
282.7769	0.1583
282.9901	0.1593
283.2033	0.1624
283.4164	0.1684
283.6295	0.1595
283.8426	0.1548
284.0557	0.1633
284.2688	0.1535
284.4819	0.1588
284.695	0.1598
284.908	0.1646
285.1211	0.163
285.3341	0.1596
285.5471	0.1652
285.7601	0.153
285.9731	0.155
286.1861	0.1649
286.3991	0.1632
286.612	0.1627
286.825	0.1662
287.0379	0.1548
287.2508	0.1499
287.4637	0.156
287.6766	0.159
287.8895	0.1565
288.1024	0.1645
288.3152	0.16
288.5281	0.1579
288.7409	0.1511
288.9538	0.1605
289.1666	0.1562
289.3794	0.1536
289.5922	0.1527
289.8049	0.1568
290.0177	0.1607
290.2304	0.1575
290.4432	0.1548
290.6559	0.1551
290.8686	0.1553
291.0813	0.1613
291.294	0.162
291.5067	0.1561
291.7194	0.1632
291.932	0.1584
292.1447	0.1545
292.3573	0.1589
292.5699	0.1609
292.7825	0.1552
292.9951	0.1642
293.2077	0.1528
293.4203	0.1568
293.6328	0.1679
293.8454	0.1511
294.0579	0.1539
294.2704	0.1599
294.4829	0.1619
294.6954	0.1603
294.9079	0.1619
295.1204	0.1616
295.3328	0.1608
295.5453	0.1504
295.7577	0.1535
295.9701	0.1542
296.1825	0.1613
296.3949	0.1487
296.6073	0.1585
296.8197	0.1524
297.0321	0.1579
297.2444	0.15
297.4567	0.1429
297.6691	0.1599
297.8814	0.1508
298.0937	0.1527
298.306	0.1529
298.5182	0.1452
298.7305	0.1563
298.9428	0.149
299.155	0.1493
299.3672	0.1547
299.5794	0.1491
299.7916	0.1572
300.0038	0.15
300.216	0.1576
300.4282	0.1541
300.6403	0.1494
300.8525	0.1488
301.0646	0.1517
301.2767	0.1573
301.4888	0.1474
301.7009	0.1569
301.913	0.1541
302.125	0.152
302.3371	0.1562
302.5491	0.1478
302.7612	0.1583
302.9732	0.1588
303.1852	0.1495
303.3972	0.1502
303.6092	0.1563
303.8211	0.1525
304.0331	0.1466
304.245	0.1454
304.457	0.1486
304.6689	0.146
304.8808	0.1494
305.0927	0.1404
305.3046	0.1418
305.5164	0.144
305.7283	0.142
305.9401	0.1412
306.152	0.1379
306.3638	0.1531
306.5756	0.132
306.7874	0.1386
306.9992	0.1412
307.2109	0.1311
307.4227	0.1362
307.6344	0.1319
307.8462	0.1335
308.0579	0.135
308.2696	0.1231
308.4813	0.1325
308.693	0.1293
308.9046	0.1255
309.1163	0.1182
309.328	0.1228
309.5396	0.1223
309.7512	0.1221
309.9628	0.1202
310.1744	0.1263
310.386	0.111
310.5976	0.1181
310.8091	0.1203
311.0207	0.1111
311.2322	0.1132
311.4437	0.1212
311.6552	0.1101
311.8667	0.1123
312.0782	0.1132
312.2897	0.1004
312.5012	0.1108
312.7126	0.1037
312.924	0.1007
313.1355	0.1002
313.3469	0.1063
313.5583	0.1037
313.7696	0.1015
313.981	0.0994
314.1924	0.0976
314.4037	0.0995
314.6151	0.0952
314.8264	0.1066
315.0377	0.1062
315.249	0.1032
315.4603	0.1016
315.6716	0.0968
315.8828	0.111
316.0941	0.1014
316.3053	0.0943
316.5165	0.0982
316.7277	0.0974
316.9389	0.0955
317.1501	0.0977
317.3613	0.1038
317.5724	0.0955
317.7836	0.1032
317.9947	0.1053
318.2058	0.0955
318.417	0.0911
318.6281	0.1012
318.8391	0.0991
319.0502	0.0933
319.2613	0.1022
319.4723	0.0956
319.6834	0.0987
319.8944	0.1065
320.1054	0.0915
320.3164	0.1092
320.5274	0.1056
320.7383	0.0938
320.9493	0.1003
321.1602	0.1054
321.3712	0.1052
321.5821	0.0999
321.793	0.0959
322.0039	0.0983
322.2148	0.1022
322.4257	0.0982
322.6365	0.0958
322.8474	0.1059
323.0582	0.112
323.269	0.0977
323.4798	0.1096
323.6906	0.1072
323.9014	0.1107
324.1122	0.0991
324.3229	0.1012
324.5337	0.1018
324.7444	0.1089
324.9551	0.102
325.1658	0.1108
325.3765	0.1022
325.5872	0.1038
325.7979	0.1054
326.0085	0.1048
326.2192	0.1115
326.4298	0.1111
326.6404	0.1036
326.851	0.1072
327.0616	0.0987
327.2722	0.1077
327.4828	0.103
327.6933	0.1028
327.9039	0.112
328.1144	0.1085
328.3249	0.1074
328.5354	0.1108
328.7459	0.1073
328.9564	0.109
329.1669	0.1047
329.3773	0.1129
329.5878	0.1175
329.7982	0.1026
330.0086	0.1088
330.219	0.117
330.4294	0.1059
330.6398	0.1095
330.8502	0.1117
331.0605	0.1022
331.2708	0.1132
331.4812	0.1062
331.6915	0.0996
331.9018	0.1047
332.1121	0.1098
332.3224	0.1078
332.5326	0.1039
332.7429	0.1124
332.9531	0.104
333.1633	0.1201
333.3735	0.1159
333.5837	0.1154
333.7939	0.1153
334.0041	0.1071
334.2143	0.1116
334.4244	0.109
334.6346	0.1051
334.8447	0.1147
335.0548	0.1133
335.2649	0.1017
335.475	0.1017
335.685	0.1172
335.8951	0.1097
336.1051	0.1052
336.3152	0.1144
336.5252	0.1138
336.7352	0.1121
336.9452	0.1023
337.1552	0.1076
337.3652	0.1172
337.5751	0.1128
337.7851	0.1075
337.995	0.1178
338.2049	0.1099
338.4148	0.1125
338.6247	0.1131
338.8346	0.1136
339.0445	0.1142
339.2543	0.1181
339.4642	0.1183
339.674	0.1165
339.8838	0.1119
340.0936	0.1222
340.3034	0.1256
340.5132	0.1204
340.7229	0.1272
340.9327	0.1255
341.1424	0.1191
341.3522	0.1228
341.5619	0.1332
341.7716	0.126
341.9813	0.1244
342.1909	0.1219
342.4006	0.1235
342.6102	0.1225
342.8199	0.1227
343.0295	0.1237
343.2391	0.1248
343.4487	0.126
343.6583	0.1302
343.8679	0.1229
344.0774	0.1308
344.287	0.138
344.4965	0.1237
344.706	0.1373
344.9155	0.131
345.125	0.1371
345.3345	0.1341
345.544	0.1217
345.7534	0.1339
345.9629	0.1297
346.1723	0.1341
346.3817	0.1374
346.5911	0.136
346.8005	0.1309
347.0099	0.1288
347.2193	0.1391
347.4286	0.1418
347.638	0.1399
347.8473	0.1349
348.0566	0.1381
348.2659	0.1255
348.4752	0.1348
348.6845	0.1342
348.8937	0.1465
349.103	0.1417
349.3122	0.139
349.5214	0.1377
349.7306	0.132
349.9398	0.1267
350.149	0.1414
350.3582	0.1397
350.5674	0.1395
350.7765	0.1281
350.9856	0.1416
351.1948	0.1368
351.4039	0.1451
351.613	0.1387
351.822	0.1517
352.0311	0.1438
352.2402	0.1501
352.4492	0.1475
352.6582	0.1441
352.8672	0.1484
353.0762	0.1543
353.2852	0.1584
353.4942	0.1486
353.7032	0.1533
353.9121	0.1498
354.1211	0.1566
354.33	0.1436
354.5389	0.1565
354.7478	0.1615
354.9567	0.1456
355.1655	0.1587
355.3744	0.1579
355.5833	0.1481
355.7921	0.1548
356.0009	0.1471
356.2097	0.1528
356.4185	0.1514
356.6273	0.1599
356.8361	0.156
357.0448	0.1579
357.2536	0.1445
357.4623	0.1542
357.671	0.1606
357.8797	0.1615
358.0884	0.1615
358.2971	0.1633
358.5057	0.1653
358.7144	0.166
358.923	0.1703
359.1316	0.1656
359.3402	0.1737
359.5488	0.163
359.7574	0.1797
359.966	0.1742
360.1746	0.1713
360.3831	0.1798
360.5916	0.1862
360.8002	0.1801
361.0087	0.1782
361.2172	0.1786
361.4256	0.1792
361.6341	0.1755
361.8426	0.179
362.051	0.1721
362.2594	0.1767
362.4678	0.1789
362.6762	0.1797
362.8846	0.1854
363.093	0.1814
363.3014	0.1865
363.5097	0.1811
363.718	0.1913
363.9264	0.1861
364.1347	0.1962
364.343	0.1818
364.5513	0.189
364.7595	0.1904
364.9678	0.1857
365.176	0.1804
365.3842	0.1834
365.5925	0.1858
365.8007	0.182
366.0089	0.1994
366.217	0.1921
366.4252	0.2015
366.6333	0.1928
366.8415	0.1987
367.0496	0.2028
367.2577	0.1957
367.4658	0.1982
367.6739	0.1961
367.882	0.1978
368.09	0.1982
368.2981	0.2029
368.5061	0.1935
368.7141	0.2019
368.9221	0.19
369.1301	0.2017
369.3381	0.1996
369.5461	0.2037
369.754	0.201
369.962	0.1963
370.1699	0.2007
370.3778	0.2078
370.5857	0.1996
370.7936	0.2035
371.0015	0.2057
371.2093	0.197
371.4172	0.2167
371.625	0.2113
371.8328	0.2099
372.0406	0.2229
372.2484	0.2179
372.4562	0.2165
372.664	0.2148
372.8717	0.2004
373.0795	0.2061
373.2872	0.2204
373.4949	0.2076
373.7026	0.2055
373.9103	0.2079
374.118	0.2114
374.3256	0.2143
374.5333	0.2137
374.7409	0.2192
374.9485	0.2125
375.1561	0.2113
375.3637	0.2231
375.5713	0.2143
375.7789	0.218
375.9864	0.2122
376.194	0.2158
376.4015	0.2183
376.609	0.2182
376.8165	0.2084
377.024	0.2089
377.2315	0.2264
377.4389	0.2227
377.6464	0.2186
377.8538	0.2212
378.0612	0.2176
378.2686	0.2321
378.476	0.2163
378.6834	0.2239
378.8908	0.2299
379.0981	0.2288
379.3055	0.2322
379.5128	0.219
379.7201	0.2233
379.9274	0.2311
380.1347	0.2236
380.342	0.2315
380.5492	0.2353
380.7565	0.2304
380.9637	0.2304
381.1709	0.2262
381.3781	0.2324
381.5853	0.2306
381.7925	0.2262
381.9997	0.2382
382.2068	0.2331
382.4139	0.2309
382.6211	0.2357
382.8282	0.2252
383.0353	0.2292
383.2424	0.2296
383.4494	0.2436
383.6565	0.2285
383.8635	0.2366
384.0706	0.2395
384.2776	0.2427
384.4846	0.223
384.6916	0.2409
384.8986	0.2404
385.1055	0.237
385.3125	0.2477
385.5194	0.2438
385.7263	0.2446
385.9333	0.2435
386.1402	0.2411
386.347	0.2487
386.5539	0.2426
386.7608	0.2464
386.9676	0.245
387.1744	0.2371
387.3813	0.2378
387.5881	0.2379
387.7948	0.2373
388.0016	0.2365
388.2084	0.2355
388.4151	0.2219
388.6219	0.2323
388.8286	0.2468
389.0353	0.2233
389.242	0.2335
389.4487	0.226
389.6553	0.2317
389.862	0.22
390.0686	0.2278
390.2753	0.2264
390.4819	0.2222
390.6885	0.2353
390.8951	0.2276
391.1016	0.2289
391.3082	0.2175
391.5147	0.2244
391.7213	0.2221
391.9278	0.2079
392.1343	0.2207
392.3408	0.2148
392.5473	0.2247
392.7537	0.2217
392.9602	0.2161
393.1666	0.222
393.373	0.2147
393.5794	0.2098
393.7858	0.2072
393.9922	0.2016
394.1986	0.1979
394.4049	0.2177
394.6113	0.2118
394.8176	0.2005
395.0239	0.1987
395.2302	0.2011
395.4365	0.2094
395.6428	0.1942
395.8491	0.207
396.0553	0.1911
396.2615	0.203
396.4678	0.2144
396.674	0.1947
396.8802	0.2024
397.0863	0.1977
397.2925	0.1969
397.4987	0.1947
397.7048	0.1981
397.9109	0.212
398.117	0.2023
398.3231	0.1961
398.5292	0.1864
398.7353	0.1944
398.9413	0.1932
399.1474	0.1988
399.3534	0.1902
399.5594	0.1955
399.7654	0.1968
399.9714	0.1946
400.1774	0.1925
400.3833	0.2005
400.5893	0.1922
400.7952	0.1778
401.0011	0.1961
401.207	0.1951
401.4129	0.1776
401.6188	0.1855
401.8247	0.1934
402.0305	0.1928
402.2364	0.1939
402.4422	0.1838
402.648	0.2069
402.8538	0.1865
403.0596	0.1882
403.2654	0.1827
403.4711	0.191
403.6768	0.1944
403.8826	0.1951
404.0883	0.1814
404.294	0.1951
404.4997	0.1941
404.7054	0.1891
404.911	0.1909
405.1167	0.1984
405.3223	0.1828
405.5279	0.1957
405.7335	0.1966
405.9391	0.2049
406.1447	0.1994
406.3502	0.1922
406.5558	0.1911
406.7613	0.1932
406.9668	0.1949
407.1724	0.1944
407.3778	0.1872
407.5833	0.1891
407.7888	0.2014
407.9942	0.1854
408.1997	0.2065
408.4051	0.1967
408.6105	0.1884
408.8159	0.2024
409.0213	0.1847
409.2267	0.1861
409.432	0.1884
409.6374	0.1943
409.8427	0.2085
410.048	0.1937
410.2533	0.187
410.4586	0.181
410.6639	0.1891
410.8691	0.1869
411.0744	0.1806
411.2796	0.1834
411.4848	0.1718
411.69	0.1946
411.8952	0.1885
412.1004	0.1812
412.3056	0.2022
412.5107	0.1866
412.7158	0.185
412.921	0.1902
413.1261	0.1747
413.3312	0.192
413.5362	0.1845
413.7413	0.1927
413.9464	0.1812
414.1514	0.1676
414.3564	0.1893
414.5614	0.1941
414.7664	0.1929
414.9714	0.1857
415.1764	0.1894
415.3813	0.1902
415.5863	0.1939
415.7912	0.1838
415.9961	0.1845
416.201	0.1868
416.4059	0.1749
416.6108	0.1833
416.8156	0.1771
417.0205	0.1886
417.2253	0.175
417.4301	0.1874
417.6349	0.1741
417.8397	0.169
418.0445	0.1872
418.2492	0.1793
418.454	0.176
418.6587	0.1784
418.8634	0.1888
419.0681	0.1784
419.2728	0.1839
419.4775	0.1774
419.6822	0.1788
419.8868	0.1809
420.0915	0.1761
420.2961	0.1718
420.5007	0.1753
420.7053	0.167
420.9099	0.1605
421.1144	0.1772
421.319	0.1654
421.5235	0.1792
421.728	0.1665
421.9325	0.1652
422.137	0.1534
422.3415	0.1766
422.546	0.1763
422.7504	0.1666
422.9549	0.1671
423.1593	0.1699
423.3637	0.1743
423.5681	0.1756
423.7725	0.1708
423.9769	0.1546
424.1812	0.1709
424.3856	0.1647
424.5899	0.1682
424.7942	0.1596
424.9985	0.1598
425.2028	0.1524
425.4071	0.1591
425.6113	0.1524
425.8156	0.1572
426.0198	0.1589
426.224	0.1513
426.4282	0.1352
426.6324	0.152
