Data from D4ACN5uM440nmA_Absorbance_13-50-25-597.txt Node
Date: Fri Feb 21 13:50:25 GMT 2025
User: LASERRRRR
Spectrometer: FLMT03099
Trigger mode: 0
Integration Time (sec): 1.500000E-2
Scans to average: 1
Electric dark correction enabled: true
Nonlinearity correction enabled: false
Boxcar width: 0
XAxis mode: Wavelengths
Number of Pixels in Spectrum: 3648
>>>>>Begin Spectral Data<<<<<
179.3399	-0.6298
179.5586	-0.6298
179.7771	-0.6298
179.9957	-0.0374
180.2143	-0
180.4329	0.6847
180.6514	0.2872
180.8699	-0
181.0885	-0
181.307	-0.0634
181.5255	0.1092
181.744	0.4535
181.9625	0.8058
182.181	-0.1865
182.3994	-0.161
182.6179	-0
182.8363	-0
183.0547	-0.1977
183.2732	0.1442
183.4916	0.2642
183.71	0.1084
183.9284	0.2584
184.1467	2.3555
184.3651	-0.1049
184.5835	0.2895
184.8018	-0.0028
185.0201	0.0737
185.2385	0.0665
185.4568	0.1998
185.6751	0.1178
185.8934	0.2729
186.1117	-0.1797
186.3299	0.065
186.5482	0.171
186.7664	0.2802
186.9847	-0.1697
187.2029	0.2378
187.4211	-0.0063
187.6393	0.1296
187.8575	0.3735
188.0757	0.2124
188.2939	0.243
188.512	0.2308
188.7302	0.243
188.9483	0.1721
189.1665	0.3914
189.3846	0.1222
189.6027	0.19
189.8208	0.2786
190.0389	0.3064
190.257	0.0105
190.475	0.152
190.6931	-0.0895
190.9111	0.0226
191.1292	0.0908
191.3472	0.1129
191.5652	0.1664
191.7832	0.2984
192.0012	0.1707
192.2192	0.1819
192.4371	0.1163
192.6551	0.1411
192.873	0.1798
193.091	0.1826
193.3089	0.2729
193.5268	0.4097
193.7447	0.1553
193.9626	0.1094
194.1805	0.2662
194.3984	0.2327
194.6162	0.2025
194.8341	0.2508
195.0519	0.2066
195.2697	0.3927
195.4875	0.2222
195.7054	0.3232
195.9231	0.2317
196.1409	0.3293
196.3587	0.3231
196.5765	0.2824
196.7942	0.3656
197.012	0.358
197.2297	0.4258
197.4474	0.3585
197.6651	0.3352
197.8828	0.3368
198.1005	0.3928
198.3182	0.4019
198.5358	0.408
198.7535	0.3384
198.9711	0.3682
199.1888	0.3898
199.4064	0.3922
199.624	0.3823
199.8416	0.3792
200.0592	0.396
200.2767	0.3774
200.4943	0.4323
200.7119	0.379
200.9294	0.3712
201.1469	0.4026
201.3645	0.4649
201.582	0.4196
201.7995	0.4071
202.017	0.3898
202.2344	0.4001
202.4519	0.4403
202.6694	0.4046
202.8868	0.3864
203.1042	0.4055
203.3217	0.4003
203.5391	0.4019
203.7565	0.3459
203.9739	0.3811
204.1913	0.3684
204.4086	0.371
204.626	0.347
204.8433	0.3459
205.0607	0.3502
205.278	0.3553
205.4953	0.353
205.7126	0.3323
205.9299	0.3238
206.1472	0.2782
206.3644	0.3755
206.5817	0.3231
206.7989	0.3416
207.0162	0.3306
207.2334	0.3342
207.4506	0.3297
207.6678	0.3102
207.885	0.2973
208.1022	0.2915
208.3194	0.284
208.5365	0.3046
208.7537	0.285
208.9708	0.2988
209.1879	0.3153
209.405	0.3006
209.6222	0.2671
209.8392	0.3266
210.0563	0.2937
210.2734	0.2626
210.4905	0.2674
210.7075	0.2714
210.9245	0.2599
211.1416	0.28
211.3586	0.2608
211.5756	0.2358
211.7926	0.2501
212.0096	0.2738
212.2265	0.2503
212.4435	0.265
212.6604	0.2453
212.8774	0.2525
213.0943	0.2718
213.3112	0.2448
213.5281	0.2506
213.745	0.2323
213.9619	0.2452
214.1788	0.276
214.3956	0.2397
214.6125	0.2416
214.8293	0.2294
215.0461	0.2488
215.2629	0.2486
215.4798	0.2479
215.6965	0.2533
215.9133	0.2273
216.1301	0.2427
216.3469	0.2693
216.5636	0.2478
216.7803	0.2347
216.9971	0.2623
217.2138	0.2627
217.4305	0.2541
217.6472	0.2509
217.8639	0.2553
218.0805	0.2402
218.2972	0.25
218.5138	0.2387
218.7305	0.257
218.9471	0.2577
219.1637	0.271
219.3803	0.2646
219.5969	0.2433
219.8135	0.2641
220.0301	0.2478
220.2466	0.2699
220.4632	0.2508
220.6797	0.2642
220.8962	0.2561
221.1127	0.257
221.3292	0.2816
221.5457	0.2702
221.7622	0.2678
221.9787	0.2662
222.1951	0.2676
222.4116	0.2622
222.628	0.2914
222.8444	0.2853
223.0608	0.2793
223.2772	0.2744
223.4936	0.296
223.71	0.2971
223.9264	0.2873
224.1427	0.2837
224.3591	0.281
224.5754	0.3066
224.7917	0.2991
225.008	0.2982
225.2243	0.2945
225.4406	0.2852
225.6569	0.3006
225.8732	0.3119
226.0894	0.301
226.3057	0.3128
226.5219	0.3041
226.7381	0.3224
226.9543	0.301
227.1705	0.3188
227.3867	0.3298
227.6029	0.3253
227.8191	0.3267
228.0352	0.3417
228.2513	0.3439
228.4675	0.3451
228.6836	0.3393
228.8997	0.3368
229.1158	0.3465
229.3319	0.3659
229.548	0.341
229.764	0.3653
229.9801	0.3749
230.1961	0.3694
230.4121	0.3556
230.6282	0.3793
230.8442	0.388
231.0602	0.3792
231.2761	0.3789
231.4921	0.3912
231.7081	0.3953
231.924	0.3966
232.14	0.3953
232.3559	0.4156
232.5718	0.4082
232.7877	0.4084
233.0036	0.4178
233.2195	0.3993
233.4353	0.4206
233.6512	0.4129
233.867	0.4273
234.0829	0.4273
234.2987	0.4216
234.5145	0.4285
234.7303	0.4389
234.9461	0.433
235.1619	0.4467
235.3776	0.4372
235.5934	0.4291
235.8091	0.4377
236.0249	0.4469
236.2406	0.4524
236.4563	0.4532
236.672	0.4396
236.8877	0.4504
237.1034	0.4438
237.319	0.4557
237.5347	0.4471
237.7503	0.4415
237.966	0.4613
238.1816	0.4487
238.3972	0.4627
238.6128	0.4615
238.8284	0.4634
239.0439	0.4548
239.2595	0.4607
239.475	0.465
239.6906	0.4575
239.9061	0.4609
240.1216	0.4601
240.3371	0.4661
240.5526	0.4646
240.7681	0.4646
240.9836	0.4571
241.199	0.4543
241.4145	0.4606
241.6299	0.4534
241.8453	0.4368
242.0607	0.4404
242.2761	0.4303
242.4915	0.4266
242.7069	0.416
242.9223	0.4154
243.1376	0.4168
243.353	0.3974
243.5683	0.387
243.7836	0.39
243.9989	0.3796
244.2142	0.3742
244.4295	0.3813
244.6448	0.3601
244.86	0.3572
245.0753	0.349
245.2905	0.341
245.5057	0.3377
245.721	0.3371
245.9362	0.3319
246.1514	0.3242
246.3665	0.3171
246.5817	0.3039
246.7969	0.3018
247.012	0.2897
247.2271	0.2874
247.4423	0.2837
247.6574	0.2835
247.8725	0.2774
248.0876	0.2676
248.3026	0.2663
248.5177	0.2493
248.7328	0.2449
248.9478	0.2532
249.1628	0.2487
249.3779	0.2419
249.5929	0.2434
249.8079	0.2284
250.0228	0.2278
250.2378	0.2372
250.4528	0.2247
250.6677	0.2259
250.8827	0.2155
251.0976	0.2134
251.3125	0.2131
251.5274	0.2078
251.7423	0.2096
251.9572	0.2043
252.172	0.2153
252.3869	0.2073
252.6017	0.2029
252.8166	0.1998
253.0314	0.1979
253.2462	0.1919
253.461	0.1956
253.6758	0.1937
253.8906	0.1956
254.1053	0.1958
254.3201	0.1876
254.5348	0.1842
254.7496	0.1853
254.9643	0.1941
255.179	0.1857
255.3937	0.1907
255.6083	0.1945
255.823	0.1866
256.0377	0.1797
256.2523	0.1839
256.467	0.1875
256.6816	0.1822
256.8962	0.1819
257.1108	0.1826
257.3254	0.1827
257.54	0.1762
257.7545	0.184
257.9691	0.181
258.1836	0.1744
258.3981	0.1756
258.6127	0.1699
258.8272	0.1802
259.0417	0.18
259.2561	0.1772
259.4706	0.1734
259.6851	0.1749
259.8995	0.1782
260.114	0.1737
260.3284	0.1722
260.5428	0.1755
260.7572	0.1714
260.9716	0.1819
261.186	0.1759
261.4003	0.1767
261.6147	0.1734
261.829	0.1804
262.0433	0.1822
262.2577	0.1759
262.472	0.1725
262.6863	0.1833
262.9005	0.1804
263.1148	0.1807
263.3291	0.1827
263.5433	0.1861
263.7576	0.1791
263.9718	0.1758
264.186	0.1764
264.4002	0.1827
264.6144	0.1839
264.8286	0.1864
265.0427	0.1817
265.2569	0.1866
265.471	0.1844
265.6851	0.1798
265.8993	0.182
266.1134	0.187
266.3275	0.1818
266.5415	0.1859
266.7556	0.1825
266.9697	0.1856
267.1837	0.183
267.3978	0.1829
267.6118	0.177
267.8258	0.1813
268.0398	0.185
268.2538	0.1835
268.4677	0.1804
268.6817	0.1748
268.8957	0.1724
269.1096	0.1782
269.3235	0.176
269.5374	0.1894
269.7514	0.1792
269.9652	0.1744
270.1791	0.177
270.393	0.1779
270.6068	0.1812
270.8207	0.1817
271.0345	0.1768
271.2483	0.1713
271.4622	0.1785
271.676	0.1749
271.8897	0.1732
272.1035	0.183
272.3173	0.1778
272.531	0.1792
272.7448	0.1739
272.9585	0.1663
273.1722	0.1733
273.3859	0.1776
273.5996	0.1757
273.8133	0.175
274.0269	0.1684
274.2406	0.175
274.4542	0.1735
274.6679	0.1805
274.8815	0.1834
275.0951	0.1802
275.3087	0.1798
275.5223	0.1816
275.7358	0.1824
275.9494	0.1833
276.1629	0.1831
276.3765	0.1804
276.59	0.1757
276.8035	0.1755
277.017	0.1898
277.2305	0.1887
277.444	0.1833
277.6574	0.1863
277.8709	0.1908
278.0843	0.1867
278.2978	0.1864
278.5112	0.1835
278.7246	0.1837
278.938	0.1861
279.1513	0.1905
279.3647	0.1817
279.5781	0.1797
279.7914	0.1865
280.0047	0.1837
280.2181	0.1825
280.4314	0.1874
280.6447	0.1893
280.8579	0.1805
281.0712	0.1813
281.2845	0.1863
281.4977	0.1854
281.711	0.1791
281.9242	0.1872
282.1374	0.1792
282.3506	0.1812
282.5638	0.1811
282.7769	0.182
282.9901	0.1836
283.2033	0.1847
283.4164	0.186
283.6295	0.1841
283.8426	0.1785
284.0557	0.1822
284.2688	0.1862
284.4819	0.18
284.695	0.1884
284.908	0.1818
285.1211	0.1846
285.3341	0.1822
285.5471	0.1892
285.7601	0.1889
285.9731	0.1863
286.1861	0.1886
286.3991	0.1891
286.612	0.1874
286.825	0.1917
287.0379	0.1895
287.2508	0.1856
287.4637	0.188
287.6766	0.1835
287.8895	0.1832
288.1024	0.1895
288.3152	0.1859
288.5281	0.1883
288.7409	0.19
288.9538	0.1919
289.1666	0.1863
289.3794	0.1847
289.5922	0.1869
289.8049	0.1908
290.0177	0.1925
290.2304	0.1902
290.4432	0.1918
290.6559	0.1878
290.8686	0.186
291.0813	0.1857
291.294	0.1899
291.5067	0.1886
291.7194	0.1894
291.932	0.1875
292.1447	0.1892
292.3573	0.191
292.5699	0.1919
292.7825	0.1824
292.9951	0.1912
293.2077	0.1871
293.4203	0.1907
293.6328	0.1903
293.8454	0.1875
294.0579	0.19
294.2704	0.1968
294.4829	0.1879
294.6954	0.1939
294.9079	0.1811
295.1204	0.1849
295.3328	0.1939
295.5453	0.1924
295.7577	0.1885
295.9701	0.191
296.1825	0.1915
296.3949	0.1839
296.6073	0.1849
296.8197	0.1918
297.0321	0.1906
297.2444	0.1882
297.4567	0.1912
297.6691	0.1919
297.8814	0.1889
298.0937	0.189
298.306	0.1962
298.5182	0.1901
298.7305	0.1959
298.9428	0.1882
299.155	0.182
299.3672	0.1902
299.5794	0.1894
299.7916	0.189
300.0038	0.1859
300.216	0.1832
300.4282	0.1914
300.6403	0.1922
300.8525	0.1929
301.0646	0.1924
301.2767	0.1934
301.4888	0.1858
301.7009	0.1919
301.913	0.1978
302.125	0.1886
302.3371	0.1893
302.5491	0.1897
302.7612	0.1963
302.9732	0.191
303.1852	0.1855
303.3972	0.1925
303.6092	0.1882
303.8211	0.1836
304.0331	0.1846
304.245	0.1848
304.457	0.1894
304.6689	0.1904
304.8808	0.184
305.0927	0.185
305.3046	0.1865
305.5164	0.1819
305.7283	0.1809
305.9401	0.1728
306.152	0.1773
306.3638	0.1763
306.5756	0.1772
306.7874	0.1787
306.9992	0.1698
307.2109	0.1727
307.4227	0.1703
307.6344	0.1759
307.8462	0.1701
308.0579	0.1732
308.2696	0.1669
308.4813	0.1651
308.693	0.1604
308.9046	0.1624
309.1163	0.1612
309.328	0.1623
309.5396	0.1548
309.7512	0.1488
309.9628	0.1552
310.1744	0.1566
310.386	0.1473
310.5976	0.1473
310.8091	0.1521
311.0207	0.1488
311.2322	0.138
311.4437	0.1462
311.6552	0.1453
311.8667	0.1464
312.0782	0.1408
312.2897	0.1447
312.5012	0.141
312.7126	0.1393
312.924	0.1424
313.1355	0.1353
313.3469	0.1394
313.5583	0.1354
313.7696	0.134
313.981	0.1412
314.1924	0.1339
314.4037	0.1317
314.6151	0.134
314.8264	0.134
315.0377	0.1355
315.249	0.1324
315.4603	0.1296
315.6716	0.1307
315.8828	0.1336
316.0941	0.1326
316.3053	0.1261
316.5165	0.1318
316.7277	0.1263
316.9389	0.1275
317.1501	0.1321
317.3613	0.1269
317.5724	0.1282
317.7836	0.1257
317.9947	0.1248
318.2058	0.1246
318.417	0.1222
318.6281	0.1315
318.8391	0.1313
319.0502	0.1243
319.2613	0.1279
319.4723	0.1291
319.6834	0.1257
319.8944	0.1245
320.1054	0.1294
320.3164	0.1225
320.5274	0.1304
320.7383	0.1289
320.9493	0.1284
321.1602	0.1252
321.3712	0.1285
321.5821	0.1215
321.793	0.1306
322.0039	0.1233
322.2148	0.1264
322.4257	0.1265
322.6365	0.126
322.8474	0.1306
323.0582	0.1254
323.269	0.1286
323.4798	0.1259
323.6906	0.1213
323.9014	0.1287
324.1122	0.1247
324.3229	0.1324
324.5337	0.1311
324.7444	0.1327
324.9551	0.1252
325.1658	0.1321
325.3765	0.1297
325.5872	0.1323
325.7979	0.1287
326.0085	0.1281
326.2192	0.1282
326.4298	0.1303
326.6404	0.133
326.851	0.1312
327.0616	0.1314
327.2722	0.1336
327.4828	0.133
327.6933	0.1401
327.9039	0.1346
328.1144	0.1371
328.3249	0.1341
328.5354	0.1295
328.7459	0.1355
328.9564	0.1305
329.1669	0.1415
329.3773	0.1378
329.5878	0.1334
329.7982	0.1355
330.0086	0.1318
330.219	0.1328
330.4294	0.1419
330.6398	0.1383
330.8502	0.1372
331.0605	0.1381
331.2708	0.1371
331.4812	0.1364
331.6915	0.1389
331.9018	0.1369
332.1121	0.1416
332.3224	0.135
332.5326	0.1392
332.7429	0.1322
332.9531	0.1454
333.1633	0.1367
333.3735	0.1309
333.5837	0.1448
333.7939	0.1427
334.0041	0.1451
334.2143	0.1424
334.4244	0.1438
334.6346	0.1398
334.8447	0.1412
335.0548	0.1439
335.2649	0.1426
335.475	0.1444
335.685	0.1382
335.8951	0.1371
336.1051	0.1487
336.3152	0.142
336.5252	0.1407
336.7352	0.1396
336.9452	0.1399
337.1552	0.142
337.3652	0.1388
337.5751	0.1429
337.7851	0.1369
337.995	0.1413
338.2049	0.1388
338.4148	0.1414
338.6247	0.1404
338.8346	0.1412
339.0445	0.1451
339.2543	0.144
339.4642	0.1382
339.674	0.1387
339.8838	0.1423
340.0936	0.1447
340.3034	0.1408
340.5132	0.1423
340.7229	0.1479
340.9327	0.1481
341.1424	0.1425
341.3522	0.1419
341.5619	0.1531
341.7716	0.1508
341.9813	0.1494
342.1909	0.1497
342.4006	0.1521
342.6102	0.1559
342.8199	0.151
343.0295	0.1487
343.2391	0.1546
343.4487	0.1526
343.6583	0.1592
343.8679	0.153
344.0774	0.1577
344.287	0.1489
344.4965	0.1552
344.706	0.1565
344.9155	0.1562
345.125	0.1578
345.3345	0.1647
345.544	0.1582
345.7534	0.1632
345.9629	0.163
346.1723	0.1607
346.3817	0.163
346.5911	0.1644
346.8005	0.1709
347.0099	0.1667
347.2193	0.1719
347.4286	0.1786
347.638	0.1648
347.8473	0.1752
348.0566	0.1697
348.2659	0.1711
348.4752	0.1656
348.6845	0.1749
348.8937	0.1691
349.103	0.1747
349.3122	0.1764
349.5214	0.1818
349.7306	0.1781
349.9398	0.1749
350.149	0.1747
350.3582	0.1764
350.5674	0.1748
350.7765	0.1771
350.9856	0.1735
351.1948	0.1787
351.4039	0.18
351.613	0.177
351.822	0.182
352.0311	0.176
352.2402	0.1818
352.4492	0.1818
352.6582	0.1756
352.8672	0.1818
353.0762	0.1825
353.2852	0.1757
353.4942	0.1862
353.7032	0.1798
353.9121	0.1853
354.1211	0.1813
354.33	0.1794
354.5389	0.1801
354.7478	0.1803
354.9567	0.1886
355.1655	0.1882
355.3744	0.1839
355.5833	0.1872
355.7921	0.1878
356.0009	0.1851
356.2097	0.1751
356.4185	0.1885
356.6273	0.1885
356.8361	0.1859
357.0448	0.1843
357.2536	0.1871
357.4623	0.1926
357.671	0.1901
357.8797	0.1925
358.0884	0.1849
358.2971	0.1898
358.5057	0.1951
358.7144	0.1894
358.923	0.1983
359.1316	0.2001
359.3402	0.1947
359.5488	0.1894
359.7574	0.1928
359.966	0.194
360.1746	0.1975
360.3831	0.2045
360.5916	0.2009
360.8002	0.2068
361.0087	0.2073
361.2172	0.2056
361.4256	0.2048
361.6341	0.2121
361.8426	0.2035
362.051	0.2107
362.2594	0.2029
362.4678	0.2053
362.6762	0.2075
362.8846	0.2093
363.093	0.2084
363.3014	0.2128
363.5097	0.2115
363.718	0.2101
363.9264	0.2178
364.1347	0.2111
364.343	0.217
364.5513	0.2186
364.7595	0.2306
364.9678	0.2172
365.176	0.2226
365.3842	0.2242
365.5925	0.2211
365.8007	0.2247
366.0089	0.2291
366.217	0.2269
366.4252	0.2189
366.6333	0.2261
366.8415	0.236
367.0496	0.2314
367.2577	0.2324
367.4658	0.2248
367.6739	0.2329
367.882	0.2313
368.09	0.2278
368.2981	0.233
368.5061	0.2395
368.7141	0.229
368.9221	0.2476
369.1301	0.2455
369.3381	0.2515
369.5461	0.2467
369.754	0.2409
369.962	0.2375
370.1699	0.2485
370.3778	0.2536
370.5857	0.2424
370.7936	0.2476
371.0015	0.2482
371.2093	0.2394
371.4172	0.2424
371.625	0.2375
371.8328	0.2385
372.0406	0.2586
372.2484	0.2461
372.4562	0.2531
372.664	0.2457
372.8717	0.2543
373.0795	0.2589
373.2872	0.2665
373.4949	0.2564
373.7026	0.2536
373.9103	0.2539
374.118	0.2648
374.3256	0.263
374.5333	0.2655
374.7409	0.2583
374.9485	0.2606
375.1561	0.2651
375.3637	0.2566
375.5713	0.2624
375.7789	0.2575
375.9864	0.2609
376.194	0.2686
376.4015	0.2654
376.609	0.2618
376.8165	0.2713
377.024	0.2706
377.2315	0.2614
377.4389	0.2615
377.6464	0.2665
377.8538	0.2685
378.0612	0.2781
378.2686	0.2701
378.476	0.2822
378.6834	0.2752
378.8908	0.2827
379.0981	0.274
379.3055	0.2744
379.5128	0.2667
379.7201	0.2851
379.9274	0.2676
380.1347	0.2738
380.342	0.2784
380.5492	0.2802
380.7565	0.2789
380.9637	0.2781
381.1709	0.288
381.3781	0.2764
381.5853	0.2773
381.7925	0.2789
381.9997	0.2936
382.2068	0.2851
382.4139	0.2899
382.6211	0.2891
382.8282	0.2968
383.0353	0.2868
383.2424	0.2878
383.4494	0.2864
383.6565	0.2892
383.8635	0.2918
384.0706	0.2948
384.2776	0.2866
384.4846	0.3015
384.6916	0.2841
384.8986	0.2971
385.1055	0.293
385.3125	0.2998
385.5194	0.2924
385.7263	0.2858
385.9333	0.2945
386.1402	0.2895
386.347	0.2887
386.5539	0.2905
386.7608	0.2937
386.9676	0.2928
387.1744	0.2856
387.3813	0.2903
387.5881	0.2803
387.7948	0.2907
388.0016	0.3059
388.2084	0.2825
388.4151	0.2937
388.6219	0.2821
388.8286	0.2892
389.0353	0.2987
389.242	0.2888
389.4487	0.2919
389.6553	0.2834
389.862	0.2824
390.0686	0.2861
390.2753	0.2879
390.4819	0.2823
390.6885	0.285
390.8951	0.2853
391.1016	0.2888
391.3082	0.281
391.5147	0.2763
391.7213	0.2759
391.9278	0.2734
392.1343	0.2754
392.3408	0.2775
392.5473	0.2779
392.7537	0.2723
392.9602	0.2703
393.1666	0.2739
393.373	0.2659
393.5794	0.265
393.7858	0.2769
393.9922	0.2634
394.1986	0.2764
394.4049	0.2665
394.6113	0.2728
394.8176	0.2635
395.0239	0.2582
395.2302	0.2545
395.4365	0.2634
395.6428	0.2604
395.8491	0.2556
396.0553	0.2534
396.2615	0.2667
396.4678	0.2599
396.674	0.2532
396.8802	0.2473
397.0863	0.2497
397.2925	0.2569
397.4987	0.247
397.7048	0.2545
397.9109	0.2488
398.117	0.2462
398.3231	0.251
398.5292	0.2332
398.7353	0.2504
398.9413	0.2413
399.1474	0.2496
399.3534	0.2494
399.5594	0.2508
399.7654	0.2459
399.9714	0.25
400.1774	0.2431
400.3833	0.252
400.5893	0.2431
400.7952	0.2577
401.0011	0.241
401.207	0.2523
401.4129	0.2442
401.6188	0.2473
401.8247	0.2554
402.0305	0.2438
402.2364	0.2452
402.4422	0.2422
402.648	0.2505
402.8538	0.2396
403.0596	0.2355
403.2654	0.2451
403.4711	0.2441
403.6768	0.2352
403.8826	0.2521
404.0883	0.2463
404.294	0.2567
404.4997	0.2552
404.7054	0.2488
404.911	0.2495
405.1167	0.244
405.3223	0.2354
405.5279	0.2411
405.7335	0.2487
405.9391	0.2476
406.1447	0.2495
406.3502	0.2458
406.5558	0.237
406.7613	0.243
406.9668	0.24
407.1724	0.2518
407.3778	0.2442
407.5833	0.2332
407.7888	0.2452
407.9942	0.2434
408.1997	0.2436
408.4051	0.2463
408.6105	0.246
408.8159	0.2415
409.0213	0.2481
409.2267	0.2461
409.432	0.2518
409.6374	0.2539
409.8427	0.2499
410.048	0.2408
410.2533	0.2457
410.4586	0.2455
410.6639	0.2514
410.8691	0.2366
411.0744	0.2279
411.2796	0.2392
411.4848	0.2565
411.69	0.2447
411.8952	0.2419
412.1004	0.246
412.3056	0.2386
412.5107	0.2409
412.7158	0.2481
412.921	0.2432
413.1261	0.244
413.3312	0.2394
413.5362	0.253
413.7413	0.2479
413.9464	0.2296
414.1514	0.2346
414.3564	0.2282
414.5614	0.2348
414.7664	0.2383
414.9714	0.2311
415.1764	0.2427
415.3813	0.2333
415.5863	0.245
415.7912	0.2274
415.9961	0.2461
416.201	0.2447
416.4059	0.2326
416.6108	0.2291
416.8156	0.2358
417.0205	0.2375
417.2253	0.2335
417.4301	0.2383
417.6349	0.2323
417.8397	0.239
418.0445	0.2315
418.2492	0.2278
418.454	0.2416
418.6587	0.2422
418.8634	0.2311
419.0681	0.2393
419.2728	0.235
419.4775	0.2323
419.6822	0.2332
419.8868	0.2183
420.0915	0.2249
420.2961	0.2204
420.5007	0.2341
420.7053	0.2249
420.9099	0.2313
421.1144	0.2261
421.319	0.2195
421.5235	0.2257
421.728	0.2269
421.9325	0.2267
422.137	0.2257
422.3415	0.2121
422.546	0.218
422.7504	0.2185
422.9549	0.2183
423.1593	0.2092
423.3637	0.2167
423.5681	0.2203
423.7725	0.211
423.9769	0.2169
424.1812	0.2177
424.3856	0.2073
424.5899	0.2091
424.7942	0.2144
424.9985	0.2089
425.2028	0.2182
425.4071	0.2184
425.6113	0.2167
425.8156	0.2053
426.0198	0.2019
426.224	0.2147
426.4282	0.1982
426.6324	0.2044
