Data from D4ACN5uM440nmA_Absorbance_13-50-25-357.txt Node
Date: Fri Feb 21 13:50:25 GMT 2025
User: LASERRRRR
Spectrometer: FLMT03099
Trigger mode: 0
Integration Time (sec): 1.500000E-2
Scans to average: 1
Electric dark correction enabled: true
Nonlinearity correction enabled: false
Boxcar width: 0
XAxis mode: Wavelengths
Number of Pixels in Spectrum: 3648
>>>>>Begin Spectral Data<<<<<
179.3399	-0.5973
179.5586	-0.5973
179.7771	-0.5973
179.9957	0.0084
180.2143	-0.9331
180.4329	-0
180.6514	-0
180.8699	-0
181.0885	-0
181.307	0.0468
181.5255	-0.0953
181.744	-0
181.9625	0.2965
182.181	-0
182.3994	0.5475
182.6179	0.4968
182.8363	0.1037
183.0547	-0
183.2732	0.0943
183.4916	0.3093
183.71	0.4965
183.9284	0.2256
184.1467	0.0151
184.3651	0.2144
184.5835	0.3383
184.8018	0.1544
185.0201	0.9297
185.2385	0.1718
185.4568	0.1913
185.6751	0.164
185.8934	0.2121
186.1117	-0.0561
186.3299	0.2546
186.5482	0.2547
186.7664	0.0859
186.9847	0.0521
187.2029	0.3483
187.4211	0.0691
187.6393	0.186
187.8575	0.2605
188.0757	0.2264
188.2939	0.0647
188.512	0.1942
188.7302	0.1201
188.9483	0.155
189.1665	0.4477
189.3846	0.3398
189.6027	0.0911
189.8208	0.1421
190.0389	0.1534
190.257	-0.0773
190.475	0.083
190.6931	0.009
190.9111	0.0659
191.1292	0.1099
191.3472	0.1456
191.5652	0.1883
191.7832	0.1388
192.0012	0.085
192.2192	0.1663
192.4371	0.1705
192.6551	0.2669
192.873	0.1754
193.091	0.1076
193.3089	0.1822
193.5268	0.2448
193.7447	0.1716
193.9626	0.3244
194.1805	0.2599
194.3984	0.2896
194.6162	0.2523
194.8341	0.4102
195.0519	0.2214
195.2697	0.2687
195.4875	0.2996
195.7054	0.2755
195.9231	0.2307
196.1409	0.3064
196.3587	0.2944
196.5765	0.3093
196.7942	0.2705
197.012	0.3648
197.2297	0.2871
197.4474	0.3759
197.6651	0.3165
197.8828	0.3573
198.1005	0.4017
198.3182	0.3556
198.5358	0.4138
198.7535	0.3642
198.9711	0.324
199.1888	0.384
199.4064	0.3937
199.624	0.3519
199.8416	0.386
200.0592	0.435
200.2767	0.3817
200.4943	0.4468
200.7119	0.4072
200.9294	0.466
201.1469	0.4057
201.3645	0.4337
201.582	0.3608
201.7995	0.4065
202.017	0.413
202.2344	0.4302
202.4519	0.3812
202.6694	0.4148
202.8868	0.37
203.1042	0.3919
203.3217	0.4139
203.5391	0.4049
203.7565	0.3708
203.9739	0.3523
204.1913	0.3921
204.4086	0.3251
204.626	0.3579
204.8433	0.3472
205.0607	0.351
205.278	0.3472
205.4953	0.3665
205.7126	0.3329
205.9299	0.3195
206.1472	0.3252
206.3644	0.3394
206.5817	0.3258
206.7989	0.3384
207.0162	0.2996
207.2334	0.3125
207.4506	0.3036
207.6678	0.2889
207.885	0.2889
208.1022	0.3125
208.3194	0.2754
208.5365	0.3081
208.7537	0.28
208.9708	0.3054
209.1879	0.2989
209.405	0.2733
209.6222	0.2623
209.8392	0.2991
210.0563	0.2906
210.2734	0.2763
210.4905	0.2639
210.7075	0.2636
210.9245	0.2482
211.1416	0.2807
211.3586	0.263
211.5756	0.2518
211.7926	0.2758
212.0096	0.2574
212.2265	0.2572
212.4435	0.2593
212.6604	0.2602
212.8774	0.2561
213.0943	0.2576
213.3112	0.2481
213.5281	0.2491
213.745	0.2369
213.9619	0.2494
214.1788	0.2614
214.3956	0.2386
214.6125	0.2625
214.8293	0.2499
215.0461	0.2548
215.2629	0.2468
215.4798	0.248
215.6965	0.259
215.9133	0.2461
216.1301	0.2468
216.3469	0.2459
216.5636	0.2487
216.7803	0.2397
216.9971	0.2588
217.2138	0.2487
217.4305	0.2514
217.6472	0.247
217.8639	0.2594
218.0805	0.2584
218.2972	0.2382
218.5138	0.2452
218.7305	0.2508
218.9471	0.2464
219.1637	0.2635
219.3803	0.2597
219.5969	0.2523
219.8135	0.2702
220.0301	0.246
220.2466	0.2582
220.4632	0.2507
220.6797	0.2479
220.8962	0.2689
221.1127	0.2592
221.3292	0.2691
221.5457	0.2606
221.7622	0.2632
221.9787	0.2742
222.1951	0.272
222.4116	0.2721
222.628	0.2894
222.8444	0.2793
223.0608	0.2737
223.2772	0.2842
223.4936	0.2911
223.71	0.2887
223.9264	0.274
224.1427	0.2825
224.3591	0.2811
224.5754	0.2832
224.7917	0.3009
225.008	0.3037
225.2243	0.2964
225.4406	0.2819
225.6569	0.3108
225.8732	0.301
226.0894	0.3058
226.3057	0.3216
226.5219	0.3137
226.7381	0.3215
226.9543	0.3087
227.1705	0.3276
227.3867	0.3174
227.6029	0.3383
227.8191	0.3395
228.0352	0.3375
228.2513	0.3484
228.4675	0.3289
228.6836	0.3335
228.8997	0.3414
229.1158	0.3536
229.3319	0.3617
229.548	0.3579
229.764	0.3621
229.9801	0.373
230.1961	0.3702
230.4121	0.3645
230.6282	0.3902
230.8442	0.3916
231.0602	0.3863
231.2761	0.3811
231.4921	0.3882
231.7081	0.3982
231.924	0.3996
232.14	0.4003
232.3559	0.4047
232.5718	0.4224
232.7877	0.4055
233.0036	0.411
233.2195	0.4153
233.4353	0.4127
233.6512	0.4254
233.867	0.4144
234.0829	0.4236
234.2987	0.4251
234.5145	0.4346
234.7303	0.4321
234.9461	0.4278
235.1619	0.4377
235.3776	0.4361
235.5934	0.4362
235.8091	0.4412
236.0249	0.4436
236.2406	0.4431
236.4563	0.447
236.672	0.4436
236.8877	0.4468
237.1034	0.4338
237.319	0.4429
237.5347	0.4533
237.7503	0.4417
237.966	0.4618
238.1816	0.4556
238.3972	0.4578
238.6128	0.4658
238.8284	0.4588
239.0439	0.4601
239.2595	0.4605
239.475	0.4587
239.6906	0.4648
239.9061	0.4625
240.1216	0.4642
240.3371	0.4598
240.5526	0.4663
240.7681	0.4681
240.9836	0.4611
241.199	0.4504
241.4145	0.4483
241.6299	0.449
241.8453	0.4383
242.0607	0.4364
242.2761	0.435
242.4915	0.4245
242.7069	0.4104
242.9223	0.4162
243.1376	0.4107
243.353	0.3958
243.5683	0.4045
243.7836	0.3907
243.9989	0.3721
244.2142	0.3725
244.4295	0.3815
244.6448	0.3665
244.86	0.353
245.0753	0.3521
245.2905	0.3459
245.5057	0.3353
245.721	0.3339
245.9362	0.3322
246.1514	0.3172
246.3665	0.317
246.5817	0.3017
246.7969	0.3001
247.012	0.2906
247.2271	0.2955
247.4423	0.2824
247.6574	0.2853
247.8725	0.2718
248.0876	0.2707
248.3026	0.2639
248.5177	0.2538
248.7328	0.2467
248.9478	0.2575
249.1628	0.245
249.3779	0.242
249.5929	0.245
249.8079	0.2352
250.0228	0.2297
250.2378	0.2311
250.4528	0.2288
250.6677	0.2238
250.8827	0.2168
251.0976	0.2142
251.3125	0.2179
251.5274	0.2077
251.7423	0.2108
251.9572	0.2069
252.172	0.1978
252.3869	0.2061
252.6017	0.2042
252.8166	0.1992
253.0314	0.1957
253.2462	0.1943
253.461	0.196
253.6758	0.194
253.8906	0.1987
254.1053	0.1974
254.3201	0.1964
254.5348	0.1857
254.7496	0.1832
254.9643	0.1922
255.179	0.1862
255.3937	0.1955
255.6083	0.1953
255.823	0.1855
256.0377	0.1875
256.2523	0.1766
256.467	0.1829
256.6816	0.1839
256.8962	0.18
257.1108	0.1819
257.3254	0.1848
257.54	0.1787
257.7545	0.1798
257.9691	0.1889
258.1836	0.1781
258.3981	0.1811
258.6127	0.1647
258.8272	0.1787
259.0417	0.1801
259.2561	0.1728
259.4706	0.1742
259.6851	0.1787
259.8995	0.1742
260.114	0.1735
260.3284	0.1717
260.5428	0.176
260.7572	0.1753
260.9716	0.1778
261.186	0.1738
261.4003	0.1773
261.6147	0.1725
261.829	0.1729
262.0433	0.1776
262.2577	0.1796
262.472	0.1727
262.6863	0.1816
262.9005	0.1749
263.1148	0.1784
263.3291	0.1745
263.5433	0.1831
263.7576	0.1807
263.9718	0.1803
264.186	0.1738
264.4002	0.1822
264.6144	0.189
264.8286	0.1782
265.0427	0.1849
265.2569	0.1797
265.471	0.1784
265.6851	0.1832
265.8993	0.1759
266.1134	0.1808
266.3275	0.1806
266.5415	0.1822
266.7556	0.1829
266.9697	0.1814
267.1837	0.1852
267.3978	0.1873
267.6118	0.1781
267.8258	0.1811
268.0398	0.182
268.2538	0.1861
268.4677	0.1764
268.6817	0.1825
268.8957	0.1721
269.1096	0.1723
269.3235	0.1766
269.5374	0.1801
269.7514	0.1805
269.9652	0.1794
270.1791	0.1701
270.393	0.1739
270.6068	0.1745
270.8207	0.1743
271.0345	0.169
271.2483	0.1663
271.4622	0.1761
271.676	0.1739
271.8897	0.1745
272.1035	0.1805
272.3173	0.179
272.531	0.177
272.7448	0.1754
272.9585	0.1728
273.1722	0.1693
273.3859	0.1722
273.5996	0.1681
273.8133	0.1727
274.0269	0.1715
274.2406	0.1738
274.4542	0.1721
274.6679	0.174
274.8815	0.183
275.0951	0.1781
275.3087	0.1762
275.5223	0.1787
275.7358	0.1782
275.9494	0.18
276.1629	0.1849
276.3765	0.1759
276.59	0.1777
276.8035	0.1755
277.017	0.183
277.2305	0.1829
277.444	0.1783
277.6574	0.1772
277.8709	0.1913
278.0843	0.1789
278.2978	0.1842
278.5112	0.184
278.7246	0.1781
278.938	0.1812
279.1513	0.1836
279.3647	0.1819
279.5781	0.1812
279.7914	0.1791
280.0047	0.1803
280.2181	0.1808
280.4314	0.1826
280.6447	0.1854
280.8579	0.1746
281.0712	0.1854
281.2845	0.1791
281.4977	0.1834
281.711	0.1855
281.9242	0.1807
282.1374	0.1833
282.3506	0.1845
282.5638	0.1761
282.7769	0.1806
282.9901	0.1867
283.2033	0.1802
283.4164	0.1859
283.6295	0.1805
283.8426	0.1777
284.0557	0.1827
284.2688	0.1824
284.4819	0.1759
284.695	0.1917
284.908	0.1873
285.1211	0.1851
285.3341	0.1865
285.5471	0.183
285.7601	0.1862
285.9731	0.1863
286.1861	0.1894
286.3991	0.1914
286.612	0.1876
286.825	0.189
287.0379	0.1863
287.2508	0.1876
287.4637	0.1836
287.6766	0.1854
287.8895	0.1889
288.1024	0.1891
288.3152	0.187
288.5281	0.1878
288.7409	0.1996
288.9538	0.1877
289.1666	0.1881
289.3794	0.1864
289.5922	0.1835
289.8049	0.1885
290.0177	0.1919
290.2304	0.1872
290.4432	0.1917
290.6559	0.1946
290.8686	0.1888
291.0813	0.1845
291.294	0.1898
291.5067	0.1891
291.7194	0.1942
291.932	0.1863
292.1447	0.1914
292.3573	0.1936
292.5699	0.1917
292.7825	0.184
292.9951	0.1858
293.2077	0.1854
293.4203	0.1914
293.6328	0.1866
293.8454	0.1878
294.0579	0.1912
294.2704	0.1905
294.4829	0.1861
294.6954	0.1863
294.9079	0.1901
295.1204	0.1898
295.3328	0.1919
295.5453	0.1905
295.7577	0.1917
295.9701	0.1869
296.1825	0.1933
296.3949	0.1884
296.6073	0.1924
296.8197	0.1899
297.0321	0.1865
297.2444	0.1833
297.4567	0.1914
297.6691	0.1899
297.8814	0.1961
298.0937	0.1862
298.306	0.1865
298.5182	0.1925
298.7305	0.1944
298.9428	0.1948
299.155	0.1869
299.3672	0.1884
299.5794	0.1901
299.7916	0.1851
300.0038	0.1961
300.216	0.1867
300.4282	0.1875
300.6403	0.1965
300.8525	0.1877
301.0646	0.1949
301.2767	0.1898
301.4888	0.1931
301.7009	0.1925
301.913	0.1935
302.125	0.194
302.3371	0.1901
302.5491	0.1913
302.7612	0.1987
302.9732	0.19
303.1852	0.1911
303.3972	0.1914
303.6092	0.1908
303.8211	0.1935
304.0331	0.1864
304.245	0.184
304.457	0.1883
304.6689	0.1889
304.8808	0.1839
305.0927	0.187
305.3046	0.1838
305.5164	0.1833
305.7283	0.1852
305.9401	0.1741
306.152	0.1835
306.3638	0.1809
306.5756	0.1852
306.7874	0.1733
306.9992	0.1695
307.2109	0.1748
307.4227	0.171
307.6344	0.1716
307.8462	0.1719
308.0579	0.1706
308.2696	0.1688
308.4813	0.1691
308.693	0.1631
308.9046	0.1677
309.1163	0.1565
309.328	0.1549
309.5396	0.1501
309.7512	0.1563
309.9628	0.1574
310.1744	0.1554
310.386	0.1488
310.5976	0.1519
310.8091	0.1516
311.0207	0.1473
311.2322	0.1455
311.4437	0.143
311.6552	0.1454
311.8667	0.1415
312.0782	0.1447
312.2897	0.142
312.5012	0.1378
312.7126	0.1336
312.924	0.1442
313.1355	0.1341
313.3469	0.1367
313.5583	0.1338
313.7696	0.1297
313.981	0.1338
314.1924	0.1343
314.4037	0.1304
314.6151	0.1314
314.8264	0.133
315.0377	0.1272
315.249	0.1365
315.4603	0.1247
315.6716	0.133
315.8828	0.1299
316.0941	0.1352
316.3053	0.1254
316.5165	0.1336
316.7277	0.1252
316.9389	0.1257
317.1501	0.126
317.3613	0.1224
317.5724	0.1211
317.7836	0.1232
317.9947	0.1262
318.2058	0.1267
318.417	0.1227
318.6281	0.1245
318.8391	0.1273
319.0502	0.1233
319.2613	0.1216
319.4723	0.1208
319.6834	0.1312
319.8944	0.1191
320.1054	0.1253
320.3164	0.122
320.5274	0.1268
320.7383	0.1235
320.9493	0.1197
321.1602	0.1236
321.3712	0.1221
321.5821	0.1222
321.793	0.1345
322.0039	0.1244
322.2148	0.13
322.4257	0.124
322.6365	0.1205
322.8474	0.1291
323.0582	0.1291
323.269	0.1273
323.4798	0.1285
323.6906	0.1205
323.9014	0.1229
324.1122	0.1214
324.3229	0.1357
324.5337	0.1308
324.7444	0.1337
324.9551	0.1258
325.1658	0.1289
325.3765	0.1311
325.5872	0.1322
325.7979	0.1279
326.0085	0.126
326.2192	0.1242
326.4298	0.1308
326.6404	0.1333
326.851	0.1276
327.0616	0.1272
327.2722	0.1241
327.4828	0.1273
327.6933	0.1433
327.9039	0.1305
328.1144	0.1283
328.3249	0.1355
328.5354	0.1371
328.7459	0.1387
328.9564	0.1327
329.1669	0.1376
329.3773	0.1338
329.5878	0.1312
329.7982	0.1385
330.0086	0.1326
330.219	0.1298
330.4294	0.137
330.6398	0.1363
330.8502	0.1422
331.0605	0.139
331.2708	0.1354
331.4812	0.1353
331.6915	0.135
331.9018	0.1361
332.1121	0.1436
332.3224	0.1327
332.5326	0.1348
332.7429	0.1358
332.9531	0.1421
333.1633	0.1328
333.3735	0.1348
333.5837	0.134
333.7939	0.1363
334.0041	0.136
334.2143	0.1375
334.4244	0.1423
334.6346	0.1344
334.8447	0.1357
335.0548	0.1416
335.2649	0.1388
335.475	0.1383
335.685	0.1406
335.8951	0.1326
336.1051	0.1408
336.3152	0.1411
336.5252	0.1401
336.7352	0.1387
336.9452	0.1413
337.1552	0.1382
337.3652	0.1338
337.5751	0.1352
337.7851	0.1433
337.995	0.1443
338.2049	0.1381
338.4148	0.1433
338.6247	0.141
338.8346	0.1408
339.0445	0.1398
339.2543	0.1425
339.4642	0.1429
339.674	0.1436
339.8838	0.1435
340.0936	0.1394
340.3034	0.1367
340.5132	0.1392
340.7229	0.1488
340.9327	0.1488
341.1424	0.1389
341.3522	0.1408
341.5619	0.1474
341.7716	0.1476
341.9813	0.1447
342.1909	0.1542
342.4006	0.1457
342.6102	0.1463
342.8199	0.1526
343.0295	0.1495
343.2391	0.1516
343.4487	0.1613
343.6583	0.1618
343.8679	0.1538
344.0774	0.1475
344.287	0.1552
344.4965	0.1608
344.706	0.1566
344.9155	0.1533
345.125	0.1543
345.3345	0.161
345.544	0.1625
345.7534	0.1598
345.9629	0.1599
346.1723	0.1652
346.3817	0.157
346.5911	0.1604
346.8005	0.1693
347.0099	0.1649
347.2193	0.1704
347.4286	0.1726
347.638	0.1625
347.8473	0.1693
348.0566	0.1659
348.2659	0.1706
348.4752	0.1638
348.6845	0.176
348.8937	0.1793
349.103	0.1703
349.3122	0.1701
349.5214	0.1729
349.7306	0.1774
349.9398	0.1709
350.149	0.1654
350.3582	0.175
350.5674	0.1749
350.7765	0.1782
350.9856	0.169
351.1948	0.1752
351.4039	0.1797
351.613	0.1771
351.822	0.1825
352.0311	0.1772
352.2402	0.1796
352.4492	0.1833
352.6582	0.1821
352.8672	0.1856
353.0762	0.1844
353.2852	0.1819
353.4942	0.1835
353.7032	0.1808
353.9121	0.1845
354.1211	0.1915
354.33	0.1838
354.5389	0.1778
354.7478	0.1869
354.9567	0.1873
355.1655	0.1813
355.3744	0.1813
355.5833	0.1869
355.7921	0.189
356.0009	0.1867
356.2097	0.1853
356.4185	0.1884
356.6273	0.1901
356.8361	0.1884
357.0448	0.1928
357.2536	0.186
357.4623	0.1933
357.671	0.185
357.8797	0.1945
358.0884	0.1908
358.2971	0.1862
358.5057	0.1956
358.7144	0.1898
358.923	0.2053
359.1316	0.1998
359.3402	0.1976
359.5488	0.1996
359.7574	0.2084
359.966	0.1993
360.1746	0.1935
360.3831	0.2055
360.5916	0.2026
360.8002	0.2099
361.0087	0.1944
361.2172	0.2078
361.4256	0.2085
361.6341	0.2077
361.8426	0.2048
362.051	0.207
362.2594	0.1997
362.4678	0.214
362.6762	0.2132
362.8846	0.2131
363.093	0.2107
363.3014	0.2213
363.5097	0.2167
363.718	0.2203
363.9264	0.2134
364.1347	0.222
364.343	0.2206
364.5513	0.2169
364.7595	0.2254
364.9678	0.2227
365.176	0.2275
365.3842	0.2302
365.5925	0.2241
365.8007	0.2262
366.0089	0.2324
366.217	0.225
366.4252	0.2277
366.6333	0.2258
366.8415	0.2288
367.0496	0.2264
367.2577	0.2314
367.4658	0.229
367.6739	0.2319
367.882	0.2347
368.09	0.233
368.2981	0.2385
368.5061	0.2412
368.7141	0.2327
368.9221	0.2494
369.1301	0.2458
369.3381	0.2441
369.5461	0.2442
369.754	0.2422
369.962	0.2403
370.1699	0.2503
370.3778	0.252
370.5857	0.2461
370.7936	0.2438
371.0015	0.2499
371.2093	0.2462
371.4172	0.2466
371.625	0.25
371.8328	0.2415
372.0406	0.2546
372.2484	0.2498
372.4562	0.2561
372.664	0.2551
372.8717	0.2569
373.0795	0.2624
373.2872	0.2628
373.4949	0.2555
373.7026	0.2544
373.9103	0.251
374.118	0.2636
374.3256	0.2572
374.5333	0.2571
374.7409	0.266
374.9485	0.2604
375.1561	0.2681
375.3637	0.2652
375.5713	0.2596
375.7789	0.2636
375.9864	0.2624
376.194	0.2729
376.4015	0.2633
376.609	0.2653
376.8165	0.273
377.024	0.2702
377.2315	0.2741
377.4389	0.2676
377.6464	0.2725
377.8538	0.2744
378.0612	0.2818
378.2686	0.2742
378.476	0.2807
378.6834	0.2723
378.8908	0.2809
379.0981	0.2759
379.3055	0.2822
379.5128	0.2764
379.7201	0.2784
379.9274	0.2789
380.1347	0.2704
380.342	0.2823
380.5492	0.2892
380.7565	0.2808
380.9637	0.2826
381.1709	0.2786
381.3781	0.2925
381.5853	0.2831
381.7925	0.2884
381.9997	0.2787
382.2068	0.287
382.4139	0.2855
382.6211	0.2892
382.8282	0.2856
383.0353	0.2951
383.2424	0.2843
383.4494	0.2969
383.6565	0.2953
383.8635	0.2858
384.0706	0.2927
384.2776	0.2976
384.4846	0.3032
384.6916	0.286
384.8986	0.2933
385.1055	0.3019
385.3125	0.2925
385.5194	0.3011
385.7263	0.2957
385.9333	0.2946
386.1402	0.2919
386.347	0.288
386.5539	0.2916
386.7608	0.2919
386.9676	0.2938
387.1744	0.2944
387.3813	0.2956
387.5881	0.2893
387.7948	0.2989
388.0016	0.3013
388.2084	0.2983
388.4151	0.2883
388.6219	0.296
388.8286	0.297
389.0353	0.2956
389.242	0.2983
389.4487	0.2899
389.6553	0.2873
389.862	0.2807
390.0686	0.2982
390.2753	0.2804
390.4819	0.2841
390.6885	0.2894
390.8951	0.29
391.1016	0.2803
391.3082	0.283
391.5147	0.2837
391.7213	0.2839
391.9278	0.2739
392.1343	0.2795
392.3408	0.2772
392.5473	0.2829
392.7537	0.2737
392.9602	0.2652
393.1666	0.2794
393.373	0.2705
393.5794	0.2799
393.7858	0.2769
393.9922	0.2621
394.1986	0.2696
394.4049	0.275
394.6113	0.2713
394.8176	0.2601
395.0239	0.2685
395.2302	0.2578
395.4365	0.2748
395.6428	0.2633
395.8491	0.2624
396.0553	0.2635
396.2615	0.2605
396.4678	0.2653
396.674	0.2536
396.8802	0.2645
397.0863	0.2592
397.2925	0.2572
397.4987	0.2481
397.7048	0.2561
397.9109	0.2519
398.117	0.2511
398.3231	0.2541
398.5292	0.2469
398.7353	0.2444
398.9413	0.2586
399.1474	0.2567
399.3534	0.2556
399.5594	0.2595
399.7654	0.2609
399.9714	0.2621
400.1774	0.2483
400.3833	0.2515
400.5893	0.2488
400.7952	0.2557
401.0011	0.259
401.207	0.2538
401.4129	0.2574
401.6188	0.2493
401.8247	0.2598
402.0305	0.24
402.2364	0.2554
402.4422	0.2443
402.648	0.2588
402.8538	0.2591
403.0596	0.2592
403.2654	0.2471
403.4711	0.2495
403.6768	0.238
403.8826	0.2532
404.0883	0.2602
404.294	0.2487
404.4997	0.243
404.7054	0.2574
404.911	0.2415
405.1167	0.2559
405.3223	0.2479
405.5279	0.24
405.7335	0.2479
405.9391	0.2507
406.1447	0.2527
406.3502	0.2463
406.5558	0.2449
406.7613	0.2514
406.9668	0.2512
407.1724	0.2417
407.3778	0.2537
407.5833	0.2358
407.7888	0.257
407.9942	0.2472
408.1997	0.2499
408.4051	0.2546
408.6105	0.2553
408.8159	0.2433
409.0213	0.2581
409.2267	0.2524
409.432	0.2503
409.6374	0.2462
409.8427	0.2569
410.048	0.2447
410.2533	0.2515
410.4586	0.244
410.6639	0.2437
410.8691	0.2459
411.0744	0.2447
411.2796	0.2469
411.4848	0.2556
411.69	0.2403
411.8952	0.2552
412.1004	0.2554
412.3056	0.2371
412.5107	0.253
412.7158	0.2638
412.921	0.2546
413.1261	0.2462
413.3312	0.2561
413.5362	0.2621
413.7413	0.2484
413.9464	0.2351
414.1514	0.2443
414.3564	0.2357
414.5614	0.2473
414.7664	0.2371
414.9714	0.2406
415.1764	0.2506
415.3813	0.2428
415.5863	0.2556
415.7912	0.246
415.9961	0.2461
416.201	0.2468
416.4059	0.2488
416.6108	0.2447
416.8156	0.2315
417.0205	0.2426
417.2253	0.2462
417.4301	0.2428
417.6349	0.243
417.8397	0.2436
418.0445	0.2417
418.2492	0.2333
418.454	0.2361
418.6587	0.2431
418.8634	0.239
419.0681	0.2445
419.2728	0.2368
419.4775	0.2495
419.6822	0.2354
419.8868	0.2335
420.0915	0.2348
420.2961	0.2265
420.5007	0.2452
420.7053	0.2261
420.9099	0.2354
421.1144	0.2292
421.319	0.2218
421.5235	0.2278
421.728	0.2385
421.9325	0.2383
422.137	0.2282
422.3415	0.2208
422.546	0.2222
422.7504	0.2208
422.9549	0.2228
423.1593	0.215
423.3637	0.2239
423.5681	0.2263
423.7725	0.224
423.9769	0.2205
424.1812	0.2157
424.3856	0.218
424.5899	0.2176
424.7942	0.2225
424.9985	0.2132
425.2028	0.2278
425.4071	0.2138
425.6113	0.2162
425.8156	0.2058
426.0198	0.2082
426.224	0.2098
426.4282	0.2046
426.6324	0.2077
426.8366	0.2067
