Data from D4ACN5uM440nmA_Absorbance_13-50-26-557.txt Node
Date: Fri Feb 21 13:50:26 GMT 2025
User: LASERRRRR
Spectrometer: FLMT03099
Trigger mode: 0
Integration Time (sec): 1.500000E-2
Scans to average: 1
Electric dark correction enabled: true
Nonlinearity correction enabled: false
Boxcar width: 0
XAxis mode: Wavelengths
Number of Pixels in Spectrum: 3648
>>>>>Begin Spectral Data<<<<<
179.3399	0.0296
179.5586	0.0296
179.7771	0.0296
179.9957	-0.1588
180.2143	-0
180.4329	-0.1739
180.6514	-0
180.8699	-0
181.0885	-0
181.307	0.3221
181.5255	-0.0525
181.744	-0
181.9625	-0
182.181	-0
182.3994	-0.3917
182.6179	-0.3863
182.8363	0.0102
183.0547	-0.0084
183.2732	0.174
183.4916	0.3639
183.71	0.1093
183.9284	0.0918
184.1467	0.107
184.3651	0.2069
184.5835	0.2056
184.8018	0.1703
185.0201	-0.0604
185.2385	0.421
185.4568	0.1126
185.6751	0.2017
185.8934	0.4273
186.1117	-0.0305
186.3299	0.0261
186.5482	0.2048
186.7664	0.2365
186.9847	0.0118
187.2029	0.3291
187.4211	-0.0054
187.6393	0.0744
187.8575	0.3178
188.0757	0.3867
188.2939	-0.0057
188.512	0.0611
188.7302	0.2043
188.9483	0.1871
189.1665	0.3022
189.3846	0.1025
189.6027	0.0651
189.8208	0.5392
190.0389	0.416
190.257	0.2341
190.475	0.1372
190.6931	0.0943
190.9111	0.1575
191.1292	0.1869
191.3472	0.1977
191.5652	0.2256
191.7832	0.1286
192.0012	0.2024
192.2192	0.318
192.4371	0.1847
192.6551	0.3035
192.873	0.1913
193.091	0.2178
193.3089	0.2059
193.5268	0.2985
193.7447	0.183
193.9626	0.2507
194.1805	0.2527
194.3984	0.2942
194.6162	0.2931
194.8341	0.2707
195.0519	0.3559
195.2697	0.2895
195.4875	0.3313
195.7054	0.2705
195.9231	0.3107
196.1409	0.3656
196.3587	0.3354
196.5765	0.3723
196.7942	0.3623
197.012	0.3955
197.2297	0.2513
197.4474	0.415
197.6651	0.3614
197.8828	0.3041
198.1005	0.3596
198.3182	0.3954
198.5358	0.4084
198.7535	0.4224
198.9711	0.4055
199.1888	0.3694
199.4064	0.4571
199.624	0.3803
199.8416	0.3784
200.0592	0.4249
200.2767	0.3856
200.4943	0.4602
200.7119	0.4401
200.9294	0.4335
201.1469	0.4956
201.3645	0.4079
201.582	0.3646
201.7995	0.3965
202.017	0.4236
202.2344	0.4191
202.4519	0.3888
202.6694	0.4129
202.8868	0.4105
203.1042	0.4005
203.3217	0.3675
203.5391	0.4021
203.7565	0.3843
203.9739	0.3415
204.1913	0.345
204.4086	0.3233
204.626	0.384
204.8433	0.3902
205.0607	0.3768
205.278	0.3653
205.4953	0.3531
205.7126	0.3263
205.9299	0.3419
206.1472	0.3334
206.3644	0.3424
206.5817	0.3163
206.7989	0.3379
207.0162	0.3283
207.2334	0.3243
207.4506	0.3061
207.6678	0.288
207.885	0.3219
208.1022	0.294
208.3194	0.3083
208.5365	0.2984
208.7537	0.2891
208.9708	0.3033
209.1879	0.3072
209.405	0.3004
209.6222	0.2956
209.8392	0.279
210.0563	0.2866
210.2734	0.2927
210.4905	0.2813
210.7075	0.2786
210.9245	0.2751
211.1416	0.2707
211.3586	0.2927
211.5756	0.2433
211.7926	0.2534
212.0096	0.2748
212.2265	0.2507
212.4435	0.2842
212.6604	0.2607
212.8774	0.2473
213.0943	0.2637
213.3112	0.2367
213.5281	0.2454
213.745	0.2413
213.9619	0.2427
214.1788	0.2579
214.3956	0.2524
214.6125	0.2512
214.8293	0.2437
215.0461	0.2347
215.2629	0.2721
215.4798	0.2617
215.6965	0.247
215.9133	0.238
216.1301	0.2379
216.3469	0.2477
216.5636	0.2454
216.7803	0.2403
216.9971	0.2383
217.2138	0.2455
217.4305	0.2433
217.6472	0.2538
217.8639	0.2465
218.0805	0.2592
218.2972	0.2491
218.5138	0.2589
218.7305	0.2553
218.9471	0.2263
219.1637	0.2696
219.3803	0.2534
219.5969	0.2554
219.8135	0.2602
220.0301	0.2678
220.2466	0.2485
220.4632	0.2466
220.6797	0.2517
220.8962	0.2599
221.1127	0.2644
221.3292	0.2671
221.5457	0.2801
221.7622	0.2742
221.9787	0.2746
222.1951	0.2753
222.4116	0.2613
222.628	0.2858
222.8444	0.2744
223.0608	0.275
223.2772	0.283
223.4936	0.2742
223.71	0.2767
223.9264	0.2815
224.1427	0.2747
224.3591	0.2848
224.5754	0.3029
224.7917	0.2885
225.008	0.2982
225.2243	0.2994
225.4406	0.29
225.6569	0.3115
225.8732	0.3166
226.0894	0.3126
226.3057	0.3062
226.5219	0.314
226.7381	0.32
226.9543	0.3178
227.1705	0.3072
227.3867	0.3175
227.6029	0.3266
227.8191	0.3308
228.0352	0.3325
228.2513	0.3436
228.4675	0.3431
228.6836	0.3434
228.8997	0.3409
229.1158	0.3496
229.3319	0.375
229.548	0.3524
229.764	0.3564
229.9801	0.383
230.1961	0.3745
230.4121	0.3689
230.6282	0.3834
230.8442	0.3876
231.0602	0.3901
231.2761	0.3837
231.4921	0.3891
231.7081	0.3898
231.924	0.4001
232.14	0.3952
232.3559	0.4037
232.5718	0.4152
232.7877	0.4029
233.0036	0.3998
233.2195	0.4159
233.4353	0.4192
233.6512	0.4212
233.867	0.4302
234.0829	0.4274
234.2987	0.4291
234.5145	0.4395
234.7303	0.4322
234.9461	0.4376
235.1619	0.4353
235.3776	0.4412
235.5934	0.4377
235.8091	0.4457
236.0249	0.4434
236.2406	0.4559
236.4563	0.4485
236.672	0.4389
236.8877	0.4477
237.1034	0.4475
237.319	0.4388
237.5347	0.4491
237.7503	0.4447
237.966	0.4507
238.1816	0.448
238.3972	0.4567
238.6128	0.4621
238.8284	0.4663
239.0439	0.4515
239.2595	0.46
239.475	0.4637
239.6906	0.4647
239.9061	0.4556
240.1216	0.4616
240.3371	0.4619
240.5526	0.4579
240.7681	0.4598
240.9836	0.4605
241.199	0.4599
241.4145	0.4441
241.6299	0.4522
241.8453	0.4407
242.0607	0.4451
242.2761	0.4341
242.4915	0.4287
242.7069	0.4153
242.9223	0.4316
243.1376	0.4125
243.353	0.3972
243.5683	0.4035
243.7836	0.3941
243.9989	0.3877
244.2142	0.3833
244.4295	0.3853
244.6448	0.3715
244.86	0.3595
245.0753	0.3515
245.2905	0.3485
245.5057	0.3422
245.721	0.3371
245.9362	0.3372
246.1514	0.3207
246.3665	0.3172
246.5817	0.3043
246.7969	0.3064
247.012	0.2892
247.2271	0.296
247.4423	0.2863
247.6574	0.2881
247.8725	0.2823
248.0876	0.2683
248.3026	0.2739
248.5177	0.2594
248.7328	0.2574
248.9478	0.2531
249.1628	0.2524
249.3779	0.2403
249.5929	0.2381
249.8079	0.2416
250.0228	0.2332
250.2378	0.2355
250.4528	0.2299
250.6677	0.228
250.8827	0.2202
251.0976	0.2232
251.3125	0.2221
251.5274	0.2184
251.7423	0.2102
251.9572	0.2097
252.172	0.2019
252.3869	0.2068
252.6017	0.2016
252.8166	0.2025
253.0314	0.1959
253.2462	0.1996
253.461	0.198
253.6758	0.1965
253.8906	0.1914
254.1053	0.1966
254.3201	0.1966
254.5348	0.1856
254.7496	0.1795
254.9643	0.1914
255.179	0.1845
255.3937	0.1905
255.6083	0.1912
255.823	0.1878
256.0377	0.1845
256.2523	0.1854
256.467	0.1931
256.6816	0.1825
256.8962	0.1832
257.1108	0.1826
257.3254	0.1887
257.54	0.1731
257.7545	0.1853
257.9691	0.1837
258.1836	0.1752
258.3981	0.1828
258.6127	0.1764
258.8272	0.1827
259.0417	0.1771
259.2561	0.1781
259.4706	0.1834
259.6851	0.1769
259.8995	0.1754
260.114	0.1765
260.3284	0.1752
260.5428	0.178
260.7572	0.1792
260.9716	0.1822
261.186	0.1722
261.4003	0.1753
261.6147	0.1781
261.829	0.1764
262.0433	0.1799
262.2577	0.1812
262.472	0.1798
262.6863	0.1808
262.9005	0.1779
263.1148	0.1767
263.3291	0.1831
263.5433	0.1821
263.7576	0.1819
263.9718	0.1817
264.186	0.1824
264.4002	0.181
264.6144	0.1907
264.8286	0.1856
265.0427	0.187
265.2569	0.1859
265.471	0.1862
265.6851	0.188
265.8993	0.1806
266.1134	0.188
266.3275	0.1897
266.5415	0.1867
266.7556	0.1875
266.9697	0.1925
267.1837	0.1873
267.3978	0.1901
267.6118	0.1825
267.8258	0.1871
268.0398	0.1893
268.2538	0.1846
268.4677	0.1847
268.6817	0.1861
268.8957	0.1816
269.1096	0.1777
269.3235	0.1861
269.5374	0.1886
269.7514	0.1852
269.9652	0.1909
270.1791	0.1804
270.393	0.1819
270.6068	0.183
270.8207	0.1795
271.0345	0.1763
271.2483	0.1739
271.4622	0.1784
271.676	0.1758
271.8897	0.1777
272.1035	0.1857
272.3173	0.1747
272.531	0.1805
272.7448	0.1808
272.9585	0.1752
273.1722	0.18
273.3859	0.1845
273.5996	0.1842
273.8133	0.1817
274.0269	0.1781
274.2406	0.1828
274.4542	0.1829
274.6679	0.1817
274.8815	0.1884
275.0951	0.1943
275.3087	0.1914
275.5223	0.1866
275.7358	0.1933
275.9494	0.1943
276.1629	0.1958
276.3765	0.1944
276.59	0.1833
276.8035	0.1945
277.017	0.1948
277.2305	0.1944
277.444	0.1917
277.6574	0.1951
277.8709	0.1987
278.0843	0.1955
278.2978	0.1924
278.5112	0.1948
278.7246	0.1919
278.938	0.1954
279.1513	0.1928
279.3647	0.1968
279.5781	0.1925
279.7914	0.1967
280.0047	0.1945
280.2181	0.1888
280.4314	0.1913
280.6447	0.1941
280.8579	0.187
281.0712	0.1821
281.2845	0.1887
281.4977	0.1887
281.711	0.1868
281.9242	0.1886
282.1374	0.1952
282.3506	0.1896
282.5638	0.1862
282.7769	0.1874
282.9901	0.1809
283.2033	0.1879
283.4164	0.1837
283.6295	0.1871
283.8426	0.1857
284.0557	0.1896
284.2688	0.1903
284.4819	0.1864
284.695	0.1863
284.908	0.1854
285.1211	0.1851
285.3341	0.1859
285.5471	0.1853
285.7601	0.187
285.9731	0.1903
286.1861	0.1851
286.3991	0.188
286.612	0.1891
286.825	0.1884
287.0379	0.1834
287.2508	0.1907
287.4637	0.1864
287.6766	0.1839
287.8895	0.1855
288.1024	0.1917
288.3152	0.1938
288.5281	0.1827
288.7409	0.1876
288.9538	0.1875
289.1666	0.1858
289.3794	0.1869
289.5922	0.1842
289.8049	0.1891
290.0177	0.187
290.2304	0.1882
290.4432	0.19
290.6559	0.1878
290.8686	0.1843
291.0813	0.1887
291.294	0.1878
291.5067	0.1865
291.7194	0.1841
291.932	0.1796
292.1447	0.1883
292.3573	0.1879
292.5699	0.1897
292.7825	0.1858
292.9951	0.1904
293.2077	0.1848
293.4203	0.1837
293.6328	0.1855
293.8454	0.1882
294.0579	0.1822
294.2704	0.1923
294.4829	0.1792
294.6954	0.1867
294.9079	0.1846
295.1204	0.1823
295.3328	0.1929
295.5453	0.1889
295.7577	0.1888
295.9701	0.1892
296.1825	0.1923
296.3949	0.1845
296.6073	0.1835
296.8197	0.186
297.0321	0.1864
297.2444	0.1863
297.4567	0.1878
297.6691	0.1823
297.8814	0.1861
298.0937	0.1892
298.306	0.1824
298.5182	0.1883
298.7305	0.1849
298.9428	0.1836
299.155	0.1754
299.3672	0.1816
299.5794	0.1862
299.7916	0.1887
300.0038	0.1897
300.216	0.1845
300.4282	0.1853
300.6403	0.1923
300.8525	0.1865
301.0646	0.1848
301.2767	0.1828
301.4888	0.1832
301.7009	0.1874
301.913	0.1899
302.125	0.1834
302.3371	0.1847
302.5491	0.1959
302.7612	0.1922
302.9732	0.1928
303.1852	0.1855
303.3972	0.1808
303.6092	0.1847
303.8211	0.1854
304.0331	0.1884
304.245	0.1832
304.457	0.1831
304.6689	0.1876
304.8808	0.1819
305.0927	0.1905
305.3046	0.1819
305.5164	0.1819
305.7283	0.1838
305.9401	0.1732
306.152	0.1746
306.3638	0.1736
306.5756	0.1782
306.7874	0.1702
306.9992	0.1722
307.2109	0.1698
307.4227	0.1676
307.6344	0.1736
307.8462	0.1677
308.0579	0.174
308.2696	0.1681
308.4813	0.1665
308.693	0.1639
308.9046	0.1699
309.1163	0.1594
309.328	0.1626
309.5396	0.1572
309.7512	0.1541
309.9628	0.1518
310.1744	0.1488
310.386	0.1469
310.5976	0.1491
310.8091	0.1529
311.0207	0.1475
311.2322	0.1512
311.4437	0.1468
311.6552	0.1486
311.8667	0.1478
312.0782	0.1456
312.2897	0.1443
312.5012	0.1424
312.7126	0.1388
312.924	0.1461
313.1355	0.1387
313.3469	0.1381
313.5583	0.1355
313.7696	0.1324
313.981	0.14
314.1924	0.1342
314.4037	0.1385
314.6151	0.1341
314.8264	0.1375
315.0377	0.1365
315.249	0.1372
315.4603	0.131
315.6716	0.1365
315.8828	0.1337
316.0941	0.1373
316.3053	0.1333
316.5165	0.139
316.7277	0.1317
316.9389	0.1319
317.1501	0.1335
317.3613	0.1339
317.5724	0.133
317.7836	0.1255
317.9947	0.1324
318.2058	0.1323
318.417	0.1274
318.6281	0.1264
318.8391	0.1286
319.0502	0.1281
319.2613	0.1323
319.4723	0.1278
319.6834	0.134
319.8944	0.1287
320.1054	0.1361
320.3164	0.1233
320.5274	0.1327
320.7383	0.129
320.9493	0.1284
321.1602	0.128
321.3712	0.1291
321.5821	0.1293
321.793	0.1322
322.0039	0.1326
322.2148	0.1371
322.4257	0.1319
322.6365	0.1307
322.8474	0.1385
323.0582	0.1318
323.269	0.1351
323.4798	0.1315
323.6906	0.1284
323.9014	0.1286
324.1122	0.1283
324.3229	0.1349
324.5337	0.1344
324.7444	0.1303
324.9551	0.1336
325.1658	0.1295
325.3765	0.1364
325.5872	0.1305
325.7979	0.1359
326.0085	0.1347
326.2192	0.1279
326.4298	0.1393
326.6404	0.1403
326.851	0.1393
327.0616	0.1434
327.2722	0.135
327.4828	0.1399
327.6933	0.143
327.9039	0.1345
328.1144	0.1396
328.3249	0.1406
328.5354	0.1412
328.7459	0.1415
328.9564	0.1439
329.1669	0.1433
329.3773	0.1434
329.5878	0.1409
329.7982	0.1442
330.0086	0.1456
330.219	0.1458
330.4294	0.1435
330.6398	0.1436
330.8502	0.1455
331.0605	0.1434
331.2708	0.1432
331.4812	0.1466
331.6915	0.148
331.9018	0.1463
332.1121	0.1481
332.3224	0.1436
332.5326	0.1445
332.7429	0.1418
332.9531	0.1485
333.1633	0.1392
333.3735	0.1483
333.5837	0.143
333.7939	0.1459
334.0041	0.1476
334.2143	0.1334
334.4244	0.15
334.6346	0.1435
334.8447	0.147
335.0548	0.1476
335.2649	0.1491
335.475	0.1483
335.685	0.1478
335.8951	0.1449
336.1051	0.1452
336.3152	0.1485
336.5252	0.1419
336.7352	0.1446
336.9452	0.1532
337.1552	0.1466
337.3652	0.1426
337.5751	0.1481
337.7851	0.1431
337.995	0.1526
338.2049	0.151
338.4148	0.1538
338.6247	0.149
338.8346	0.141
339.0445	0.1532
339.2543	0.1483
339.4642	0.1477
339.674	0.1517
339.8838	0.1451
340.0936	0.1494
340.3034	0.1444
340.5132	0.1466
340.7229	0.1506
340.9327	0.1551
341.1424	0.145
341.3522	0.1455
341.5619	0.1539
341.7716	0.1535
341.9813	0.1572
342.1909	0.1562
342.4006	0.1572
342.6102	0.1517
342.8199	0.1567
343.0295	0.1528
343.2391	0.1588
343.4487	0.1538
343.6583	0.1669
343.8679	0.1553
344.0774	0.1596
344.287	0.1623
344.4965	0.1606
344.706	0.1602
344.9155	0.1639
345.125	0.158
345.3345	0.165
345.544	0.1612
345.7534	0.1693
345.9629	0.1647
346.1723	0.1747
346.3817	0.1703
346.5911	0.1659
346.8005	0.1736
347.0099	0.1693
347.2193	0.1788
347.4286	0.1774
347.638	0.1753
347.8473	0.1827
348.0566	0.1787
348.2659	0.1766
348.4752	0.1739
348.6845	0.1779
348.8937	0.1788
349.103	0.1768
349.3122	0.1775
349.5214	0.1758
349.7306	0.1787
349.9398	0.1779
350.149	0.1827
350.3582	0.183
350.5674	0.184
350.7765	0.1875
350.9856	0.1787
351.1948	0.1816
351.4039	0.1903
351.613	0.1808
351.822	0.1871
352.0311	0.1835
352.2402	0.1836
352.4492	0.1785
352.6582	0.1847
352.8672	0.1939
353.0762	0.1871
353.2852	0.1851
353.4942	0.1886
353.7032	0.1829
353.9121	0.1881
354.1211	0.1867
354.33	0.1901
354.5389	0.1856
354.7478	0.1831
354.9567	0.1905
355.1655	0.1807
355.3744	0.1833
355.5833	0.1886
355.7921	0.1831
356.0009	0.1886
356.2097	0.1819
356.4185	0.1866
356.6273	0.1877
356.8361	0.1865
357.0448	0.1829
357.2536	0.1879
357.4623	0.1848
357.671	0.1917
357.8797	0.1878
358.0884	0.1809
358.2971	0.192
358.5057	0.1897
358.7144	0.183
358.923	0.1985
359.1316	0.1895
359.3402	0.2015
359.5488	0.1876
359.7574	0.2085
359.966	0.1946
360.1746	0.1941
360.3831	0.2016
360.5916	0.1953
360.8002	0.2061
361.0087	0.1942
361.2172	0.2005
361.4256	0.2039
361.6341	0.2014
361.8426	0.1992
362.051	0.2057
362.2594	0.2016
362.4678	0.2019
362.6762	0.206
362.8846	0.2064
363.093	0.2008
363.3014	0.2138
363.5097	0.2069
363.718	0.2045
363.9264	0.2107
364.1347	0.2132
364.343	0.2104
364.5513	0.2092
364.7595	0.2153
364.9678	0.2053
365.176	0.2107
365.3842	0.2149
365.5925	0.2175
365.8007	0.2154
366.0089	0.2178
366.217	0.2174
366.4252	0.2184
366.6333	0.2173
366.8415	0.2215
367.0496	0.22
367.2577	0.2265
367.4658	0.2211
367.6739	0.2161
367.882	0.2289
368.09	0.222
368.2981	0.2323
368.5061	0.232
368.7141	0.2214
368.9221	0.2377
369.1301	0.2292
369.3381	0.2384
369.5461	0.2355
369.754	0.2235
369.962	0.2347
370.1699	0.2354
370.3778	0.2415
370.5857	0.2345
370.7936	0.2363
371.0015	0.2312
371.2093	0.2377
371.4172	0.2387
371.625	0.2305
371.8328	0.2406
372.0406	0.2479
372.2484	0.2423
372.4562	0.2439
372.664	0.2452
372.8717	0.2457
373.0795	0.2458
373.2872	0.2455
373.4949	0.2507
373.7026	0.2514
373.9103	0.242
374.118	0.2464
374.3256	0.2495
374.5333	0.245
374.7409	0.2482
374.9485	0.2477
375.1561	0.2521
375.3637	0.2474
375.5713	0.2597
375.7789	0.2554
375.9864	0.2581
376.194	0.2534
376.4015	0.2492
376.609	0.2515
376.8165	0.2567
377.024	0.2598
377.2315	0.2544
377.4389	0.2467
377.6464	0.2587
377.8538	0.2662
378.0612	0.2631
378.2686	0.2585
378.476	0.2649
378.6834	0.2592
378.8908	0.2599
379.0981	0.2626
379.3055	0.268
379.5128	0.2622
379.7201	0.2666
379.9274	0.2691
380.1347	0.2657
380.342	0.2734
380.5492	0.2648
380.7565	0.264
380.9637	0.2716
381.1709	0.2656
381.3781	0.2765
381.5853	0.2656
381.7925	0.2719
381.9997	0.2669
382.2068	0.2769
382.4139	0.2732
382.6211	0.2713
382.8282	0.277
383.0353	0.2789
383.2424	0.2686
383.4494	0.2689
383.6565	0.276
383.8635	0.271
384.0706	0.2787
384.2776	0.2741
384.4846	0.2821
384.6916	0.2751
384.8986	0.2801
385.1055	0.2802
385.3125	0.2745
385.5194	0.285
385.7263	0.2708
385.9333	0.2748
386.1402	0.2801
386.347	0.2734
386.5539	0.2776
386.7608	0.2765
386.9676	0.2692
387.1744	0.2755
387.3813	0.2756
387.5881	0.2721
387.7948	0.2849
388.0016	0.2896
388.2084	0.2727
388.4151	0.2728
388.6219	0.2717
388.8286	0.2812
389.0353	0.2808
389.242	0.2754
389.4487	0.2765
389.6553	0.2612
389.862	0.2689
390.0686	0.2718
390.2753	0.278
390.4819	0.2716
390.6885	0.2691
390.8951	0.2662
391.1016	0.274
391.3082	0.2747
391.5147	0.2667
391.7213	0.2656
391.9278	0.2651
392.1343	0.2678
392.3408	0.2662
392.5473	0.2618
392.7537	0.2566
392.9602	0.251
393.1666	0.2634
393.373	0.2569
393.5794	0.2543
393.7858	0.2588
393.9922	0.256
394.1986	0.2452
394.4049	0.2494
394.6113	0.2585
394.8176	0.2434
395.0239	0.247
395.2302	0.2438
395.4365	0.2522
395.6428	0.2438
395.8491	0.2507
396.0553	0.2427
396.2615	0.2469
396.4678	0.2462
396.674	0.2376
396.8802	0.2344
397.0863	0.2392
397.2925	0.246
397.4987	0.2303
397.7048	0.2408
397.9109	0.2325
398.117	0.2358
398.3231	0.2328
398.5292	0.2289
398.7353	0.2359
398.9413	0.2328
399.1474	0.2347
399.3534	0.2329
399.5594	0.244
399.7654	0.2305
399.9714	0.237
400.1774	0.2344
400.3833	0.2348
400.5893	0.2319
400.7952	0.2336
401.0011	0.2446
401.207	0.2367
401.4129	0.2408
401.6188	0.2307
401.8247	0.242
402.0305	0.2276
402.2364	0.2337
402.4422	0.2303
402.648	0.2368
402.8538	0.2291
403.0596	0.2253
403.2654	0.2325
403.4711	0.2208
403.6768	0.2341
403.8826	0.2268
404.0883	0.2294
404.294	0.2282
404.4997	0.2406
404.7054	0.2434
404.911	0.2385
405.1167	0.2343
405.3223	0.2403
405.5279	0.2347
405.7335	0.232
405.9391	0.226
406.1447	0.2433
406.3502	0.2221
406.5558	0.2265
406.7613	0.2293
406.9668	0.237
407.1724	0.232
407.3778	0.2364
407.5833	0.2276
407.7888	0.2407
407.9942	0.2279
408.1997	0.2396
408.4051	0.2259
408.6105	0.2395
408.8159	0.2332
409.0213	0.2367
409.2267	0.2432
409.432	0.2352
409.6374	0.2308
409.8427	0.2355
410.048	0.2342
410.2533	0.2349
410.4586	0.2297
410.6639	0.2377
410.8691	0.2206
411.0744	0.2317
411.2796	0.2405
411.4848	0.2282
411.69	0.2202
411.8952	0.2417
412.1004	0.2249
412.3056	0.2395
412.5107	0.2297
412.7158	0.2391
412.921	0.2379
413.1261	0.231
413.3312	0.2235
413.5362	0.2412
413.7413	0.2343
413.9464	0.2267
414.1514	0.232
414.3564	0.2294
414.5614	0.235
414.7664	0.2232
414.9714	0.2297
415.1764	0.2331
415.3813	0.2242
415.5863	0.2315
415.7912	0.2156
415.9961	0.2174
416.201	0.228
416.4059	0.222
416.6108	0.231
416.8156	0.2278
417.0205	0.2316
417.2253	0.2184
417.4301	0.2265
417.6349	0.2205
417.8397	0.2217
418.0445	0.2249
418.2492	0.2258
418.454	0.2184
418.6587	0.229
418.8634	0.2309
419.0681	0.2315
419.2728	0.2182
419.4775	0.2231
419.6822	0.2221
419.8868	0.2069
420.0915	0.2159
420.2961	0.2128
420.5007	0.2264
420.7053	0.2067
420.9099	0.2234
421.1144	0.2162
421.319	0.206
421.5235	0.2089
421.728	0.2199
421.9325	0.2092
422.137	0.2116
422.3415	0.2145
422.546	0.2083
422.7504	0.2068
422.9549	0.2216
423.1593	0.1981
423.3637	0.208
423.5681	0.2019
423.7725	0.2035
423.9769	0.212
424.1812	0.1989
424.3856	0.2014
424.5899	0.1998
424.7942	0.1943
424.9985	0.2046
425.2028	0.2096
425.4071	0.2073
425.6113	0.1939
425.8156	0.1918
426.0198	0.1998
426.224	0.1925
426.4282	0.1874
426.6324	0.1954
