Data from D4ACN5uM440nmA_Absorbance_13-50-25-493.txt Node
Date: Fri Feb 21 13:50:25 GMT 2025
User: LASERRRRR
Spectrometer: FLMT03099
Trigger mode: 0
Integration Time (sec): 1.500000E-2
Scans to average: 1
Electric dark correction enabled: true
Nonlinearity correction enabled: false
Boxcar width: 0
XAxis mode: Wavelengths
Number of Pixels in Spectrum: 3648
>>>>>Begin Spectral Data<<<<<
179.3399	-0.4543
179.5586	-0.4543
179.7771	-0.4543
179.9957	-0.1334
180.2143	-0
180.4329	-0
180.6514	-0
180.8699	0.4739
181.0885	-0
181.307	0.7902
181.5255	-0
181.744	-0
181.9625	0.1265
182.181	0.3529
182.3994	-0.7124
182.6179	-0.5753
182.8363	-0
183.0547	-0.3447
183.2732	0.2403
183.4916	0.4489
183.71	0.1542
183.9284	-0.0159
184.1467	0.0551
184.3651	0.0498
184.5835	0.377
184.8018	0.1621
185.0201	-0.0078
185.2385	0.2699
185.4568	0.309
185.6751	0.1958
185.8934	0.1242
186.1117	0.0683
186.3299	0.2358
186.5482	0.2519
186.7664	0.1037
186.9847	0.3629
187.2029	0.2902
187.4211	0.0459
187.6393	0.198
187.8575	0.1999
188.0757	0.7642
188.2939	0.209
188.512	0.2766
188.7302	0.1501
188.9483	-0
189.1665	-0
189.3846	0.2897
189.6027	0.1344
189.8208	0.3051
190.0389	0.1433
190.257	0.1169
190.475	0.2481
190.6931	0.0141
190.9111	0.2329
191.1292	0.096
191.3472	0.1245
191.5652	0.3024
191.7832	0.1865
192.0012	0.0623
192.2192	0.1677
192.4371	0.1633
192.6551	0.2081
192.873	0.2485
193.091	0.1375
193.3089	0.2474
193.5268	0.1854
193.7447	0.1984
193.9626	0.2391
194.1805	0.2876
194.3984	0.2197
194.6162	0.2733
194.8341	0.3539
195.0519	0.3125
195.2697	0.212
195.4875	0.3741
195.7054	0.2911
195.9231	0.3192
196.1409	0.3799
196.3587	0.2857
196.5765	0.3442
196.7942	0.3576
197.012	0.344
197.2297	0.3555
197.4474	0.399
197.6651	0.3447
197.8828	0.3707
198.1005	0.4347
198.3182	0.3776
198.5358	0.3908
198.7535	0.3965
198.9711	0.3902
199.1888	0.3919
199.4064	0.3953
199.624	0.3653
199.8416	0.3434
200.0592	0.4135
200.2767	0.4086
200.4943	0.4143
200.7119	0.4096
200.9294	0.3894
201.1469	0.3987
201.3645	0.4895
201.582	0.3893
201.7995	0.4629
202.017	0.3935
202.2344	0.4039
202.4519	0.3869
202.6694	0.3751
202.8868	0.4423
203.1042	0.4377
203.3217	0.4075
203.5391	0.3996
203.7565	0.3521
203.9739	0.3662
204.1913	0.3917
204.4086	0.3795
204.626	0.3576
204.8433	0.3463
205.0607	0.3597
205.278	0.3392
205.4953	0.3399
205.7126	0.3498
205.9299	0.3177
206.1472	0.3295
206.3644	0.3579
206.5817	0.3382
206.7989	0.3362
207.0162	0.3071
207.2334	0.3258
207.4506	0.3114
207.6678	0.3058
207.885	0.2997
208.1022	0.3078
208.3194	0.2846
208.5365	0.3109
208.7537	0.2829
208.9708	0.2928
209.1879	0.2871
209.405	0.2817
209.6222	0.2803
209.8392	0.3125
210.0563	0.2871
210.2734	0.2658
210.4905	0.2805
210.7075	0.2519
210.9245	0.2782
211.1416	0.2702
211.3586	0.255
211.5756	0.27
211.7926	0.2634
212.0096	0.2861
212.2265	0.2867
212.4435	0.2638
212.6604	0.2464
212.8774	0.2576
213.0943	0.2482
213.3112	0.2538
213.5281	0.2508
213.745	0.2317
213.9619	0.2487
214.1788	0.2488
214.3956	0.2543
214.6125	0.2609
214.8293	0.2354
215.0461	0.2473
215.2629	0.2556
215.4798	0.2499
215.6965	0.2542
215.9133	0.233
216.1301	0.2511
216.3469	0.2515
216.5636	0.2434
216.7803	0.2419
216.9971	0.262
217.2138	0.2526
217.4305	0.25
217.6472	0.2428
217.8639	0.2592
218.0805	0.2601
218.2972	0.2383
218.5138	0.2576
218.7305	0.2695
218.9471	0.259
219.1637	0.2714
219.3803	0.2571
219.5969	0.2628
219.8135	0.2686
220.0301	0.262
220.2466	0.2502
220.4632	0.2379
220.6797	0.2604
220.8962	0.2489
221.1127	0.2679
221.3292	0.2656
221.5457	0.2769
221.7622	0.2656
221.9787	0.2892
222.1951	0.2909
222.4116	0.2691
222.628	0.2892
222.8444	0.2945
223.0608	0.2847
223.2772	0.2821
223.4936	0.2952
223.71	0.2744
223.9264	0.2865
224.1427	0.2895
224.3591	0.2741
224.5754	0.2809
224.7917	0.2787
225.008	0.2899
225.2243	0.3024
225.4406	0.2811
225.6569	0.3018
225.8732	0.3126
226.0894	0.3137
226.3057	0.3107
226.5219	0.3194
226.7381	0.3223
226.9543	0.3152
227.1705	0.3173
227.3867	0.3166
227.6029	0.3228
227.8191	0.3379
228.0352	0.3335
228.2513	0.3319
228.4675	0.3364
228.6836	0.3487
228.8997	0.336
229.1158	0.357
229.3319	0.3638
229.548	0.3451
229.764	0.3643
229.9801	0.3678
230.1961	0.369
230.4121	0.3626
230.6282	0.3817
230.8442	0.3856
231.0602	0.3783
231.2761	0.3845
231.4921	0.3842
231.7081	0.3881
231.924	0.3967
232.14	0.4047
232.3559	0.4106
232.5718	0.4144
232.7877	0.4165
233.0036	0.4098
233.2195	0.4127
233.4353	0.4096
233.6512	0.417
233.867	0.4329
234.0829	0.4265
234.2987	0.4292
234.5145	0.4379
234.7303	0.4372
234.9461	0.4329
235.1619	0.4404
235.3776	0.4322
235.5934	0.4387
235.8091	0.4396
236.0249	0.4515
236.2406	0.4368
236.4563	0.4446
236.672	0.4387
236.8877	0.4463
237.1034	0.4404
237.319	0.4521
237.5347	0.442
237.7503	0.4441
237.966	0.4567
238.1816	0.4556
238.3972	0.476
238.6128	0.4589
238.8284	0.4746
239.0439	0.4556
239.2595	0.464
239.475	0.4656
239.6906	0.462
239.9061	0.4633
240.1216	0.4562
240.3371	0.4597
240.5526	0.4612
240.7681	0.4529
240.9836	0.4544
241.199	0.4505
241.4145	0.4455
241.6299	0.448
241.8453	0.4511
242.0607	0.4384
242.2761	0.4394
242.4915	0.4288
242.7069	0.4247
242.9223	0.4208
243.1376	0.4073
243.353	0.3982
243.5683	0.4092
243.7836	0.3949
243.9989	0.3842
244.2142	0.3773
244.4295	0.382
244.6448	0.362
244.86	0.3592
245.0753	0.354
245.2905	0.3412
245.5057	0.3404
245.721	0.3406
245.9362	0.327
246.1514	0.3212
246.3665	0.3154
246.5817	0.3061
246.7969	0.3014
247.012	0.2874
247.2271	0.2953
247.4423	0.2884
247.6574	0.281
247.8725	0.2723
248.0876	0.273
248.3026	0.2611
248.5177	0.2515
248.7328	0.2566
248.9478	0.2521
249.1628	0.2523
249.3779	0.2375
249.5929	0.2363
249.8079	0.2404
250.0228	0.2324
250.2378	0.2261
250.4528	0.2244
250.6677	0.2281
250.8827	0.2148
251.0976	0.2173
251.3125	0.2185
251.5274	0.2131
251.7423	0.2051
251.9572	0.2086
252.172	0.2021
252.3869	0.2136
252.6017	0.2006
252.8166	0.2051
253.0314	0.1979
253.2462	0.1949
253.461	0.1964
253.6758	0.201
253.8906	0.1961
254.1053	0.1943
254.3201	0.1969
254.5348	0.1926
254.7496	0.179
254.9643	0.1899
255.179	0.1856
255.3937	0.185
255.6083	0.1848
255.823	0.1849
256.0377	0.1856
256.2523	0.1841
256.467	0.1863
256.6816	0.1778
256.8962	0.1863
257.1108	0.1851
257.3254	0.1767
257.54	0.1788
257.7545	0.1846
257.9691	0.1822
258.1836	0.1765
258.3981	0.1754
258.6127	0.1727
258.8272	0.1797
259.0417	0.1727
259.2561	0.1737
259.4706	0.1738
259.6851	0.1808
259.8995	0.1751
260.114	0.1753
260.3284	0.1748
260.5428	0.1791
260.7572	0.1706
260.9716	0.1858
261.186	0.1734
261.4003	0.1708
261.6147	0.174
261.829	0.1778
262.0433	0.1764
262.2577	0.1786
262.472	0.1771
262.6863	0.1886
262.9005	0.1779
263.1148	0.1786
263.3291	0.1788
263.5433	0.1824
263.7576	0.1798
263.9718	0.1766
264.186	0.1768
264.4002	0.1778
264.6144	0.1816
264.8286	0.1803
265.0427	0.183
265.2569	0.1742
265.471	0.1821
265.6851	0.1811
265.8993	0.1816
266.1134	0.1822
266.3275	0.1816
266.5415	0.1848
266.7556	0.1895
266.9697	0.1809
267.1837	0.1867
267.3978	0.1818
267.6118	0.1792
267.8258	0.1821
268.0398	0.1827
268.2538	0.1889
268.4677	0.1788
268.6817	0.1789
268.8957	0.1784
269.1096	0.173
269.3235	0.1801
269.5374	0.1837
269.7514	0.1769
269.9652	0.1819
270.1791	0.1715
270.393	0.174
270.6068	0.1791
270.8207	0.1717
271.0345	0.1797
271.2483	0.1649
271.4622	0.1731
271.676	0.1772
271.8897	0.1752
272.1035	0.1803
272.3173	0.1794
272.531	0.1724
272.7448	0.1806
272.9585	0.1693
273.1722	0.1737
273.3859	0.176
273.5996	0.1785
273.8133	0.1771
274.0269	0.1732
274.2406	0.1762
274.4542	0.1784
274.6679	0.1842
274.8815	0.1837
275.0951	0.181
275.3087	0.1763
275.5223	0.1781
275.7358	0.1806
275.9494	0.1831
276.1629	0.1802
276.3765	0.1812
276.59	0.1699
276.8035	0.1764
277.017	0.1876
277.2305	0.1828
277.444	0.1816
277.6574	0.1884
277.8709	0.1867
278.0843	0.1872
278.2978	0.1903
278.5112	0.1868
278.7246	0.1788
278.938	0.1879
279.1513	0.1836
279.3647	0.1801
279.5781	0.1835
279.7914	0.1872
280.0047	0.1866
280.2181	0.1838
280.4314	0.1832
280.6447	0.1865
280.8579	0.1832
281.0712	0.1802
281.2845	0.1817
281.4977	0.1851
281.711	0.1813
281.9242	0.1853
282.1374	0.1792
282.3506	0.1859
282.5638	0.1814
282.7769	0.1745
282.9901	0.18
283.2033	0.1847
283.4164	0.1803
283.6295	0.1794
283.8426	0.181
284.0557	0.1847
284.2688	0.1821
284.4819	0.1851
284.695	0.1831
284.908	0.1829
285.1211	0.1845
285.3341	0.1865
285.5471	0.1835
285.7601	0.1864
285.9731	0.1875
286.1861	0.1843
286.3991	0.1885
286.612	0.1856
286.825	0.1891
287.0379	0.1874
287.2508	0.1851
287.4637	0.1867
287.6766	0.1912
287.8895	0.1944
288.1024	0.1916
288.3152	0.1962
288.5281	0.1829
288.7409	0.1925
288.9538	0.1899
289.1666	0.1872
289.3794	0.1781
289.5922	0.1866
289.8049	0.1863
290.0177	0.1903
290.2304	0.1944
290.4432	0.1944
290.6559	0.1961
290.8686	0.1941
291.0813	0.1943
291.294	0.186
291.5067	0.1872
291.7194	0.1891
291.932	0.1871
292.1447	0.1882
292.3573	0.1945
292.5699	0.1951
292.7825	0.1881
292.9951	0.1848
293.2077	0.1901
293.4203	0.1952
293.6328	0.1939
293.8454	0.1937
294.0579	0.1849
294.2704	0.1939
294.4829	0.1884
294.6954	0.19
294.9079	0.19
295.1204	0.1886
295.3328	0.195
295.5453	0.1954
295.7577	0.1887
295.9701	0.1924
296.1825	0.1887
296.3949	0.1891
296.6073	0.1854
296.8197	0.1899
297.0321	0.1971
297.2444	0.1883
297.4567	0.191
297.6691	0.1848
297.8814	0.1876
298.0937	0.1914
298.306	0.1957
298.5182	0.1958
298.7305	0.195
298.9428	0.1873
299.155	0.1877
299.3672	0.1933
299.5794	0.1876
299.7916	0.1958
300.0038	0.1936
300.216	0.1872
300.4282	0.1854
300.6403	0.1982
300.8525	0.1897
301.0646	0.1948
301.2767	0.1929
301.4888	0.1891
301.7009	0.192
301.913	0.1899
302.125	0.1894
302.3371	0.1896
302.5491	0.193
302.7612	0.1956
302.9732	0.1896
303.1852	0.1914
303.3972	0.1889
303.6092	0.1892
303.8211	0.1929
304.0331	0.1851
304.245	0.1907
304.457	0.1832
304.6689	0.1855
304.8808	0.1858
305.0927	0.1867
305.3046	0.1859
305.5164	0.1841
305.7283	0.1806
305.9401	0.1801
306.152	0.1779
306.3638	0.1774
306.5756	0.1821
306.7874	0.1711
306.9992	0.1659
307.2109	0.1731
307.4227	0.1719
307.6344	0.1807
307.8462	0.172
308.0579	0.1701
308.2696	0.1687
308.4813	0.1605
308.693	0.1634
308.9046	0.1671
309.1163	0.1653
309.328	0.1648
309.5396	0.1603
309.7512	0.1605
309.9628	0.1548
310.1744	0.1535
310.386	0.1496
310.5976	0.1479
310.8091	0.1472
311.0207	0.148
311.2322	0.1487
311.4437	0.1437
311.6552	0.1439
311.8667	0.1474
312.0782	0.1412
312.2897	0.1452
312.5012	0.1492
312.7126	0.1376
312.924	0.1394
313.1355	0.1355
313.3469	0.1371
313.5583	0.1369
313.7696	0.1286
313.981	0.1379
314.1924	0.1276
314.4037	0.1324
314.6151	0.1303
314.8264	0.136
315.0377	0.1334
315.249	0.1365
315.4603	0.1281
315.6716	0.1307
315.8828	0.1301
316.0941	0.1292
316.3053	0.1246
316.5165	0.1281
316.7277	0.125
316.9389	0.1304
317.1501	0.1294
317.3613	0.1226
317.5724	0.127
317.7836	0.1291
317.9947	0.1232
318.2058	0.1252
318.417	0.1255
318.6281	0.1193
318.8391	0.1295
319.0502	0.1264
319.2613	0.1273
319.4723	0.1287
319.6834	0.1324
319.8944	0.122
320.1054	0.1294
320.3164	0.123
320.5274	0.1228
320.7383	0.1276
320.9493	0.124
321.1602	0.1242
321.3712	0.1244
321.5821	0.1229
321.793	0.1326
322.0039	0.1289
322.2148	0.1281
322.4257	0.1262
322.6365	0.122
322.8474	0.1287
323.0582	0.1293
323.269	0.1283
323.4798	0.1229
323.6906	0.1215
323.9014	0.1287
324.1122	0.1274
324.3229	0.128
324.5337	0.132
324.7444	0.1263
324.9551	0.1276
325.1658	0.1269
325.3765	0.1336
325.5872	0.1298
325.7979	0.1308
326.0085	0.129
326.2192	0.1332
326.4298	0.1304
326.6404	0.1356
326.851	0.1286
327.0616	0.1281
327.2722	0.1334
327.4828	0.1252
327.6933	0.1379
327.9039	0.1325
328.1144	0.1297
328.3249	0.1321
328.5354	0.1313
328.7459	0.1318
328.9564	0.1312
329.1669	0.1403
329.3773	0.1352
329.5878	0.1333
329.7982	0.1385
330.0086	0.1316
330.219	0.1322
330.4294	0.1373
330.6398	0.1338
330.8502	0.1444
331.0605	0.1374
331.2708	0.1337
331.4812	0.1407
331.6915	0.136
331.9018	0.1407
332.1121	0.1488
332.3224	0.1383
332.5326	0.1326
332.7429	0.1379
332.9531	0.1438
333.1633	0.1299
333.3735	0.1333
333.5837	0.1384
333.7939	0.1407
334.0041	0.1425
334.2143	0.138
334.4244	0.1488
334.6346	0.1399
334.8447	0.1409
335.0548	0.1401
335.2649	0.148
335.475	0.1429
335.685	0.142
335.8951	0.1428
336.1051	0.1461
336.3152	0.1423
336.5252	0.1379
336.7352	0.1447
336.9452	0.1425
337.1552	0.1461
337.3652	0.1405
337.5751	0.1424
337.7851	0.1374
337.995	0.147
338.2049	0.1363
338.4148	0.1416
338.6247	0.1448
338.8346	0.1384
339.0445	0.1411
339.2543	0.1415
339.4642	0.1431
339.674	0.1376
339.8838	0.1463
340.0936	0.1435
340.3034	0.1441
340.5132	0.146
340.7229	0.1423
340.9327	0.1509
341.1424	0.1403
341.3522	0.1406
341.5619	0.1508
341.7716	0.1452
341.9813	0.1449
342.1909	0.1505
342.4006	0.1523
342.6102	0.1517
342.8199	0.1453
343.0295	0.1522
343.2391	0.1507
343.4487	0.1543
343.6583	0.1622
343.8679	0.1535
344.0774	0.1475
344.287	0.1526
344.4965	0.1563
344.706	0.1593
344.9155	0.1597
345.125	0.1572
345.3345	0.1668
345.544	0.1658
345.7534	0.1631
345.9629	0.1641
346.1723	0.1691
346.3817	0.1548
346.5911	0.1652
346.8005	0.1645
347.0099	0.1664
347.2193	0.1641
347.4286	0.1713
347.638	0.1676
347.8473	0.1673
348.0566	0.1668
348.2659	0.1733
348.4752	0.1748
348.6845	0.1756
348.8937	0.172
349.103	0.1777
349.3122	0.1744
349.5214	0.172
349.7306	0.1773
349.9398	0.1757
350.149	0.1719
350.3582	0.178
350.5674	0.1808
350.7765	0.1781
350.9856	0.1764
351.1948	0.1796
351.4039	0.1731
351.613	0.1813
351.822	0.1807
352.0311	0.1713
352.2402	0.1817
352.4492	0.1814
352.6582	0.1789
352.8672	0.1839
353.0762	0.1774
353.2852	0.1858
353.4942	0.1907
353.7032	0.1814
353.9121	0.184
354.1211	0.193
354.33	0.1866
354.5389	0.1826
354.7478	0.1848
354.9567	0.1818
355.1655	0.1842
355.3744	0.183
355.5833	0.1865
355.7921	0.1879
356.0009	0.1893
356.2097	0.1865
356.4185	0.1844
356.6273	0.1783
356.8361	0.1889
357.0448	0.1924
357.2536	0.181
357.4623	0.1859
357.671	0.1851
357.8797	0.1951
358.0884	0.1934
358.2971	0.1945
358.5057	0.1984
358.7144	0.2013
358.923	0.2009
359.1316	0.1908
359.3402	0.1941
359.5488	0.1998
359.7574	0.2048
359.966	0.1996
360.1746	0.1954
360.3831	0.2065
360.5916	0.2038
360.8002	0.203
361.0087	0.2021
361.2172	0.2059
361.4256	0.2085
361.6341	0.2065
361.8426	0.21
362.051	0.2126
362.2594	0.2051
362.4678	0.2108
362.6762	0.2171
362.8846	0.2119
363.093	0.2172
363.3014	0.218
363.5097	0.2122
363.718	0.2176
363.9264	0.2131
364.1347	0.2297
364.343	0.2266
364.5513	0.2173
364.7595	0.2313
364.9678	0.2147
365.176	0.2238
365.3842	0.221
365.5925	0.2232
365.8007	0.2182
366.0089	0.2356
366.217	0.2291
366.4252	0.2307
366.6333	0.2263
366.8415	0.2349
367.0496	0.2301
367.2577	0.2338
367.4658	0.2225
367.6739	0.2284
367.882	0.2387
368.09	0.2295
368.2981	0.2323
368.5061	0.2379
368.7141	0.2347
368.9221	0.2426
369.1301	0.2391
369.3381	0.2477
369.5461	0.2442
369.754	0.2402
369.962	0.2428
370.1699	0.2454
370.3778	0.2591
370.5857	0.2484
370.7936	0.2541
371.0015	0.243
371.2093	0.2442
371.4172	0.2474
371.625	0.2532
371.8328	0.2468
372.0406	0.2588
372.2484	0.2534
372.4562	0.2478
372.664	0.2536
372.8717	0.2579
373.0795	0.2586
373.2872	0.2526
373.4949	0.2595
373.7026	0.2458
373.9103	0.2488
374.118	0.258
374.3256	0.2623
374.5333	0.2585
374.7409	0.2591
374.9485	0.2558
375.1561	0.2626
375.3637	0.261
375.5713	0.2736
375.7789	0.2627
375.9864	0.2625
376.194	0.2705
376.4015	0.2573
376.609	0.2669
376.8165	0.2736
377.024	0.2675
377.2315	0.2664
377.4389	0.2662
377.6464	0.2739
377.8538	0.2745
378.0612	0.2808
378.2686	0.2733
378.476	0.2806
378.6834	0.2656
378.8908	0.279
379.0981	0.2801
379.3055	0.2737
379.5128	0.2707
379.7201	0.2843
379.9274	0.2783
380.1347	0.2811
380.342	0.2791
380.5492	0.2829
380.7565	0.2762
380.9637	0.2846
381.1709	0.2781
381.3781	0.2953
381.5853	0.2836
381.7925	0.2875
381.9997	0.2909
382.2068	0.2867
382.4139	0.2871
382.6211	0.2933
382.8282	0.289
383.0353	0.2926
383.2424	0.2931
383.4494	0.2882
383.6565	0.2908
383.8635	0.2877
384.0706	0.2942
384.2776	0.2917
384.4846	0.3
384.6916	0.2962
384.8986	0.2955
385.1055	0.2986
385.3125	0.3003
385.5194	0.2904
385.7263	0.2869
385.9333	0.2987
386.1402	0.2921
386.347	0.296
386.5539	0.2961
386.7608	0.2868
386.9676	0.2959
387.1744	0.2921
387.3813	0.3053
387.5881	0.2941
387.7948	0.2972
388.0016	0.3028
388.2084	0.2901
388.4151	0.2925
388.6219	0.2942
388.8286	0.2861
389.0353	0.292
389.242	0.2798
389.4487	0.2848
389.6553	0.2744
389.862	0.2879
390.0686	0.2868
390.2753	0.2863
390.4819	0.294
390.6885	0.2811
390.8951	0.2899
391.1016	0.2913
391.3082	0.2813
391.5147	0.2763
391.7213	0.2755
391.9278	0.27
392.1343	0.2822
392.3408	0.2826
392.5473	0.2786
392.7537	0.28
392.9602	0.2727
393.1666	0.2805
393.373	0.2764
393.5794	0.2758
393.7858	0.2721
393.9922	0.2732
394.1986	0.2648
394.4049	0.2722
394.6113	0.267
394.8176	0.2737
395.0239	0.2556
395.2302	0.2603
395.4365	0.2642
395.6428	0.2624
395.8491	0.2554
396.0553	0.2614
396.2615	0.2583
396.4678	0.2635
396.674	0.254
396.8802	0.2485
397.0863	0.2513
397.2925	0.2585
397.4987	0.2445
397.7048	0.255
397.9109	0.2498
398.117	0.2588
398.3231	0.2542
398.5292	0.2463
398.7353	0.2479
398.9413	0.2519
399.1474	0.254
399.3534	0.2471
399.5594	0.2623
399.7654	0.2461
399.9714	0.2427
400.1774	0.2469
400.3833	0.2573
400.5893	0.2465
400.7952	0.257
401.0011	0.2489
401.207	0.25
401.4129	0.2457
401.6188	0.2553
401.8247	0.2557
402.0305	0.2422
402.2364	0.2461
402.4422	0.2552
402.648	0.2449
402.8538	0.2497
403.0596	0.2419
403.2654	0.2476
403.4711	0.2313
403.6768	0.2511
403.8826	0.2533
404.0883	0.2554
404.294	0.25
404.4997	0.2502
404.7054	0.2435
404.911	0.2506
405.1167	0.2538
405.3223	0.2451
405.5279	0.2515
405.7335	0.2453
405.9391	0.243
406.1447	0.2449
406.3502	0.2461
406.5558	0.2435
406.7613	0.2479
406.9668	0.2604
407.1724	0.2533
407.3778	0.2443
407.5833	0.2432
407.7888	0.2527
407.9942	0.2501
408.1997	0.2507
408.4051	0.2467
408.6105	0.252
408.8159	0.2365
409.0213	0.2486
409.2267	0.2572
409.432	0.248
409.6374	0.251
409.8427	0.2574
410.048	0.2505
410.2533	0.248
410.4586	0.2365
410.6639	0.2484
410.8691	0.2435
411.0744	0.2478
411.2796	0.2535
411.4848	0.25
411.69	0.2325
411.8952	0.2524
412.1004	0.2489
412.3056	0.2359
412.5107	0.2542
412.7158	0.2525
412.921	0.2432
413.1261	0.2353
413.3312	0.2434
413.5362	0.2468
413.7413	0.2437
413.9464	0.2363
414.1514	0.2455
414.3564	0.2344
414.5614	0.245
414.7664	0.2407
414.9714	0.2405
415.1764	0.2424
415.3813	0.239
415.5863	0.2476
415.7912	0.2448
415.9961	0.2467
416.201	0.2443
416.4059	0.2497
416.6108	0.236
416.8156	0.2369
417.0205	0.2379
417.2253	0.2375
417.4301	0.2429
417.6349	0.2397
417.8397	0.2405
418.0445	0.2478
418.2492	0.2454
418.454	0.2356
418.6587	0.2385
418.8634	0.236
419.0681	0.2363
419.2728	0.2338
419.4775	0.2457
419.6822	0.2325
419.8868	0.2325
420.0915	0.2329
420.2961	0.2226
420.5007	0.2263
420.7053	0.2303
420.9099	0.2314
421.1144	0.2297
421.319	0.2277
421.5235	0.2232
421.728	0.2361
421.9325	0.226
422.137	0.2221
422.3415	0.2163
422.546	0.2119
422.7504	0.2234
422.9549	0.2273
423.1593	0.2167
423.3637	0.2198
423.5681	0.2206
423.7725	0.2214
423.9769	0.2307
424.1812	0.2176
424.3856	0.2236
424.5899	0.2113
424.7942	0.2153
424.9985	0.2184
425.2028	0.2177
425.4071	0.2152
425.6113	0.2168
425.8156	0.2093
426.0198	0.2127
426.224	0.2167
426.4282	0.2028
426.6324	0.2112
426.8366	0.2053
