Data from D4ACN5uM440nmA_Absorbance_13-50-26-347.txt Node
Date: Fri Feb 21 13:50:26 GMT 2025
User: LASERRRRR
Spectrometer: FLMT03099
Trigger mode: 0
Integration Time (sec): 1.500000E-2
Scans to average: 1
Electric dark correction enabled: true
Nonlinearity correction enabled: false
Boxcar width: 0
XAxis mode: Wavelengths
Number of Pixels in Spectrum: 3648
>>>>>Begin Spectral Data<<<<<
179.3399	-0.6942
179.5586	-0.6942
179.7771	-0.6942
179.9957	0.3552
180.2143	-0
180.4329	0.2477
180.6514	-0
180.8699	-0
181.0885	0.7947
181.307	-0.0941
181.5255	-0.1623
181.744	0.1427
181.9625	1.0033
182.181	-0.355
182.3994	-0.6139
182.6179	-0
182.8363	-0
183.0547	0.1649
183.2732	0.6726
183.4916	0.2811
183.71	0.2774
183.9284	0.2089
184.1467	0.4236
184.3651	0.1175
184.5835	0.2713
184.8018	0.1625
185.0201	0.0775
185.2385	0.4866
185.4568	0.2093
185.6751	0.1585
185.8934	0.2924
186.1117	0.0364
186.3299	0.1524
186.5482	0.1665
186.7664	0.0353
186.9847	-0.0042
187.2029	0.3253
187.4211	0.0977
187.6393	0.2691
187.8575	0.4086
188.0757	0.7659
188.2939	0.0324
188.512	0.2827
188.7302	0.1966
188.9483	0.3081
189.1665	0.5539
189.3846	0.3651
189.6027	0.0797
189.8208	0.6716
190.0389	0.1066
190.257	0.2264
190.475	0.0201
190.6931	0.2894
190.9111	0.1204
191.1292	0.2613
191.3472	0.037
191.5652	0.2706
191.7832	0.4605
192.0012	0.1353
192.2192	0.0328
192.4371	0.2138
192.6551	0.5136
192.873	0.2425
193.091	0.1135
193.3089	0.2756
193.5268	0.2694
193.7447	0.1705
193.9626	0.21
194.1805	0.341
194.3984	0.3337
194.6162	0.2301
194.8341	0.3112
195.0519	0.1775
195.2697	0.2929
195.4875	0.3437
195.7054	0.3629
195.9231	0.2758
196.1409	0.4379
196.3587	0.3802
196.5765	0.3936
196.7942	0.399
197.012	0.364
197.2297	0.3851
197.4474	0.4443
197.6651	0.3391
197.8828	0.4663
198.1005	0.4617
198.3182	0.3976
198.5358	0.3858
198.7535	0.3857
198.9711	0.382
199.1888	0.3858
199.4064	0.4067
199.624	0.396
199.8416	0.3844
200.0592	0.4366
200.2767	0.4108
200.4943	0.4354
200.7119	0.3873
200.9294	0.4238
201.1469	0.4663
201.3645	0.4721
201.582	0.447
201.7995	0.4116
202.017	0.4085
202.2344	0.46
202.4519	0.3652
202.6694	0.4044
202.8868	0.3996
203.1042	0.376
203.3217	0.3894
203.5391	0.4109
203.7565	0.3599
203.9739	0.3539
204.1913	0.3709
204.4086	0.3702
204.626	0.3717
204.8433	0.3458
205.0607	0.3765
205.278	0.3718
205.4953	0.3432
205.7126	0.3568
205.9299	0.3207
206.1472	0.3322
206.3644	0.3191
206.5817	0.3498
206.7989	0.3494
207.0162	0.3223
207.2334	0.3228
207.4506	0.3051
207.6678	0.3313
207.885	0.3148
208.1022	0.3298
208.3194	0.2919
208.5365	0.2937
208.7537	0.3024
208.9708	0.3003
209.1879	0.2991
209.405	0.2752
209.6222	0.2667
209.8392	0.3151
210.0563	0.2652
210.2734	0.2616
210.4905	0.2745
210.7075	0.2953
210.9245	0.2734
211.1416	0.2724
211.3586	0.2678
211.5756	0.26
211.7926	0.2617
212.0096	0.2567
212.2265	0.2805
212.4435	0.258
212.6604	0.2648
212.8774	0.2658
213.0943	0.2667
213.3112	0.2541
213.5281	0.2591
213.745	0.2389
213.9619	0.2475
214.1788	0.269
214.3956	0.2617
214.6125	0.2432
214.8293	0.2474
215.0461	0.2584
215.2629	0.271
215.4798	0.2401
215.6965	0.2496
215.9133	0.2536
216.1301	0.24
216.3469	0.2339
216.5636	0.2343
216.7803	0.2487
216.9971	0.2499
217.2138	0.2568
217.4305	0.2501
217.6472	0.2393
217.8639	0.2551
218.0805	0.2529
218.2972	0.2426
218.5138	0.2488
218.7305	0.2545
218.9471	0.2418
219.1637	0.2588
219.3803	0.2703
219.5969	0.2428
219.8135	0.2539
220.0301	0.253
220.2466	0.2617
220.4632	0.2397
220.6797	0.2684
220.8962	0.2615
221.1127	0.2742
221.3292	0.2646
221.5457	0.2721
221.7622	0.2629
221.9787	0.2763
222.1951	0.2794
222.4116	0.2676
222.628	0.2906
222.8444	0.2769
223.0608	0.2735
223.2772	0.2818
223.4936	0.2724
223.71	0.2905
223.9264	0.275
224.1427	0.2867
224.3591	0.2945
224.5754	0.2968
224.7917	0.2887
225.008	0.3091
225.2243	0.3066
225.4406	0.2973
225.6569	0.3146
225.8732	0.3061
226.0894	0.3005
226.3057	0.3157
226.5219	0.3235
226.7381	0.3286
226.9543	0.3131
227.1705	0.323
227.3867	0.3343
227.6029	0.3315
227.8191	0.3287
228.0352	0.3422
228.2513	0.3428
228.4675	0.3465
228.6836	0.3459
228.8997	0.341
229.1158	0.3573
229.3319	0.3537
229.548	0.3483
229.764	0.3503
229.9801	0.3772
230.1961	0.3665
230.4121	0.3777
230.6282	0.3866
230.8442	0.3856
231.0602	0.3955
231.2761	0.3888
231.4921	0.3904
231.7081	0.389
231.924	0.3994
232.14	0.4009
232.3559	0.4075
232.5718	0.4147
232.7877	0.4096
233.0036	0.4128
233.2195	0.4094
233.4353	0.418
233.6512	0.4117
233.867	0.4251
234.0829	0.4354
234.2987	0.4279
234.5145	0.4384
234.7303	0.4347
234.9461	0.4448
235.1619	0.439
235.3776	0.4359
235.5934	0.4409
235.8091	0.4559
236.0249	0.4435
236.2406	0.4377
236.4563	0.4436
236.672	0.4321
236.8877	0.4473
237.1034	0.4498
237.319	0.4502
237.5347	0.4606
237.7503	0.4476
237.966	0.453
238.1816	0.4377
238.3972	0.4602
238.6128	0.4607
238.8284	0.46
239.0439	0.4639
239.2595	0.4584
239.475	0.4559
239.6906	0.4561
239.9061	0.464
240.1216	0.4519
240.3371	0.4626
240.5526	0.4686
240.7681	0.4645
240.9836	0.4626
241.199	0.4503
241.4145	0.4469
241.6299	0.46
241.8453	0.444
242.0607	0.4353
242.2761	0.4401
242.4915	0.4252
242.7069	0.4225
242.9223	0.4224
243.1376	0.4152
243.353	0.4018
243.5683	0.4007
243.7836	0.3972
243.9989	0.3836
244.2142	0.3786
244.4295	0.3736
244.6448	0.37
244.86	0.3629
245.0753	0.3452
245.2905	0.3462
245.5057	0.3349
245.721	0.3408
245.9362	0.3299
246.1514	0.3184
246.3665	0.3145
246.5817	0.3078
246.7969	0.3035
247.012	0.3064
247.2271	0.2991
247.4423	0.2922
247.6574	0.2853
247.8725	0.2748
248.0876	0.2702
248.3026	0.2628
248.5177	0.2584
248.7328	0.2645
248.9478	0.2508
249.1628	0.247
249.3779	0.2365
249.5929	0.2376
249.8079	0.2442
250.0228	0.2367
250.2378	0.2322
250.4528	0.2319
250.6677	0.224
250.8827	0.216
251.0976	0.2132
251.3125	0.2083
251.5274	0.2177
251.7423	0.2105
251.9572	0.2097
252.172	0.2067
252.3869	0.2058
252.6017	0.2031
252.8166	0.201
253.0314	0.1997
253.2462	0.2015
253.461	0.1932
253.6758	0.1989
253.8906	0.2033
254.1053	0.1973
254.3201	0.1864
254.5348	0.1852
254.7496	0.1836
254.9643	0.1947
255.179	0.1834
255.3937	0.1855
255.6083	0.1929
255.823	0.1888
256.0377	0.1798
256.2523	0.1813
256.467	0.1864
256.6816	0.1807
256.8962	0.19
257.1108	0.1827
257.3254	0.1834
257.54	0.1805
257.7545	0.1884
257.9691	0.1786
258.1836	0.1778
258.3981	0.1804
258.6127	0.1779
258.8272	0.1836
259.0417	0.1758
259.2561	0.1764
259.4706	0.1745
259.6851	0.1794
259.8995	0.1775
260.114	0.1809
260.3284	0.1701
260.5428	0.1745
260.7572	0.1777
260.9716	0.1814
261.186	0.1775
261.4003	0.1748
261.6147	0.173
261.829	0.1746
262.0433	0.18
262.2577	0.1823
262.472	0.1767
262.6863	0.1863
262.9005	0.1801
263.1148	0.1793
263.3291	0.1784
263.5433	0.1742
263.7576	0.182
263.9718	0.1781
264.186	0.1831
264.4002	0.1835
264.6144	0.1926
264.8286	0.192
265.0427	0.1867
265.2569	0.1861
265.471	0.1891
265.6851	0.1905
265.8993	0.1862
266.1134	0.1833
266.3275	0.1859
266.5415	0.1825
266.7556	0.1887
266.9697	0.1933
267.1837	0.1894
267.3978	0.1888
267.6118	0.1784
267.8258	0.1915
268.0398	0.1908
268.2538	0.1848
268.4677	0.1819
268.6817	0.1891
268.8957	0.1846
269.1096	0.1768
269.3235	0.179
269.5374	0.1879
269.7514	0.1845
269.9652	0.1807
270.1791	0.1786
270.393	0.1853
270.6068	0.1767
270.8207	0.1779
271.0345	0.177
271.2483	0.1787
271.4622	0.1829
271.676	0.1824
271.8897	0.1733
272.1035	0.1835
272.3173	0.1825
272.531	0.1808
272.7448	0.1839
272.9585	0.1811
273.1722	0.177
273.3859	0.1798
273.5996	0.1789
273.8133	0.1851
274.0269	0.1821
274.2406	0.1826
274.4542	0.1779
274.6679	0.1868
274.8815	0.1886
275.0951	0.1902
275.3087	0.1894
275.5223	0.1874
275.7358	0.1911
275.9494	0.191
276.1629	0.1908
276.3765	0.1892
276.59	0.1861
276.8035	0.19
277.017	0.1979
277.2305	0.1919
277.444	0.1926
277.6574	0.1924
277.8709	0.1955
278.0843	0.1928
278.2978	0.1931
278.5112	0.1956
278.7246	0.1895
278.938	0.1947
279.1513	0.1908
279.3647	0.1965
279.5781	0.1937
279.7914	0.1887
280.0047	0.195
280.2181	0.1896
280.4314	0.1944
280.6447	0.1961
280.8579	0.1863
281.0712	0.1853
281.2845	0.1893
281.4977	0.1913
281.711	0.1829
281.9242	0.1882
282.1374	0.1917
282.3506	0.187
282.5638	0.1858
282.7769	0.1811
282.9901	0.19
283.2033	0.1883
283.4164	0.1843
283.6295	0.1861
283.8426	0.1835
284.0557	0.1888
284.2688	0.1887
284.4819	0.1826
284.695	0.1892
284.908	0.1854
285.1211	0.1872
285.3341	0.1849
285.5471	0.1903
285.7601	0.1888
285.9731	0.1908
286.1861	0.1921
286.3991	0.1897
286.612	0.1864
286.825	0.1879
287.0379	0.1853
287.2508	0.187
287.4637	0.1864
287.6766	0.1854
287.8895	0.1846
288.1024	0.1877
288.3152	0.1859
288.5281	0.1824
288.7409	0.1904
288.9538	0.1887
289.1666	0.1874
289.3794	0.1825
289.5922	0.1867
289.8049	0.1901
290.0177	0.1884
290.2304	0.182
290.4432	0.1929
290.6559	0.1881
290.8686	0.1866
291.0813	0.1945
291.294	0.1905
291.5067	0.1803
291.7194	0.1809
291.932	0.1831
292.1447	0.1895
292.3573	0.1875
292.5699	0.1912
292.7825	0.1852
292.9951	0.1875
293.2077	0.1846
293.4203	0.1883
293.6328	0.1872
293.8454	0.1889
294.0579	0.1868
294.2704	0.1932
294.4829	0.189
294.6954	0.1887
294.9079	0.1854
295.1204	0.1875
295.3328	0.1919
295.5453	0.1868
295.7577	0.1897
295.9701	0.1877
296.1825	0.1881
296.3949	0.1871
296.6073	0.1872
296.8197	0.1806
297.0321	0.184
297.2444	0.1773
297.4567	0.1866
297.6691	0.1835
297.8814	0.191
298.0937	0.1823
298.306	0.1905
298.5182	0.195
298.7305	0.1875
298.9428	0.1934
299.155	0.1853
299.3672	0.179
299.5794	0.1888
299.7916	0.1888
300.0038	0.188
300.216	0.1843
300.4282	0.1877
300.6403	0.193
300.8525	0.1892
301.0646	0.1917
301.2767	0.187
301.4888	0.1876
301.7009	0.1916
301.913	0.185
302.125	0.1887
302.3371	0.1856
302.5491	0.1886
302.7612	0.1935
302.9732	0.1939
303.1852	0.1835
303.3972	0.1955
303.6092	0.1859
303.8211	0.1851
304.0331	0.1867
304.245	0.1904
304.457	0.1831
304.6689	0.1859
304.8808	0.1796
305.0927	0.1841
305.3046	0.1834
305.5164	0.1798
305.7283	0.181
305.9401	0.1717
306.152	0.1789
306.3638	0.1798
306.5756	0.1825
306.7874	0.1759
306.9992	0.1719
307.2109	0.1699
307.4227	0.1663
307.6344	0.1718
307.8462	0.1678
308.0579	0.1727
308.2696	0.1694
308.4813	0.1649
308.693	0.1603
308.9046	0.1636
309.1163	0.1598
309.328	0.1563
309.5396	0.1608
309.7512	0.1588
309.9628	0.1596
310.1744	0.1519
310.386	0.152
310.5976	0.1526
310.8091	0.1524
311.0207	0.1482
311.2322	0.1484
311.4437	0.1483
311.6552	0.1475
311.8667	0.1467
312.0782	0.1483
312.2897	0.1447
312.5012	0.1422
312.7126	0.1404
312.924	0.1395
313.1355	0.1378
313.3469	0.139
313.5583	0.1361
313.7696	0.135
313.981	0.1428
314.1924	0.1352
314.4037	0.1389
314.6151	0.1392
314.8264	0.1367
315.0377	0.1318
315.249	0.1354
315.4603	0.1361
315.6716	0.1344
315.8828	0.1371
316.0941	0.1344
316.3053	0.1301
316.5165	0.134
316.7277	0.1346
316.9389	0.1361
317.1501	0.1302
317.3613	0.1287
317.5724	0.1302
317.7836	0.1277
317.9947	0.128
318.2058	0.1317
318.417	0.131
318.6281	0.1263
318.8391	0.1287
319.0502	0.1275
319.2613	0.1295
319.4723	0.1259
319.6834	0.1335
319.8944	0.1346
320.1054	0.1291
320.3164	0.1254
320.5274	0.1243
320.7383	0.1296
320.9493	0.1295
321.1602	0.1302
321.3712	0.132
321.5821	0.1269
321.793	0.1375
322.0039	0.1321
322.2148	0.1309
322.4257	0.1258
322.6365	0.1255
322.8474	0.1279
323.0582	0.1312
323.269	0.1341
323.4798	0.1379
323.6906	0.1266
323.9014	0.1293
324.1122	0.1245
324.3229	0.1312
324.5337	0.1325
324.7444	0.1313
324.9551	0.1342
325.1658	0.1296
325.3765	0.1405
325.5872	0.1361
325.7979	0.1304
326.0085	0.1324
326.2192	0.1307
326.4298	0.1387
326.6404	0.1379
326.851	0.1323
327.0616	0.1382
327.2722	0.1375
327.4828	0.1364
327.6933	0.1447
327.9039	0.1358
328.1144	0.1373
328.3249	0.1386
328.5354	0.1414
328.7459	0.1388
328.9564	0.1361
329.1669	0.1427
329.3773	0.1433
329.5878	0.1382
329.7982	0.1417
330.0086	0.148
330.219	0.1369
330.4294	0.1475
330.6398	0.1423
330.8502	0.1488
331.0605	0.1401
331.2708	0.1419
331.4812	0.1441
331.6915	0.146
331.9018	0.1451
332.1121	0.1514
332.3224	0.1462
332.5326	0.1419
332.7429	0.1423
332.9531	0.1497
333.1633	0.1423
333.3735	0.1448
333.5837	0.1474
333.7939	0.1436
334.0041	0.147
334.2143	0.1418
334.4244	0.1532
334.6346	0.1521
334.8447	0.1416
335.0548	0.1454
335.2649	0.1501
335.475	0.1482
335.685	0.1443
335.8951	0.1395
336.1051	0.148
336.3152	0.15
336.5252	0.142
336.7352	0.1429
336.9452	0.1471
337.1552	0.1438
337.3652	0.1418
337.5751	0.1412
337.7851	0.1467
337.995	0.1496
338.2049	0.1492
338.4148	0.1455
338.6247	0.1496
338.8346	0.1431
339.0445	0.1522
339.2543	0.1443
339.4642	0.1431
339.674	0.1449
339.8838	0.1471
340.0936	0.1478
340.3034	0.15
340.5132	0.1384
340.7229	0.1528
340.9327	0.1612
341.1424	0.1529
341.3522	0.1502
341.5619	0.1521
341.7716	0.1573
341.9813	0.1541
342.1909	0.158
342.4006	0.1587
342.6102	0.1567
342.8199	0.156
343.0295	0.1497
343.2391	0.1566
343.4487	0.1603
343.6583	0.1648
343.8679	0.1586
344.0774	0.1501
344.287	0.1609
344.4965	0.1585
344.706	0.1588
344.9155	0.1584
345.125	0.1612
345.3345	0.1666
345.544	0.162
345.7534	0.1636
345.9629	0.1683
346.1723	0.1721
346.3817	0.162
346.5911	0.1716
346.8005	0.1788
347.0099	0.1686
347.2193	0.1773
347.4286	0.1806
347.638	0.1746
347.8473	0.1799
348.0566	0.1723
348.2659	0.1805
348.4752	0.176
348.6845	0.1681
348.8937	0.1745
349.103	0.1784
349.3122	0.174
349.5214	0.1786
349.7306	0.1815
349.9398	0.1816
350.149	0.1737
350.3582	0.1832
350.5674	0.182
350.7765	0.1811
350.9856	0.1731
351.1948	0.1849
351.4039	0.1819
351.613	0.1818
351.822	0.1945
352.0311	0.1792
352.2402	0.182
352.4492	0.1821
352.6582	0.1879
352.8672	0.1839
353.0762	0.19
353.2852	0.1828
353.4942	0.1861
353.7032	0.1814
353.9121	0.1799
354.1211	0.1879
354.33	0.1869
354.5389	0.1813
354.7478	0.1789
354.9567	0.1892
355.1655	0.1825
355.3744	0.1834
355.5833	0.1812
355.7921	0.1864
356.0009	0.1854
356.2097	0.1782
356.4185	0.1826
356.6273	0.1856
356.8361	0.1897
357.0448	0.1855
357.2536	0.1907
357.4623	0.186
357.671	0.1906
357.8797	0.1924
358.0884	0.185
358.2971	0.1902
358.5057	0.1986
358.7144	0.1947
358.923	0.1952
359.1316	0.1909
359.3402	0.1955
359.5488	0.1967
359.7574	0.2018
359.966	0.2027
360.1746	0.1832
360.3831	0.2016
360.5916	0.1966
360.8002	0.2039
361.0087	0.197
361.2172	0.2023
361.4256	0.201
361.6341	0.2076
361.8426	0.2032
362.051	0.2075
362.2594	0.2029
362.4678	0.2044
362.6762	0.2083
362.8846	0.2084
363.093	0.2061
363.3014	0.2088
363.5097	0.2075
363.718	0.2173
363.9264	0.2183
364.1347	0.215
364.343	0.2055
364.5513	0.2069
364.7595	0.2165
364.9678	0.2125
365.176	0.2154
365.3842	0.2242
365.5925	0.2177
365.8007	0.2206
366.0089	0.2215
366.217	0.2235
366.4252	0.2191
366.6333	0.223
366.8415	0.2277
367.0496	0.2251
367.2577	0.2276
367.4658	0.2237
367.6739	0.217
367.882	0.229
368.09	0.2285
368.2981	0.2362
368.5061	0.2275
368.7141	0.2259
368.9221	0.2395
369.1301	0.2314
369.3381	0.2393
369.5461	0.2411
369.754	0.2371
369.962	0.2264
370.1699	0.2387
370.3778	0.2495
370.5857	0.2315
370.7936	0.2368
371.0015	0.2393
371.2093	0.2362
371.4172	0.2395
371.625	0.2467
371.8328	0.2365
372.0406	0.2421
372.2484	0.2386
372.4562	0.2481
372.664	0.2391
372.8717	0.2418
373.0795	0.2508
373.2872	0.2507
373.4949	0.2474
373.7026	0.2459
373.9103	0.2344
374.118	0.2533
374.3256	0.2475
374.5333	0.2529
374.7409	0.2564
374.9485	0.252
375.1561	0.2554
375.3637	0.2453
375.5713	0.262
375.7789	0.2557
375.9864	0.26
376.194	0.2613
376.4015	0.2608
376.609	0.2595
376.8165	0.2562
377.024	0.2561
377.2315	0.254
377.4389	0.2549
377.6464	0.2718
377.8538	0.2577
378.0612	0.2558
378.2686	0.2598
378.476	0.2709
378.6834	0.2679
378.8908	0.2674
379.0981	0.2622
379.3055	0.2726
379.5128	0.2572
379.7201	0.2677
379.9274	0.2646
380.1347	0.2695
380.342	0.2734
380.5492	0.2629
380.7565	0.2771
380.9637	0.2654
381.1709	0.2634
381.3781	0.2768
381.5853	0.2771
381.7925	0.2653
381.9997	0.279
382.2068	0.2749
382.4139	0.275
382.6211	0.2784
382.8282	0.2771
383.0353	0.2771
383.2424	0.2688
383.4494	0.2712
383.6565	0.2709
383.8635	0.2749
384.0706	0.2846
384.2776	0.2742
384.4846	0.2773
384.6916	0.2736
384.8986	0.2843
385.1055	0.2932
385.3125	0.2914
385.5194	0.2794
385.7263	0.2735
385.9333	0.2799
386.1402	0.283
386.347	0.2818
386.5539	0.2728
386.7608	0.2797
386.9676	0.2759
387.1744	0.2876
387.3813	0.2825
387.5881	0.2742
387.7948	0.2758
388.0016	0.2875
388.2084	0.2821
388.4151	0.2832
388.6219	0.2733
388.8286	0.2723
389.0353	0.2912
389.242	0.2672
389.4487	0.2682
389.6553	0.2646
389.862	0.2758
390.0686	0.2764
390.2753	0.2791
390.4819	0.281
390.6885	0.2698
390.8951	0.2743
391.1016	0.2644
391.3082	0.2818
391.5147	0.2609
391.7213	0.275
391.9278	0.256
392.1343	0.2676
392.3408	0.2577
392.5473	0.2589
392.7537	0.2654
392.9602	0.257
393.1666	0.2575
393.373	0.2528
393.5794	0.2677
393.7858	0.2554
393.9922	0.2543
394.1986	0.258
394.4049	0.2519
394.6113	0.2557
394.8176	0.2565
395.0239	0.2524
395.2302	0.2579
395.4365	0.2497
395.6428	0.2433
395.8491	0.248
396.0553	0.2382
396.2615	0.2441
396.4678	0.2503
396.674	0.2464
396.8802	0.2473
397.0863	0.2409
397.2925	0.2458
397.4987	0.2401
397.7048	0.2418
397.9109	0.2394
398.117	0.2411
398.3231	0.2307
398.5292	0.2263
398.7353	0.2392
398.9413	0.2335
399.1474	0.2364
399.3534	0.2329
399.5594	0.2462
399.7654	0.2319
399.9714	0.2367
400.1774	0.2388
400.3833	0.2372
400.5893	0.2309
400.7952	0.2401
401.0011	0.2331
401.207	0.2478
401.4129	0.2338
401.6188	0.2383
401.8247	0.2522
402.0305	0.244
402.2364	0.2407
402.4422	0.2442
402.648	0.2321
402.8538	0.233
403.0596	0.226
403.2654	0.2422
403.4711	0.2231
403.6768	0.2306
403.8826	0.2442
404.0883	0.2374
404.294	0.2359
404.4997	0.2388
404.7054	0.2402
404.911	0.2288
405.1167	0.2375
405.3223	0.2337
405.5279	0.2383
405.7335	0.2358
405.9391	0.231
406.1447	0.2347
406.3502	0.2324
406.5558	0.2353
406.7613	0.2346
406.9668	0.2329
407.1724	0.2339
407.3778	0.2311
407.5833	0.2294
407.7888	0.2456
407.9942	0.2395
408.1997	0.2349
408.4051	0.2287
408.6105	0.234
408.8159	0.2322
409.0213	0.2383
409.2267	0.2364
409.432	0.2394
409.6374	0.2432
409.8427	0.2406
410.048	0.2342
410.2533	0.2408
410.4586	0.2385
410.6639	0.2357
410.8691	0.23
411.0744	0.2391
411.2796	0.2401
411.4848	0.2366
411.69	0.2327
411.8952	0.235
412.1004	0.2264
412.3056	0.2213
412.5107	0.238
412.7158	0.2461
412.921	0.2341
413.1261	0.2309
413.3312	0.232
413.5362	0.2432
413.7413	0.2345
413.9464	0.2234
414.1514	0.2252
414.3564	0.2248
414.5614	0.2315
414.7664	0.2181
414.9714	0.225
415.1764	0.2337
415.3813	0.2296
415.5863	0.2405
415.7912	0.234
415.9961	0.2171
416.201	0.2324
416.4059	0.2281
416.6108	0.227
416.8156	0.226
417.0205	0.2311
417.2253	0.2327
417.4301	0.2351
417.6349	0.2305
417.8397	0.2239
418.0445	0.2229
418.2492	0.2225
418.454	0.2249
418.6587	0.2324
418.8634	0.2338
419.0681	0.2373
419.2728	0.2256
419.4775	0.2381
419.6822	0.2154
419.8868	0.2152
420.0915	0.2205
420.2961	0.2128
420.5007	0.2217
420.7053	0.2204
420.9099	0.2194
421.1144	0.22
421.319	0.214
421.5235	0.1972
421.728	0.215
421.9325	0.214
422.137	0.2052
422.3415	0.2043
422.546	0.2167
422.7504	0.2057
422.9549	0.2213
423.1593	0.1989
423.3637	0.21
423.5681	0.2185
423.7725	0.2066
423.9769	0.2061
424.1812	0.201
424.3856	0.2048
424.5899	0.2021
424.7942	0.1946
424.9985	0.2035
425.2028	0.2156
425.4071	0.197
425.6113	0.1972
425.8156	0.2026
426.0198	0.1998
426.224	0.1965
426.4282	0.1933
426.6324	0.1973
426.8366	0.194
427.0407	0.2014
