Data from D4ACN5uM440nmA_Absorbance_13-50-26-153.txt Node
Date: Fri Feb 21 13:50:26 GMT 2025
User: LASERRRRR
Spectrometer: FLMT03099
Trigger mode: 0
Integration Time (sec): 1.500000E-2
Scans to average: 1
Electric dark correction enabled: true
Nonlinearity correction enabled: false
Boxcar width: 0
XAxis mode: Wavelengths
Number of Pixels in Spectrum: 3648
>>>>>Begin Spectral Data<<<<<
179.3399	-0.6784
179.5586	-0.6784
179.7771	-0.6784
179.9957	-0.1497
180.2143	-0
180.4329	-0
180.6514	-0
180.8699	0.0712
181.0885	-0.4717
181.307	-0.0539
181.5255	0.2543
181.744	-0.4268
181.9625	0.7089
182.181	1.8779
182.3994	-0.4828
182.6179	0.5216
182.8363	-0
183.0547	0.0247
183.2732	0.0839
183.4916	0.4437
183.71	0.3842
183.9284	0.0533
184.1467	0.2855
184.3651	0.1862
184.5835	0.1769
184.8018	0.7583
185.0201	0.2101
185.2385	0.2666
185.4568	0.1519
185.6751	0.2218
185.8934	0.151
186.1117	-0.0201
186.3299	0.1412
186.5482	0.3097
186.7664	0.0651
186.9847	-0.0027
187.2029	0.3107
187.4211	0.1846
187.6393	0.0741
187.8575	0.1116
188.0757	0.3439
188.2939	0.0684
188.512	0.1712
188.7302	0.2322
188.9483	0.1602
189.1665	0.5076
189.3846	0.0488
189.6027	0.1179
189.8208	0.3252
190.0389	0.3943
190.257	0.1145
190.475	0.0595
190.6931	0.2172
190.9111	0.0368
191.1292	0.0972
191.3472	0.2125
191.5652	0.3788
191.7832	0.2896
192.0012	0.1813
192.2192	0.265
192.4371	0.1816
192.6551	0.1981
192.873	0.1297
193.091	0.2422
193.3089	0.1716
193.5268	0.3453
193.7447	0.2427
193.9626	0.28
194.1805	0.3092
194.3984	0.2613
194.6162	0.2186
194.8341	0.4641
195.0519	0.2938
195.2697	0.3114
195.4875	0.3096
195.7054	0.2607
195.9231	0.2661
196.1409	0.321
196.3587	0.3905
196.5765	0.4324
196.7942	0.3054
197.012	0.4143
197.2297	0.337
197.4474	0.3543
197.6651	0.3703
197.8828	0.3401
198.1005	0.4277
198.3182	0.4783
198.5358	0.3653
198.7535	0.397
198.9711	0.4378
199.1888	0.3552
199.4064	0.4259
199.624	0.3802
199.8416	0.371
200.0592	0.4183
200.2767	0.4218
200.4943	0.4682
200.7119	0.4475
200.9294	0.42
201.1469	0.3846
201.3645	0.4577
201.582	0.3733
201.7995	0.4195
202.017	0.4252
202.2344	0.4649
202.4519	0.42
202.6694	0.4012
202.8868	0.4279
203.1042	0.4034
203.3217	0.3847
203.5391	0.3999
203.7565	0.3836
203.9739	0.3671
204.1913	0.3724
204.4086	0.3711
204.626	0.3465
204.8433	0.3449
205.0607	0.3691
205.278	0.3518
205.4953	0.3396
205.7126	0.3597
205.9299	0.3414
206.1472	0.3344
206.3644	0.3403
206.5817	0.3168
206.7989	0.3364
207.0162	0.3181
207.2334	0.3338
207.4506	0.315
207.6678	0.319
207.885	0.284
208.1022	0.2869
208.3194	0.2742
208.5365	0.2971
208.7537	0.2855
208.9708	0.2906
209.1879	0.2898
209.405	0.3022
209.6222	0.2896
209.8392	0.2694
210.0563	0.3044
210.2734	0.2383
210.4905	0.2664
210.7075	0.2857
210.9245	0.2761
211.1416	0.2675
211.3586	0.2855
211.5756	0.2545
211.7926	0.2473
212.0096	0.2636
212.2265	0.2571
212.4435	0.2536
212.6604	0.2443
212.8774	0.2481
213.0943	0.2486
213.3112	0.251
213.5281	0.2562
213.745	0.2429
213.9619	0.2354
214.1788	0.268
214.3956	0.2469
214.6125	0.2531
214.8293	0.2465
215.0461	0.2501
215.2629	0.2462
215.4798	0.2359
215.6965	0.2431
215.9133	0.2413
216.1301	0.2316
216.3469	0.2507
216.5636	0.253
216.7803	0.2554
216.9971	0.2533
217.2138	0.2499
217.4305	0.2482
217.6472	0.2448
217.8639	0.2486
218.0805	0.247
218.2972	0.2655
218.5138	0.2579
218.7305	0.2627
218.9471	0.2449
219.1637	0.2661
219.3803	0.244
219.5969	0.2492
219.8135	0.2766
220.0301	0.2722
220.2466	0.2461
220.4632	0.2418
220.6797	0.2485
220.8962	0.2545
221.1127	0.2639
221.3292	0.2587
221.5457	0.2589
221.7622	0.2746
221.9787	0.2734
222.1951	0.2578
222.4116	0.2791
222.628	0.2681
222.8444	0.2767
223.0608	0.2775
223.2772	0.2807
223.4936	0.2894
223.71	0.2815
223.9264	0.286
224.1427	0.2797
224.3591	0.2827
224.5754	0.2808
224.7917	0.292
225.008	0.2877
225.2243	0.3022
225.4406	0.2835
225.6569	0.2938
225.8732	0.3224
226.0894	0.312
226.3057	0.3063
226.5219	0.3162
226.7381	0.3095
226.9543	0.3243
227.1705	0.3098
227.3867	0.3167
227.6029	0.3378
227.8191	0.3317
228.0352	0.3413
228.2513	0.3429
228.4675	0.3391
228.6836	0.3532
228.8997	0.3414
229.1158	0.3599
229.3319	0.3534
229.548	0.3501
229.764	0.3535
229.9801	0.3681
230.1961	0.3703
230.4121	0.3625
230.6282	0.3939
230.8442	0.3946
231.0602	0.3866
231.2761	0.4
231.4921	0.3816
231.7081	0.3982
231.924	0.4
232.14	0.4059
232.3559	0.402
232.5718	0.4052
232.7877	0.4146
233.0036	0.4161
233.2195	0.4087
233.4353	0.4207
233.6512	0.4174
233.867	0.4319
234.0829	0.4242
234.2987	0.4171
234.5145	0.4424
234.7303	0.446
234.9461	0.4439
235.1619	0.4435
235.3776	0.4354
235.5934	0.4286
235.8091	0.4452
236.0249	0.4442
236.2406	0.436
236.4563	0.4395
236.672	0.4412
236.8877	0.4464
237.1034	0.4424
237.319	0.4409
237.5347	0.4443
237.7503	0.4467
237.966	0.4583
238.1816	0.4471
238.3972	0.4561
238.6128	0.4628
238.8284	0.4662
239.0439	0.4642
239.2595	0.4653
239.475	0.4621
239.6906	0.4576
239.9061	0.4595
240.1216	0.4702
240.3371	0.4569
240.5526	0.4614
240.7681	0.4698
240.9836	0.4598
241.199	0.459
241.4145	0.4494
241.6299	0.4572
241.8453	0.4455
242.0607	0.4348
242.2761	0.4352
242.4915	0.4272
242.7069	0.4236
242.9223	0.4204
243.1376	0.4162
243.353	0.4113
243.5683	0.3973
243.7836	0.3932
243.9989	0.3855
244.2142	0.3829
244.4295	0.378
244.6448	0.3597
244.86	0.3508
245.0753	0.3513
245.2905	0.3409
245.5057	0.3415
245.721	0.3392
245.9362	0.3307
246.1514	0.3214
246.3665	0.3057
246.5817	0.2959
246.7969	0.3035
247.012	0.2969
247.2271	0.2956
247.4423	0.2873
247.6574	0.2912
247.8725	0.2726
248.0876	0.2741
248.3026	0.2715
248.5177	0.2553
248.7328	0.2534
248.9478	0.2534
249.1628	0.2537
249.3779	0.2411
249.5929	0.2365
249.8079	0.2388
250.0228	0.2332
250.2378	0.2371
250.4528	0.2332
250.6677	0.2217
250.8827	0.217
251.0976	0.2139
251.3125	0.2211
251.5274	0.214
251.7423	0.2119
251.9572	0.2068
252.172	0.2066
252.3869	0.2077
252.6017	0.2031
252.8166	0.1996
253.0314	0.1979
253.2462	0.2015
253.461	0.1977
253.6758	0.1953
253.8906	0.1909
254.1053	0.194
254.3201	0.1896
254.5348	0.1845
254.7496	0.1863
254.9643	0.1932
255.179	0.186
255.3937	0.1886
255.6083	0.1948
255.823	0.19
256.0377	0.1833
256.2523	0.1861
256.467	0.1853
256.6816	0.1815
256.8962	0.1825
257.1108	0.1849
257.3254	0.1848
257.54	0.1806
257.7545	0.1842
257.9691	0.1809
258.1836	0.1717
258.3981	0.1817
258.6127	0.1744
258.8272	0.1821
259.0417	0.176
259.2561	0.1739
259.4706	0.1708
259.6851	0.1741
259.8995	0.1795
260.114	0.1783
260.3284	0.1753
260.5428	0.1805
260.7572	0.1809
260.9716	0.1877
261.186	0.1687
261.4003	0.1713
261.6147	0.173
261.829	0.1742
262.0433	0.1818
262.2577	0.1798
262.472	0.1763
262.6863	0.1811
262.9005	0.1748
263.1148	0.1752
263.3291	0.177
263.5433	0.179
263.7576	0.1815
263.9718	0.1835
264.186	0.1793
264.4002	0.1806
264.6144	0.1877
264.8286	0.1827
265.0427	0.1869
265.2569	0.1865
265.471	0.184
265.6851	0.1892
265.8993	0.1825
266.1134	0.1848
266.3275	0.1883
266.5415	0.1904
266.7556	0.1899
266.9697	0.188
267.1837	0.1841
267.3978	0.1864
267.6118	0.1837
267.8258	0.1874
268.0398	0.1878
268.2538	0.1906
268.4677	0.1821
268.6817	0.1792
268.8957	0.1748
269.1096	0.1727
269.3235	0.1815
269.5374	0.1828
269.7514	0.1846
269.9652	0.1804
270.1791	0.1758
270.393	0.1761
270.6068	0.1823
270.8207	0.1767
271.0345	0.1765
271.2483	0.173
271.4622	0.1856
271.676	0.1728
271.8897	0.1782
272.1035	0.1853
272.3173	0.1802
272.531	0.1823
272.7448	0.1784
272.9585	0.1737
273.1722	0.1774
273.3859	0.1818
273.5996	0.1841
273.8133	0.1858
274.0269	0.1745
274.2406	0.178
274.4542	0.1788
274.6679	0.1799
274.8815	0.1946
275.0951	0.1877
275.3087	0.1879
275.5223	0.1879
275.7358	0.1876
275.9494	0.1841
276.1629	0.1864
276.3765	0.1877
276.59	0.1889
276.8035	0.1835
277.017	0.1887
277.2305	0.1891
277.444	0.19
277.6574	0.1905
277.8709	0.1954
278.0843	0.1916
278.2978	0.1917
278.5112	0.1907
278.7246	0.1875
278.938	0.192
279.1513	0.1927
279.3647	0.1876
279.5781	0.1898
279.7914	0.186
280.0047	0.1913
280.2181	0.1889
280.4314	0.1903
280.6447	0.1986
280.8579	0.1806
281.0712	0.183
281.2845	0.1874
281.4977	0.1866
281.711	0.1842
281.9242	0.1868
282.1374	0.1899
282.3506	0.1878
282.5638	0.1863
282.7769	0.1791
282.9901	0.1852
283.2033	0.1842
283.4164	0.1834
283.6295	0.1931
283.8426	0.1779
284.0557	0.1835
284.2688	0.1904
284.4819	0.1805
284.695	0.1891
284.908	0.1816
285.1211	0.1884
285.3341	0.1838
285.5471	0.1872
285.7601	0.1854
285.9731	0.1877
286.1861	0.1877
286.3991	0.1914
286.612	0.1878
286.825	0.1864
287.0379	0.1859
287.2508	0.186
287.4637	0.1897
287.6766	0.1863
287.8895	0.1844
288.1024	0.191
288.3152	0.1812
288.5281	0.1776
288.7409	0.1904
288.9538	0.1852
289.1666	0.1846
289.3794	0.1869
289.5922	0.1818
289.8049	0.1903
290.0177	0.1881
290.2304	0.1888
290.4432	0.1964
290.6559	0.1907
290.8686	0.1864
291.0813	0.1843
291.294	0.1922
291.5067	0.1817
291.7194	0.1917
291.932	0.1858
292.1447	0.1883
292.3573	0.1898
292.5699	0.1969
292.7825	0.1884
292.9951	0.1865
293.2077	0.1855
293.4203	0.1833
293.6328	0.1824
293.8454	0.188
294.0579	0.1814
294.2704	0.1877
294.4829	0.1949
294.6954	0.189
294.9079	0.1919
295.1204	0.1801
295.3328	0.1926
295.5453	0.1885
295.7577	0.1784
295.9701	0.1844
296.1825	0.1898
296.3949	0.184
296.6073	0.186
296.8197	0.1798
297.0321	0.1946
297.2444	0.1873
297.4567	0.1932
297.6691	0.188
297.8814	0.1874
298.0937	0.1837
298.306	0.1885
298.5182	0.1914
298.7305	0.1928
298.9428	0.1909
299.155	0.1831
299.3672	0.1868
299.5794	0.1914
299.7916	0.1861
300.0038	0.1905
300.216	0.1863
300.4282	0.1865
300.6403	0.1891
300.8525	0.1891
301.0646	0.1927
301.2767	0.187
301.4888	0.1888
301.7009	0.1907
301.913	0.1928
302.125	0.1878
302.3371	0.1873
302.5491	0.1885
302.7612	0.1945
302.9732	0.1946
303.1852	0.1855
303.3972	0.1888
303.6092	0.1916
303.8211	0.1867
304.0331	0.1879
304.245	0.1834
304.457	0.1893
304.6689	0.1899
304.8808	0.184
305.0927	0.1849
305.3046	0.1825
305.5164	0.1789
305.7283	0.179
305.9401	0.1723
306.152	0.1766
306.3638	0.1823
306.5756	0.1796
306.7874	0.1729
306.9992	0.1724
307.2109	0.1737
307.4227	0.1685
307.6344	0.1789
307.8462	0.1641
308.0579	0.1676
308.2696	0.169
308.4813	0.1622
308.693	0.1623
308.9046	0.1733
309.1163	0.159
309.328	0.1572
309.5396	0.1552
309.7512	0.1558
309.9628	0.153
310.1744	0.1542
310.386	0.1455
310.5976	0.1553
310.8091	0.1566
311.0207	0.1481
311.2322	0.1426
311.4437	0.1468
311.6552	0.1473
311.8667	0.149
312.0782	0.1416
312.2897	0.1432
312.5012	0.1382
312.7126	0.1398
312.924	0.1428
313.1355	0.1379
313.3469	0.1396
313.5583	0.1384
313.7696	0.135
313.981	0.1362
314.1924	0.1311
314.4037	0.133
314.6151	0.1346
314.8264	0.1383
315.0377	0.1331
315.249	0.1328
315.4603	0.1285
315.6716	0.1332
315.8828	0.1308
316.0941	0.1377
316.3053	0.128
316.5165	0.1379
316.7277	0.1255
316.9389	0.1379
317.1501	0.1297
317.3613	0.1272
317.5724	0.1339
317.7836	0.1216
317.9947	0.1293
318.2058	0.128
318.417	0.1217
318.6281	0.1251
318.8391	0.1332
319.0502	0.1322
319.2613	0.1203
319.4723	0.1291
319.6834	0.1297
319.8944	0.1261
320.1054	0.1282
320.3164	0.1191
320.5274	0.1275
320.7383	0.1316
320.9493	0.1328
321.1602	0.1279
321.3712	0.128
321.5821	0.1308
321.793	0.1365
322.0039	0.1283
322.2148	0.1318
322.4257	0.125
322.6365	0.1242
322.8474	0.1328
323.0582	0.1323
323.269	0.1289
323.4798	0.1336
323.6906	0.1283
323.9014	0.1254
324.1122	0.1246
324.3229	0.1309
324.5337	0.132
324.7444	0.1298
324.9551	0.132
325.1658	0.1277
325.3765	0.1355
325.5872	0.1284
325.7979	0.1312
326.0085	0.1352
326.2192	0.1325
326.4298	0.1328
326.6404	0.1381
326.851	0.1294
327.0616	0.1381
327.2722	0.1319
327.4828	0.135
327.6933	0.139
327.9039	0.1396
328.1144	0.1364
328.3249	0.1387
328.5354	0.1355
328.7459	0.1393
328.9564	0.1399
329.1669	0.1405
329.3773	0.1404
329.5878	0.1313
329.7982	0.1411
330.0086	0.1377
330.219	0.141
330.4294	0.1475
330.6398	0.1447
330.8502	0.138
331.0605	0.1403
331.2708	0.14
331.4812	0.1405
331.6915	0.1461
331.9018	0.144
332.1121	0.1472
332.3224	0.1426
332.5326	0.1418
332.7429	0.1391
332.9531	0.1451
333.1633	0.1403
333.3735	0.1373
333.5837	0.1418
333.7939	0.1463
334.0041	0.1484
334.2143	0.1354
334.4244	0.1533
334.6346	0.1374
334.8447	0.1446
335.0548	0.1427
335.2649	0.1403
335.475	0.1513
335.685	0.1482
335.8951	0.14
336.1051	0.1509
336.3152	0.1466
336.5252	0.1436
336.7352	0.1451
336.9452	0.1475
337.1552	0.1469
337.3652	0.1392
337.5751	0.1415
337.7851	0.1514
337.995	0.1493
338.2049	0.1435
338.4148	0.1444
338.6247	0.1426
338.8346	0.1456
339.0445	0.1449
339.2543	0.1452
339.4642	0.1459
339.674	0.1436
339.8838	0.1435
340.0936	0.1453
340.3034	0.1435
340.5132	0.1408
340.7229	0.1489
340.9327	0.1569
341.1424	0.1526
341.3522	0.1397
341.5619	0.1494
341.7716	0.148
341.9813	0.1537
342.1909	0.1536
342.4006	0.1519
342.6102	0.1527
342.8199	0.156
343.0295	0.1455
343.2391	0.1591
343.4487	0.154
343.6583	0.1665
343.8679	0.1569
344.0774	0.1605
344.287	0.1612
344.4965	0.1648
344.706	0.1646
344.9155	0.1585
345.125	0.1599
345.3345	0.1723
345.544	0.1613
345.7534	0.1605
345.9629	0.1765
346.1723	0.1703
346.3817	0.1667
346.5911	0.1711
346.8005	0.1698
347.0099	0.1735
347.2193	0.1741
347.4286	0.1739
347.638	0.1767
347.8473	0.1773
348.0566	0.17
348.2659	0.1712
348.4752	0.1731
348.6845	0.1734
348.8937	0.173
349.103	0.1683
349.3122	0.1775
349.5214	0.1777
349.7306	0.1784
349.9398	0.1762
350.149	0.175
350.3582	0.1807
350.5674	0.1811
350.7765	0.1761
350.9856	0.1732
351.1948	0.1796
351.4039	0.185
351.613	0.1766
351.822	0.1881
352.0311	0.1762
352.2402	0.1835
352.4492	0.1881
352.6582	0.1812
352.8672	0.1873
353.0762	0.1775
353.2852	0.1886
353.4942	0.1899
353.7032	0.1779
353.9121	0.1789
354.1211	0.1867
354.33	0.1888
354.5389	0.18
354.7478	0.1821
354.9567	0.1839
355.1655	0.1813
355.3744	0.1771
355.5833	0.189
355.7921	0.1951
356.0009	0.1864
356.2097	0.1723
356.4185	0.1908
356.6273	0.1837
356.8361	0.1883
357.0448	0.1819
357.2536	0.186
357.4623	0.1856
357.671	0.1924
357.8797	0.1966
358.0884	0.1828
358.2971	0.1964
358.5057	0.1941
358.7144	0.1882
358.923	0.1941
359.1316	0.1962
359.3402	0.1872
359.5488	0.1926
359.7574	0.199
359.966	0.197
360.1746	0.1926
360.3831	0.2007
360.5916	0.1991
360.8002	0.2039
361.0087	0.2044
361.2172	0.2038
361.4256	0.2045
361.6341	0.2081
361.8426	0.2041
362.051	0.205
362.2594	0.2053
362.4678	0.2089
362.6762	0.2165
362.8846	0.2134
363.093	0.213
363.3014	0.2152
363.5097	0.2113
363.718	0.2125
363.9264	0.2142
364.1347	0.2165
364.343	0.2112
364.5513	0.2173
364.7595	0.219
364.9678	0.2104
365.176	0.2142
365.3842	0.2243
365.5925	0.2189
365.8007	0.2171
366.0089	0.2194
366.217	0.2215
366.4252	0.2211
366.6333	0.2279
366.8415	0.2253
367.0496	0.2235
367.2577	0.2264
367.4658	0.228
367.6739	0.221
367.882	0.2292
368.09	0.2241
368.2981	0.235
368.5061	0.2291
368.7141	0.2235
368.9221	0.2392
369.1301	0.2384
369.3381	0.2438
369.5461	0.2341
369.754	0.2381
369.962	0.2379
370.1699	0.2394
370.3778	0.2463
370.5857	0.2358
370.7936	0.2424
371.0015	0.2382
371.2093	0.238
371.4172	0.2344
371.625	0.233
371.8328	0.2395
372.0406	0.2407
372.2484	0.2398
372.4562	0.252
372.664	0.2481
372.8717	0.2533
373.0795	0.2511
373.2872	0.2424
373.4949	0.2562
373.7026	0.246
373.9103	0.2508
374.118	0.2491
374.3256	0.2499
374.5333	0.2552
374.7409	0.2477
374.9485	0.2448
375.1561	0.2536
375.3637	0.2512
375.5713	0.2606
375.7789	0.2557
375.9864	0.2598
376.194	0.2598
376.4015	0.2615
376.609	0.2644
376.8165	0.2614
377.024	0.2576
377.2315	0.2635
377.4389	0.2588
377.6464	0.2725
377.8538	0.2675
378.0612	0.2665
378.2686	0.2628
378.476	0.2705
378.6834	0.267
378.8908	0.2678
379.0981	0.2736
379.3055	0.2724
379.5128	0.2648
379.7201	0.2769
379.9274	0.2673
380.1347	0.2738
380.342	0.2727
380.5492	0.2746
380.7565	0.2741
380.9637	0.2674
381.1709	0.2688
381.3781	0.2816
381.5853	0.2817
381.7925	0.2697
381.9997	0.276
382.2068	0.2741
382.4139	0.2742
382.6211	0.2678
382.8282	0.2845
383.0353	0.2773
383.2424	0.2932
383.4494	0.2699
383.6565	0.2784
383.8635	0.2819
384.0706	0.2908
384.2776	0.2893
384.4846	0.2806
384.6916	0.2793
384.8986	0.2828
385.1055	0.2862
385.3125	0.2884
385.5194	0.2927
385.7263	0.2829
385.9333	0.2908
386.1402	0.287
386.347	0.2803
386.5539	0.2898
386.7608	0.2769
386.9676	0.2824
387.1744	0.2779
387.3813	0.2886
387.5881	0.2766
387.7948	0.2815
388.0016	0.2954
388.2084	0.283
388.4151	0.2746
388.6219	0.2775
388.8286	0.2795
389.0353	0.284
389.242	0.2894
389.4487	0.2773
389.6553	0.2707
389.862	0.2667
390.0686	0.2818
390.2753	0.2726
390.4819	0.2728
390.6885	0.273
390.8951	0.2737
391.1016	0.2813
391.3082	0.2763
391.5147	0.2621
391.7213	0.2726
391.9278	0.2622
392.1343	0.2723
392.3408	0.2718
392.5473	0.265
392.7537	0.2578
392.9602	0.2664
393.1666	0.2578
393.373	0.2625
393.5794	0.2581
393.7858	0.2634
393.9922	0.26
394.1986	0.2557
394.4049	0.2611
394.6113	0.2538
394.8176	0.2552
395.0239	0.2525
395.2302	0.2542
395.4365	0.2514
395.6428	0.2552
395.8491	0.2485
396.0553	0.2393
396.2615	0.2566
396.4678	0.2526
396.674	0.2367
396.8802	0.2562
397.0863	0.2375
397.2925	0.2531
397.4987	0.2414
397.7048	0.2491
397.9109	0.2455
398.117	0.2388
398.3231	0.2461
398.5292	0.2274
398.7353	0.2308
398.9413	0.236
399.1474	0.2304
399.3534	0.2403
399.5594	0.2441
399.7654	0.2349
399.9714	0.2475
400.1774	0.2294
400.3833	0.2376
400.5893	0.235
400.7952	0.2435
401.0011	0.2385
401.207	0.238
401.4129	0.2373
401.6188	0.2366
401.8247	0.2495
402.0305	0.2367
402.2364	0.2438
402.4422	0.2331
402.648	0.2431
402.8538	0.2416
403.0596	0.2374
403.2654	0.2447
403.4711	0.2356
403.6768	0.239
403.8826	0.2373
404.0883	0.2382
404.294	0.2443
404.4997	0.2365
404.7054	0.2391
404.911	0.2351
405.1167	0.2319
405.3223	0.2293
405.5279	0.2405
405.7335	0.2331
405.9391	0.2331
406.1447	0.2453
406.3502	0.24
406.5558	0.231
406.7613	0.24
406.9668	0.2312
407.1724	0.2378
407.3778	0.2393
407.5833	0.2329
407.7888	0.2339
407.9942	0.2263
408.1997	0.2414
408.4051	0.2447
408.6105	0.2366
408.8159	0.2376
409.0213	0.2362
409.2267	0.2418
409.432	0.2359
409.6374	0.2434
409.8427	0.2418
410.048	0.2404
410.2533	0.2316
410.4586	0.2363
410.6639	0.2404
410.8691	0.2314
411.0744	0.2365
411.2796	0.2412
411.4848	0.2331
411.69	0.2284
411.8952	0.2452
412.1004	0.237
412.3056	0.2333
412.5107	0.2413
412.7158	0.2502
412.921	0.2325
413.1261	0.2348
413.3312	0.2378
413.5362	0.2421
413.7413	0.238
413.9464	0.2157
414.1514	0.2313
414.3564	0.2324
414.5614	0.2243
414.7664	0.2354
414.9714	0.2309
415.1764	0.2333
415.3813	0.2363
415.5863	0.2384
415.7912	0.2273
415.9961	0.2327
416.201	0.2469
416.4059	0.2315
416.6108	0.2321
416.8156	0.2212
417.0205	0.2284
417.2253	0.2217
417.4301	0.2291
417.6349	0.2335
417.8397	0.2221
418.0445	0.23
418.2492	0.2243
418.454	0.2272
418.6587	0.2302
418.8634	0.231
419.0681	0.2275
419.2728	0.2228
419.4775	0.2263
419.6822	0.2173
419.8868	0.219
420.0915	0.2168
420.2961	0.2154
420.5007	0.2241
420.7053	0.2167
420.9099	0.2288
421.1144	0.2189
421.319	0.2197
421.5235	0.2145
421.728	0.2269
421.9325	0.2217
422.137	0.2067
422.3415	0.215
422.546	0.2091
422.7504	0.2098
422.9549	0.2251
423.1593	0.1937
423.3637	0.2124
423.5681	0.2128
423.7725	0.2148
423.9769	0.2172
424.1812	0.1958
424.3856	0.1969
424.5899	0.2007
424.7942	0.2017
424.9985	0.2065
425.2028	0.2158
425.4071	0.2068
425.6113	0.2005
425.8156	0.1982
426.0198	0.1958
426.224	0.2046
426.4282	0.192
426.6324	0.2051
426.8366	0.187
