Data from D4ACN5uM440nmA_Absorbance_13-50-25-282.txt Node
Date: Fri Feb 21 13:50:25 GMT 2025
User: LASERRRRR
Spectrometer: FLMT03099
Trigger mode: 0
Integration Time (sec): 1.500000E-2
Scans to average: 1
Electric dark correction enabled: true
Nonlinearity correction enabled: false
Boxcar width: 0
XAxis mode: Wavelengths
Number of Pixels in Spectrum: 3648
>>>>>Begin Spectral Data<<<<<
179.3399	-0.7373
179.5586	-0.7373
179.7771	-0.7373
179.9957	0.4279
180.2143	-1.1592
180.4329	1.2384
180.6514	-0
180.8699	1.2025
181.0885	-0
181.307	0.116
181.5255	0.0281
181.744	-0
181.9625	0.524
182.181	-0.1884
182.3994	0.8734
182.6179	0.7743
182.8363	0.1753
183.0547	-0.0456
183.2732	0.0923
183.4916	0.6974
183.71	0.2565
183.9284	0.0172
184.1467	0.1759
184.3651	0.0804
184.5835	0.2044
184.8018	0.2091
185.0201	0.1438
185.2385	0.1654
185.4568	-0.0278
185.6751	0.1481
185.8934	0.2791
186.1117	0.001
186.3299	0.4964
186.5482	0.1991
186.7664	-0.0076
186.9847	-0.0558
187.2029	0.2228
187.4211	0.0548
187.6393	0.0234
187.8575	0.3907
188.0757	0.2002
188.2939	-0.1565
188.512	0.4781
188.7302	0.1658
188.9483	0.5252
189.1665	0.5548
189.3846	0.2784
189.6027	0.034
189.8208	0.2321
190.0389	0.1718
190.257	0.007
190.475	0.1683
190.6931	0.1936
190.9111	0.1738
191.1292	0.0301
191.3472	0.0664
191.5652	0.506
191.7832	0.2143
192.0012	0.1295
192.2192	0.1154
192.4371	0.1161
192.6551	0.1708
192.873	0.1959
193.091	0.1583
193.3089	0.2023
193.5268	0.2943
193.7447	0.2061
193.9626	0.2271
194.1805	0.2145
194.3984	0.2958
194.6162	0.2602
194.8341	0.4555
195.0519	0.2827
195.2697	0.2658
195.4875	0.4021
195.7054	0.2847
195.9231	0.2088
196.1409	0.2743
196.3587	0.328
196.5765	0.3322
196.7942	0.345
197.012	0.3354
197.2297	0.3469
197.4474	0.2729
197.6651	0.3173
197.8828	0.3629
198.1005	0.4396
198.3182	0.4214
198.5358	0.3987
198.7535	0.3992
198.9711	0.4026
199.1888	0.3774
199.4064	0.4528
199.624	0.3578
199.8416	0.3585
200.0592	0.4021
200.2767	0.3963
200.4943	0.4387
200.7119	0.4028
200.9294	0.4088
201.1469	0.4464
201.3645	0.4733
201.582	0.3877
201.7995	0.424
202.017	0.3821
202.2344	0.4264
202.4519	0.3956
202.6694	0.4135
202.8868	0.381
203.1042	0.4018
203.3217	0.3959
203.5391	0.4283
203.7565	0.3646
203.9739	0.3763
204.1913	0.3631
204.4086	0.3362
204.626	0.3529
204.8433	0.3875
205.0607	0.3563
205.278	0.3469
205.4953	0.3301
205.7126	0.3379
205.9299	0.3153
206.1472	0.3139
206.3644	0.3532
206.5817	0.3246
206.7989	0.3445
207.0162	0.3053
207.2334	0.3377
207.4506	0.2989
207.6678	0.3211
207.885	0.2928
208.1022	0.3223
208.3194	0.2653
208.5365	0.3406
208.7537	0.287
208.9708	0.3
209.1879	0.2938
209.405	0.3002
209.6222	0.2847
209.8392	0.2911
210.0563	0.2738
210.2734	0.2718
210.4905	0.2719
210.7075	0.2619
210.9245	0.2708
211.1416	0.2787
211.3586	0.2535
211.5756	0.2408
211.7926	0.2629
212.0096	0.2555
212.2265	0.2603
212.4435	0.2507
212.6604	0.2678
212.8774	0.2525
213.0943	0.2653
213.3112	0.2585
213.5281	0.2513
213.745	0.2433
213.9619	0.2447
214.1788	0.2687
214.3956	0.2612
214.6125	0.256
214.8293	0.2581
215.0461	0.2417
215.2629	0.2509
215.4798	0.2363
215.6965	0.2492
215.9133	0.2511
216.1301	0.2293
216.3469	0.243
216.5636	0.246
216.7803	0.2439
216.9971	0.2557
217.2138	0.2571
217.4305	0.2541
217.6472	0.2481
217.8639	0.2543
218.0805	0.271
218.2972	0.2576
218.5138	0.2779
218.7305	0.2648
218.9471	0.2348
219.1637	0.2667
219.3803	0.2672
219.5969	0.2475
219.8135	0.2642
220.0301	0.2481
220.2466	0.2529
220.4632	0.2624
220.6797	0.2596
220.8962	0.247
221.1127	0.2744
221.3292	0.2608
221.5457	0.2711
221.7622	0.2566
221.9787	0.2809
222.1951	0.2763
222.4116	0.2829
222.628	0.281
222.8444	0.2681
223.0608	0.2798
223.2772	0.2699
223.4936	0.2801
223.71	0.2911
223.9264	0.3007
224.1427	0.2878
224.3591	0.2855
224.5754	0.2933
224.7917	0.2858
225.008	0.298
225.2243	0.3008
225.4406	0.2865
225.6569	0.314
225.8732	0.3075
226.0894	0.3091
226.3057	0.3141
226.5219	0.3013
226.7381	0.3234
226.9543	0.312
227.1705	0.3167
227.3867	0.3236
227.6029	0.3161
227.8191	0.3381
228.0352	0.3402
228.2513	0.3491
228.4675	0.3381
228.6836	0.3432
228.8997	0.3517
229.1158	0.3451
229.3319	0.3634
229.548	0.3614
229.764	0.3607
229.9801	0.359
230.1961	0.3701
230.4121	0.3682
230.6282	0.3795
230.8442	0.3921
231.0602	0.3813
231.2761	0.3851
231.4921	0.3864
231.7081	0.387
231.924	0.3966
232.14	0.3923
232.3559	0.3956
232.5718	0.4007
232.7877	0.4061
233.0036	0.4044
233.2195	0.4175
233.4353	0.4118
233.6512	0.4189
233.867	0.4274
234.0829	0.4214
234.2987	0.4283
234.5145	0.4345
234.7303	0.4313
234.9461	0.4288
235.1619	0.4397
235.3776	0.4286
235.5934	0.4415
235.8091	0.4538
236.0249	0.4498
236.2406	0.443
236.4563	0.4535
236.672	0.4394
236.8877	0.4619
237.1034	0.4554
237.319	0.4474
237.5347	0.4601
237.7503	0.4401
237.966	0.4577
238.1816	0.4512
238.3972	0.4565
238.6128	0.4662
238.8284	0.4617
239.0439	0.463
239.2595	0.4652
239.475	0.4561
239.6906	0.4529
239.9061	0.4497
240.1216	0.4633
240.3371	0.4677
240.5526	0.4666
240.7681	0.4705
240.9836	0.4646
241.199	0.4431
241.4145	0.4446
241.6299	0.4481
241.8453	0.437
242.0607	0.4441
242.2761	0.4355
242.4915	0.4281
242.7069	0.4107
242.9223	0.4157
243.1376	0.4096
243.353	0.4017
243.5683	0.3979
243.7836	0.3883
243.9989	0.3725
244.2142	0.3755
244.4295	0.3698
244.6448	0.361
244.86	0.3477
245.0753	0.3459
245.2905	0.3406
245.5057	0.3355
245.721	0.3361
245.9362	0.3281
246.1514	0.3204
246.3665	0.3136
246.5817	0.2956
246.7969	0.3052
247.012	0.2945
247.2271	0.2918
247.4423	0.2876
247.6574	0.2884
247.8725	0.2712
248.0876	0.266
248.3026	0.2662
248.5177	0.2498
248.7328	0.2477
248.9478	0.2531
249.1628	0.2474
249.3779	0.2396
249.5929	0.2354
249.8079	0.235
250.0228	0.2342
250.2378	0.2284
250.4528	0.2332
250.6677	0.2202
250.8827	0.2121
251.0976	0.2128
251.3125	0.2155
251.5274	0.2111
251.7423	0.2058
251.9572	0.2117
252.172	0.211
252.3869	0.208
252.6017	0.2072
252.8166	0.1975
253.0314	0.1969
253.2462	0.1961
253.461	0.1983
253.6758	0.1942
253.8906	0.1912
254.1053	0.1959
254.3201	0.1895
254.5348	0.1829
254.7496	0.1842
254.9643	0.1893
255.179	0.1854
255.3937	0.1938
255.6083	0.1931
255.823	0.1852
256.0377	0.1792
256.2523	0.1839
256.467	0.1851
256.6816	0.1771
256.8962	0.1857
257.1108	0.1841
257.3254	0.178
257.54	0.1831
257.7545	0.1798
257.9691	0.1732
258.1836	0.1731
258.3981	0.185
258.6127	0.1684
258.8272	0.1807
259.0417	0.1756
259.2561	0.1784
259.4706	0.177
259.6851	0.1733
259.8995	0.1775
260.114	0.1808
260.3284	0.174
260.5428	0.1752
260.7572	0.1752
260.9716	0.1847
261.186	0.173
261.4003	0.1744
261.6147	0.1716
261.829	0.1792
262.0433	0.1768
262.2577	0.1781
262.472	0.1785
262.6863	0.1786
262.9005	0.1724
263.1148	0.1785
263.3291	0.1801
263.5433	0.1828
263.7576	0.1822
263.9718	0.1796
264.186	0.1783
264.4002	0.1785
264.6144	0.1885
264.8286	0.1827
265.0427	0.1874
265.2569	0.1845
265.471	0.1787
265.6851	0.1804
265.8993	0.1763
266.1134	0.1795
266.3275	0.1803
266.5415	0.1811
266.7556	0.1847
266.9697	0.1824
267.1837	0.1786
267.3978	0.1812
267.6118	0.1798
267.8258	0.1864
268.0398	0.1846
268.2538	0.183
268.4677	0.176
268.6817	0.179
268.8957	0.1734
269.1096	0.1638
269.3235	0.1811
269.5374	0.1785
269.7514	0.1785
269.9652	0.1771
270.1791	0.1766
270.393	0.1708
270.6068	0.1784
270.8207	0.1759
271.0345	0.1763
271.2483	0.1706
271.4622	0.1708
271.676	0.1784
271.8897	0.1693
272.1035	0.1756
272.3173	0.1706
272.531	0.171
272.7448	0.1728
272.9585	0.1696
273.1722	0.1671
273.3859	0.1725
273.5996	0.1769
273.8133	0.1771
274.0269	0.1749
274.2406	0.1732
274.4542	0.171
274.6679	0.1785
274.8815	0.1799
275.0951	0.1823
275.3087	0.179
275.5223	0.1763
275.7358	0.1819
275.9494	0.1735
276.1629	0.1776
276.3765	0.1757
276.59	0.1777
276.8035	0.1748
277.017	0.1826
277.2305	0.1824
277.444	0.1857
277.6574	0.182
277.8709	0.1831
278.0843	0.1821
278.2978	0.1783
278.5112	0.1858
278.7246	0.1786
278.938	0.1784
279.1513	0.1821
279.3647	0.1841
279.5781	0.1825
279.7914	0.1831
280.0047	0.1844
280.2181	0.1815
280.4314	0.1819
280.6447	0.1925
280.8579	0.1745
281.0712	0.1849
281.2845	0.1807
281.4977	0.1811
281.711	0.176
281.9242	0.182
282.1374	0.1795
282.3506	0.1817
282.5638	0.1792
282.7769	0.1751
282.9901	0.1832
283.2033	0.1822
283.4164	0.1871
283.6295	0.1828
283.8426	0.1809
284.0557	0.1884
284.2688	0.1867
284.4819	0.1806
284.695	0.1874
284.908	0.1892
285.1211	0.1861
285.3341	0.1825
285.5471	0.1839
285.7601	0.1869
285.9731	0.1842
286.1861	0.1929
286.3991	0.186
286.612	0.1857
286.825	0.1933
287.0379	0.1821
287.2508	0.1875
287.4637	0.1893
287.6766	0.1891
287.8895	0.1828
288.1024	0.1848
288.3152	0.1886
288.5281	0.1858
288.7409	0.194
288.9538	0.1896
289.1666	0.1832
289.3794	0.1898
289.5922	0.1874
289.8049	0.1908
290.0177	0.188
290.2304	0.1873
290.4432	0.19
290.6559	0.1917
290.8686	0.197
291.0813	0.1909
291.294	0.1924
291.5067	0.189
291.7194	0.1906
291.932	0.1856
292.1447	0.1872
292.3573	0.191
292.5699	0.1857
292.7825	0.1891
292.9951	0.1897
293.2077	0.1911
293.4203	0.1915
293.6328	0.1882
293.8454	0.1913
294.0579	0.1879
294.2704	0.1939
294.4829	0.1876
294.6954	0.194
294.9079	0.1901
295.1204	0.1847
295.3328	0.1953
295.5453	0.187
295.7577	0.1892
295.9701	0.1912
296.1825	0.1928
296.3949	0.1817
296.6073	0.189
296.8197	0.1905
297.0321	0.1956
297.2444	0.1898
297.4567	0.1945
297.6691	0.1892
297.8814	0.1905
298.0937	0.1871
298.306	0.1874
298.5182	0.1964
298.7305	0.1887
298.9428	0.1924
299.155	0.184
299.3672	0.1905
299.5794	0.1924
299.7916	0.1899
300.0038	0.1945
300.216	0.1952
300.4282	0.1843
300.6403	0.1958
300.8525	0.1907
301.0646	0.194
301.2767	0.1944
301.4888	0.1902
301.7009	0.1969
301.913	0.1941
302.125	0.189
302.3371	0.1879
302.5491	0.1898
302.7612	0.1985
302.9732	0.1897
303.1852	0.1964
303.3972	0.1914
303.6092	0.1914
303.8211	0.1873
304.0331	0.1909
304.245	0.1909
304.457	0.1912
304.6689	0.1838
304.8808	0.1819
305.0927	0.1929
305.3046	0.1852
305.5164	0.1871
305.7283	0.1869
305.9401	0.1775
306.152	0.1794
306.3638	0.1815
306.5756	0.1794
306.7874	0.1739
306.9992	0.1732
307.2109	0.1718
307.4227	0.1706
307.6344	0.1751
307.8462	0.1682
308.0579	0.1684
308.2696	0.1621
308.4813	0.1608
308.693	0.1673
308.9046	0.1651
309.1163	0.1599
309.328	0.1567
309.5396	0.1517
309.7512	0.1531
309.9628	0.1537
310.1744	0.1539
310.386	0.1509
310.5976	0.1482
310.8091	0.1513
311.0207	0.1476
311.2322	0.1459
311.4437	0.1455
311.6552	0.1438
311.8667	0.1451
312.0782	0.1397
312.2897	0.1427
312.5012	0.1427
312.7126	0.1339
312.924	0.1417
313.1355	0.1396
313.3469	0.1358
313.5583	0.1355
313.7696	0.1286
313.981	0.1389
314.1924	0.1331
314.4037	0.1311
314.6151	0.1305
314.8264	0.1311
315.0377	0.1326
315.249	0.128
315.4603	0.1305
315.6716	0.1304
315.8828	0.1291
316.0941	0.1251
316.3053	0.1259
316.5165	0.1327
316.7277	0.1202
316.9389	0.1243
317.1501	0.1297
317.3613	0.1284
317.5724	0.1256
317.7836	0.1225
317.9947	0.1198
318.2058	0.1203
318.417	0.1234
318.6281	0.125
318.8391	0.1293
319.0502	0.1251
319.2613	0.1222
319.4723	0.1197
319.6834	0.1322
319.8944	0.1224
320.1054	0.1218
320.3164	0.1197
320.5274	0.1234
320.7383	0.1299
320.9493	0.1235
321.1602	0.1275
321.3712	0.1246
321.5821	0.124
321.793	0.132
322.0039	0.1269
322.2148	0.1268
322.4257	0.1251
322.6365	0.1243
322.8474	0.1294
323.0582	0.1282
323.269	0.1244
323.4798	0.1255
323.6906	0.1221
323.9014	0.1256
324.1122	0.1203
324.3229	0.13
324.5337	0.1253
324.7444	0.132
324.9551	0.1297
325.1658	0.1284
325.3765	0.1315
325.5872	0.1266
325.7979	0.1244
326.0085	0.128
326.2192	0.1283
326.4298	0.1311
326.6404	0.133
326.851	0.1294
327.0616	0.1301
327.2722	0.1354
327.4828	0.1301
327.6933	0.1372
327.9039	0.1336
328.1144	0.1282
328.3249	0.1324
328.5354	0.1303
328.7459	0.131
328.9564	0.1307
329.1669	0.1378
329.3773	0.1324
329.5878	0.1308
329.7982	0.141
330.0086	0.138
330.219	0.135
330.4294	0.1357
330.6398	0.1352
330.8502	0.1395
331.0605	0.1339
331.2708	0.1309
331.4812	0.1323
331.6915	0.1331
331.9018	0.1337
332.1121	0.1461
332.3224	0.1353
332.5326	0.1392
332.7429	0.1318
332.9531	0.1406
333.1633	0.1343
333.3735	0.1353
333.5837	0.1356
333.7939	0.1399
334.0041	0.1407
334.2143	0.1332
334.4244	0.1363
334.6346	0.1386
334.8447	0.1334
335.0548	0.1373
335.2649	0.1394
335.475	0.1417
335.685	0.1399
335.8951	0.1373
336.1051	0.1414
336.3152	0.1422
336.5252	0.1322
336.7352	0.133
336.9452	0.1379
337.1552	0.1373
337.3652	0.1385
337.5751	0.1435
337.7851	0.1411
337.995	0.142
338.2049	0.142
338.4148	0.1406
338.6247	0.1419
338.8346	0.1311
339.0445	0.1418
339.2543	0.1411
339.4642	0.1347
339.674	0.1418
339.8838	0.1445
340.0936	0.1479
340.3034	0.1391
340.5132	0.1374
340.7229	0.1453
340.9327	0.1555
341.1424	0.1377
341.3522	0.1435
341.5619	0.1502
341.7716	0.1429
341.9813	0.1536
342.1909	0.1498
342.4006	0.152
342.6102	0.1487
342.8199	0.1483
343.0295	0.1519
343.2391	0.1505
343.4487	0.1542
343.6583	0.1549
343.8679	0.1487
344.0774	0.1529
344.287	0.1549
344.4965	0.1599
344.706	0.1586
344.9155	0.1515
345.125	0.1548
345.3345	0.1671
345.544	0.158
345.7534	0.1553
345.9629	0.1607
346.1723	0.1616
346.3817	0.1594
346.5911	0.1616
346.8005	0.1696
347.0099	0.1623
347.2193	0.1723
347.4286	0.1719
347.638	0.1682
347.8473	0.1655
348.0566	0.1677
348.2659	0.1622
348.4752	0.1685
348.6845	0.169
348.8937	0.1765
349.103	0.175
349.3122	0.172
349.5214	0.1713
349.7306	0.1732
349.9398	0.1745
350.149	0.1704
350.3582	0.1724
350.5674	0.1702
350.7765	0.1802
350.9856	0.1716
351.1948	0.1719
351.4039	0.1796
351.613	0.18
351.822	0.1807
352.0311	0.1794
352.2402	0.1758
352.4492	0.1828
352.6582	0.1852
352.8672	0.1834
353.0762	0.1752
353.2852	0.1886
353.4942	0.1862
353.7032	0.1802
353.9121	0.1874
354.1211	0.1819
354.33	0.1891
354.5389	0.1793
354.7478	0.1822
354.9567	0.1877
355.1655	0.1912
355.3744	0.1846
355.5833	0.1866
355.7921	0.1885
356.0009	0.1862
356.2097	0.1774
356.4185	0.18
356.6273	0.1878
356.8361	0.188
357.0448	0.1854
357.2536	0.1974
357.4623	0.1897
357.671	0.1925
357.8797	0.1917
358.0884	0.1811
358.2971	0.1899
358.5057	0.1932
358.7144	0.1927
358.923	0.1944
359.1316	0.198
359.3402	0.1985
359.5488	0.1936
359.7574	0.2029
359.966	0.2065
360.1746	0.1997
360.3831	0.2063
360.5916	0.1944
360.8002	0.2084
361.0087	0.2002
361.2172	0.1977
361.4256	0.2035
361.6341	0.2058
361.8426	0.1996
362.051	0.2135
362.2594	0.213
362.4678	0.211
362.6762	0.2152
362.8846	0.2112
363.093	0.2129
363.3014	0.2261
363.5097	0.2117
363.718	0.2267
363.9264	0.224
364.1347	0.2127
364.343	0.2144
364.5513	0.2176
364.7595	0.2281
364.9678	0.216
365.176	0.2305
365.3842	0.2263
365.5925	0.2217
365.8007	0.2254
366.0089	0.2317
366.217	0.2267
366.4252	0.2271
366.6333	0.2332
366.8415	0.2298
367.0496	0.2343
367.2577	0.2345
367.4658	0.235
367.6739	0.2216
367.882	0.2296
368.09	0.2374
368.2981	0.2425
368.5061	0.2376
368.7141	0.2312
368.9221	0.2493
369.1301	0.2376
369.3381	0.2515
369.5461	0.242
369.754	0.2506
369.962	0.2475
370.1699	0.2479
370.3778	0.2601
370.5857	0.2499
370.7936	0.2476
371.0015	0.2422
371.2093	0.2425
371.4172	0.242
371.625	0.2525
371.8328	0.2451
372.0406	0.2635
372.2484	0.2508
372.4562	0.2575
372.664	0.2485
372.8717	0.2559
373.0795	0.2654
373.2872	0.2594
373.4949	0.2679
373.7026	0.2517
373.9103	0.2531
374.118	0.263
374.3256	0.2652
374.5333	0.2636
374.7409	0.2642
374.9485	0.2759
375.1561	0.2644
375.3637	0.2614
375.5713	0.2716
375.7789	0.2653
375.9864	0.2691
376.194	0.2747
376.4015	0.2613
376.609	0.2686
376.8165	0.2737
377.024	0.271
377.2315	0.2675
377.4389	0.2619
377.6464	0.2752
377.8538	0.2741
378.0612	0.2769
378.2686	0.2799
378.476	0.2825
378.6834	0.2801
378.8908	0.2876
379.0981	0.2799
379.3055	0.2802
379.5128	0.2777
379.7201	0.2865
379.9274	0.2858
380.1347	0.2836
380.342	0.293
380.5492	0.2876
380.7565	0.285
380.9637	0.2791
381.1709	0.2887
381.3781	0.2864
381.5853	0.278
381.7925	0.2846
381.9997	0.2912
382.2068	0.2826
382.4139	0.2868
382.6211	0.295
382.8282	0.304
383.0353	0.2927
383.2424	0.2962
383.4494	0.2952
383.6565	0.2949
383.8635	0.2881
384.0706	0.2991
384.2776	0.2964
384.4846	0.2979
384.6916	0.2934
384.8986	0.3056
385.1055	0.3103
385.3125	0.2987
385.5194	0.3024
385.7263	0.2862
385.9333	0.3002
386.1402	0.2958
386.347	0.2952
386.5539	0.2966
386.7608	0.2866
386.9676	0.2902
387.1744	0.2964
387.3813	0.2893
387.5881	0.2886
387.7948	0.2945
388.0016	0.3115
388.2084	0.2966
388.4151	0.2972
388.6219	0.2893
388.8286	0.2875
389.0353	0.3012
389.242	0.2959
389.4487	0.2864
389.6553	0.2867
389.862	0.2905
390.0686	0.2979
390.2753	0.2899
390.4819	0.287
390.6885	0.2846
390.8951	0.29
391.1016	0.2904
391.3082	0.2838
391.5147	0.2782
391.7213	0.2749
391.9278	0.2835
392.1343	0.2798
392.3408	0.2883
392.5473	0.2761
392.7537	0.2678
392.9602	0.2723
393.1666	0.2752
393.373	0.2741
393.5794	0.2716
393.7858	0.2696
393.9922	0.2707
394.1986	0.2733
394.4049	0.2788
394.6113	0.2722
394.8176	0.2688
395.0239	0.2615
395.2302	0.2645
395.4365	0.2611
395.6428	0.2651
395.8491	0.2606
396.0553	0.2555
396.2615	0.2656
396.4678	0.2661
396.674	0.2585
396.8802	0.2574
397.0863	0.2612
397.2925	0.2739
397.4987	0.2529
397.7048	0.2617
397.9109	0.2585
398.117	0.2517
398.3231	0.2582
398.5292	0.2489
398.7353	0.2455
398.9413	0.26
399.1474	0.2524
399.3534	0.2479
399.5594	0.254
399.7654	0.2535
399.9714	0.2485
400.1774	0.2402
400.3833	0.2579
400.5893	0.2516
400.7952	0.2617
401.0011	0.261
401.207	0.2563
401.4129	0.2582
401.6188	0.2482
401.8247	0.2577
402.0305	0.2521
402.2364	0.2578
402.4422	0.2582
402.648	0.2611
402.8538	0.2427
403.0596	0.2477
403.2654	0.2515
403.4711	0.2469
403.6768	0.2471
403.8826	0.2469
404.0883	0.2477
404.294	0.2619
404.4997	0.2407
404.7054	0.2555
404.911	0.2473
405.1167	0.2514
405.3223	0.2409
405.5279	0.2524
405.7335	0.2438
405.9391	0.2454
406.1447	0.2518
406.3502	0.2543
406.5558	0.2422
406.7613	0.2481
406.9668	0.255
407.1724	0.2519
407.3778	0.2508
407.5833	0.2487
407.7888	0.243
407.9942	0.251
408.1997	0.2554
408.4051	0.2486
408.6105	0.2537
408.8159	0.2509
409.0213	0.246
409.2267	0.2526
409.432	0.2479
409.6374	0.2511
409.8427	0.2522
410.048	0.26
410.2533	0.2598
410.4586	0.2377
410.6639	0.2464
410.8691	0.2342
411.0744	0.2458
411.2796	0.2502
411.4848	0.2508
411.69	0.2329
411.8952	0.2473
412.1004	0.243
412.3056	0.2436
412.5107	0.2498
412.7158	0.2629
412.921	0.2535
413.1261	0.2425
413.3312	0.2452
413.5362	0.2537
413.7413	0.2471
413.9464	0.2329
414.1514	0.2466
414.3564	0.2485
414.5614	0.2382
414.7664	0.2474
414.9714	0.235
415.1764	0.2536
415.3813	0.2484
415.5863	0.2534
415.7912	0.2376
415.9961	0.2427
416.201	0.2572
416.4059	0.235
416.6108	0.2542
416.8156	0.2376
417.0205	0.2498
417.2253	0.2432
417.4301	0.2488
417.6349	0.2304
417.8397	0.2303
418.0445	0.231
418.2492	0.2353
418.454	0.231
418.6587	0.2355
418.8634	0.2409
419.0681	0.2432
419.2728	0.2358
419.4775	0.2494
419.6822	0.2416
419.8868	0.2343
420.0915	0.2365
420.2961	0.2348
420.5007	0.2311
420.7053	0.2326
420.9099	0.2392
421.1144	0.2369
421.319	0.2244
421.5235	0.2223
421.728	0.2385
421.9325	0.2246
422.137	0.2266
422.3415	0.2323
422.546	0.2237
422.7504	0.2185
422.9549	0.2254
423.1593	0.2238
423.3637	0.2249
423.5681	0.2344
423.7725	0.2197
423.9769	0.2181
424.1812	0.2166
424.3856	0.2163
424.5899	0.2079
424.7942	0.2176
424.9985	0.2164
425.2028	0.2307
425.4071	0.2134
425.6113	0.2167
425.8156	0.2139
426.0198	0.2106
426.224	0.2089
426.4282	0.1982
426.6324	0.2105
