Data from D4ACN5uM440nmA_Absorbance_13-50-26-467.txt Node
Date: Fri Feb 21 13:50:26 GMT 2025
User: LASERRRRR
Spectrometer: FLMT03099
Trigger mode: 0
Integration Time (sec): 1.500000E-2
Scans to average: 1
Electric dark correction enabled: true
Nonlinearity correction enabled: false
Boxcar width: 0
XAxis mode: Wavelengths
Number of Pixels in Spectrum: 3648
>>>>>Begin Spectral Data<<<<<
179.3399	-0.3081
179.5586	-0.3081
179.7771	-0.3081
179.9957	-0.1317
180.2143	-0
180.4329	-0.2394
180.6514	-0
180.8699	-0
181.0885	-0
181.307	-0
181.5255	0.1195
181.744	-0
181.9625	0.1804
182.181	-0
182.3994	-0.2163
182.6179	-0
182.8363	-0
183.0547	0.1427
183.2732	0.0506
183.4916	0.2816
183.71	0.1717
183.9284	0.2435
184.1467	0.2408
184.3651	0.0961
184.5835	0.19
184.8018	0.2607
185.0201	-0.011
185.2385	0.2824
185.4568	0.1842
185.6751	0.1412
185.8934	0.5705
186.1117	0.2408
186.3299	0.2021
186.5482	0.1259
186.7664	0.1615
186.9847	0.1829
187.2029	0.2445
187.4211	0.206
187.6393	-0.0089
187.8575	0.3641
188.0757	1.9264
188.2939	0.0411
188.512	0.1878
188.7302	0.2672
188.9483	1.2601
189.1665	0.2404
189.3846	0.1857
189.6027	0.1387
189.8208	0.2321
190.0389	0.2433
190.257	0.007
190.475	0.2358
190.6931	0.2101
190.9111	0.0837
191.1292	0.1968
191.3472	0.1678
191.5652	0.0896
191.7832	0.3078
192.0012	0.2422
192.2192	0.0605
192.4371	0.1637
192.6551	0.1839
192.873	0.1151
193.091	0.1688
193.3089	0.1786
193.5268	0.1712
193.7447	0.1551
193.9626	0.2472
194.1805	0.2061
194.3984	0.1943
194.6162	0.2493
194.8341	0.298
195.0519	0.2486
195.2697	0.2997
195.4875	0.3133
195.7054	0.3248
195.9231	0.1943
196.1409	0.3413
196.3587	0.3246
196.5765	0.2946
196.7942	0.3016
197.012	0.3153
197.2297	0.3439
197.4474	0.4093
197.6651	0.3133
197.8828	0.2833
198.1005	0.4169
198.3182	0.3778
198.5358	0.3923
198.7535	0.3776
198.9711	0.4076
199.1888	0.3997
199.4064	0.4377
199.624	0.3833
199.8416	0.3802
200.0592	0.3818
200.2767	0.3953
200.4943	0.4333
200.7119	0.3433
200.9294	0.429
201.1469	0.4363
201.3645	0.4294
201.582	0.402
201.7995	0.4007
202.017	0.3593
202.2344	0.4122
202.4519	0.4265
202.6694	0.4027
202.8868	0.3817
203.1042	0.3844
203.3217	0.4054
203.5391	0.4167
203.7565	0.3535
203.9739	0.3763
204.1913	0.3809
204.4086	0.3278
204.626	0.3762
204.8433	0.3783
205.0607	0.358
205.278	0.3595
205.4953	0.3481
205.7126	0.3441
205.9299	0.3123
206.1472	0.3369
206.3644	0.3295
206.5817	0.3137
206.7989	0.3268
207.0162	0.2877
207.2334	0.3094
207.4506	0.3039
207.6678	0.2957
207.885	0.3031
208.1022	0.309
208.3194	0.3042
208.5365	0.3316
208.7537	0.2999
208.9708	0.2866
209.1879	0.2698
209.405	0.2728
209.6222	0.2594
209.8392	0.3012
210.0563	0.2901
210.2734	0.2685
210.4905	0.2583
210.7075	0.2771
210.9245	0.2669
211.1416	0.2629
211.3586	0.2544
211.5756	0.252
211.7926	0.2676
212.0096	0.2581
212.2265	0.2603
212.4435	0.2688
212.6604	0.2433
212.8774	0.241
213.0943	0.2642
213.3112	0.2514
213.5281	0.2543
213.745	0.2292
213.9619	0.2221
214.1788	0.2481
214.3956	0.2461
214.6125	0.2499
214.8293	0.237
215.0461	0.2495
215.2629	0.2617
215.4798	0.2241
215.6965	0.2508
215.9133	0.2277
216.1301	0.2298
216.3469	0.2417
216.5636	0.2413
216.7803	0.2485
216.9971	0.2462
217.2138	0.2588
217.4305	0.2424
217.6472	0.2287
217.8639	0.2511
218.0805	0.2565
218.2972	0.2324
218.5138	0.2467
218.7305	0.2474
218.9471	0.242
219.1637	0.2629
219.3803	0.2593
219.5969	0.2462
219.8135	0.256
220.0301	0.2524
220.2466	0.2434
220.4632	0.2503
220.6797	0.2593
220.8962	0.2461
221.1127	0.2642
221.3292	0.2687
221.5457	0.2605
221.7622	0.2623
221.9787	0.2722
222.1951	0.2683
222.4116	0.2684
222.628	0.2817
222.8444	0.2792
223.0608	0.2708
223.2772	0.2678
223.4936	0.2704
223.71	0.2837
223.9264	0.2758
224.1427	0.2872
224.3591	0.2844
224.5754	0.2794
224.7917	0.2862
225.008	0.2844
225.2243	0.29
225.4406	0.292
225.6569	0.2968
225.8732	0.3002
226.0894	0.2981
226.3057	0.3061
226.5219	0.3056
226.7381	0.3159
226.9543	0.3089
227.1705	0.3126
227.3867	0.3189
227.6029	0.315
227.8191	0.3345
228.0352	0.3292
228.2513	0.3448
228.4675	0.3406
228.6836	0.3492
228.8997	0.341
229.1158	0.3587
229.3319	0.3501
229.548	0.3628
229.764	0.3521
229.9801	0.3677
230.1961	0.3597
230.4121	0.3715
230.6282	0.3767
230.8442	0.3724
231.0602	0.3844
231.2761	0.3877
231.4921	0.3905
231.7081	0.3883
231.924	0.4014
232.14	0.409
232.3559	0.4155
232.5718	0.4052
232.7877	0.4087
233.0036	0.4023
233.2195	0.4131
233.4353	0.4038
233.6512	0.4145
233.867	0.4207
234.0829	0.4252
234.2987	0.4188
234.5145	0.4359
234.7303	0.4214
234.9461	0.4316
235.1619	0.4331
235.3776	0.4458
235.5934	0.4371
235.8091	0.4431
236.0249	0.445
236.2406	0.4428
236.4563	0.4421
236.672	0.4369
236.8877	0.4494
237.1034	0.4548
237.319	0.4502
237.5347	0.4484
237.7503	0.4504
237.966	0.4594
238.1816	0.4519
238.3972	0.456
238.6128	0.461
238.8284	0.4601
239.0439	0.4603
239.2595	0.4629
239.475	0.4564
239.6906	0.4585
239.9061	0.4551
240.1216	0.4599
240.3371	0.4592
240.5526	0.4562
240.7681	0.46
240.9836	0.454
241.199	0.4572
241.4145	0.453
241.6299	0.4483
241.8453	0.4399
242.0607	0.4311
242.2761	0.4396
242.4915	0.4315
242.7069	0.4223
242.9223	0.4261
243.1376	0.4091
243.353	0.4085
243.5683	0.398
243.7836	0.3942
243.9989	0.3766
244.2142	0.3824
244.4295	0.3803
244.6448	0.3753
244.86	0.3522
245.0753	0.3496
245.2905	0.3405
245.5057	0.3389
245.721	0.3424
245.9362	0.3344
246.1514	0.3189
246.3665	0.3156
246.5817	0.306
246.7969	0.3074
247.012	0.2875
247.2271	0.2912
247.4423	0.2874
247.6574	0.2882
247.8725	0.2793
248.0876	0.2667
248.3026	0.2718
248.5177	0.2582
248.7328	0.2518
248.9478	0.2556
249.1628	0.2539
249.3779	0.2413
249.5929	0.2376
249.8079	0.2439
250.0228	0.233
250.2378	0.2322
250.4528	0.2317
250.6677	0.2199
250.8827	0.2147
251.0976	0.2134
251.3125	0.2161
251.5274	0.2102
251.7423	0.2044
251.9572	0.2101
252.172	0.2095
252.3869	0.2048
252.6017	0.1944
252.8166	0.199
253.0314	0.1951
253.2462	0.1962
253.461	0.1932
253.6758	0.1909
253.8906	0.1929
254.1053	0.1978
254.3201	0.1956
254.5348	0.1814
254.7496	0.1884
254.9643	0.1938
255.179	0.1895
255.3937	0.1898
255.6083	0.1922
255.823	0.1854
256.0377	0.177
256.2523	0.1839
256.467	0.1874
256.6816	0.1815
256.8962	0.1807
257.1108	0.1846
257.3254	0.1853
257.54	0.1787
257.7545	0.1827
257.9691	0.1813
258.1836	0.1727
258.3981	0.183
258.6127	0.1714
258.8272	0.1808
259.0417	0.1751
259.2561	0.1762
259.4706	0.1748
259.6851	0.1757
259.8995	0.176
260.114	0.1692
260.3284	0.1764
260.5428	0.1751
260.7572	0.184
260.9716	0.1836
261.186	0.1756
261.4003	0.1743
261.6147	0.179
261.829	0.1769
262.0433	0.1794
262.2577	0.1766
262.472	0.1762
262.6863	0.1804
262.9005	0.1805
263.1148	0.1782
263.3291	0.1757
263.5433	0.1819
263.7576	0.1813
263.9718	0.1844
264.186	0.1828
264.4002	0.18
264.6144	0.1858
264.8286	0.1811
265.0427	0.1853
265.2569	0.1837
265.471	0.1925
265.6851	0.1836
265.8993	0.1782
266.1134	0.1826
266.3275	0.1811
266.5415	0.1878
266.7556	0.1901
266.9697	0.1839
267.1837	0.1924
267.3978	0.1895
267.6118	0.1804
267.8258	0.1861
268.0398	0.1915
268.2538	0.1969
268.4677	0.1801
268.6817	0.1791
268.8957	0.1819
269.1096	0.1764
269.3235	0.1798
269.5374	0.1865
269.7514	0.1804
269.9652	0.1794
270.1791	0.1756
270.393	0.1824
270.6068	0.1795
270.8207	0.1788
271.0345	0.1788
271.2483	0.1758
271.4622	0.1817
271.676	0.1805
271.8897	0.1799
272.1035	0.1853
272.3173	0.1763
272.531	0.1738
272.7448	0.1802
272.9585	0.174
273.1722	0.1772
273.3859	0.1846
273.5996	0.1821
273.8133	0.1903
274.0269	0.1729
274.2406	0.1838
274.4542	0.1806
274.6679	0.1854
274.8815	0.1949
275.0951	0.1887
275.3087	0.187
275.5223	0.184
275.7358	0.1877
275.9494	0.1953
276.1629	0.1867
276.3765	0.1919
276.59	0.1852
276.8035	0.1893
277.017	0.1947
277.2305	0.1898
277.444	0.1927
277.6574	0.1949
277.8709	0.2008
278.0843	0.1952
278.2978	0.1927
278.5112	0.1936
278.7246	0.1919
278.938	0.1881
279.1513	0.1925
279.3647	0.1924
279.5781	0.192
279.7914	0.185
280.0047	0.1915
280.2181	0.1883
280.4314	0.191
280.6447	0.1949
280.8579	0.1825
281.0712	0.1904
281.2845	0.1865
281.4977	0.1879
281.711	0.1834
281.9242	0.1908
282.1374	0.1904
282.3506	0.1879
282.5638	0.1854
282.7769	0.178
282.9901	0.1857
283.2033	0.1834
283.4164	0.1878
283.6295	0.1849
283.8426	0.1809
284.0557	0.1871
284.2688	0.1849
284.4819	0.179
284.695	0.1855
284.908	0.1806
285.1211	0.1873
285.3341	0.1825
285.5471	0.1884
285.7601	0.1829
285.9731	0.1886
286.1861	0.1868
286.3991	0.1874
286.612	0.187
286.825	0.1892
287.0379	0.1846
287.2508	0.1844
287.4637	0.1883
287.6766	0.186
287.8895	0.1874
288.1024	0.1835
288.3152	0.1893
288.5281	0.186
288.7409	0.1923
288.9538	0.1833
289.1666	0.1887
289.3794	0.1784
289.5922	0.1843
289.8049	0.1823
290.0177	0.185
290.2304	0.1845
290.4432	0.1915
290.6559	0.1919
290.8686	0.1868
291.0813	0.1816
291.294	0.1829
291.5067	0.18
291.7194	0.1886
291.932	0.1833
292.1447	0.184
292.3573	0.1899
292.5699	0.1916
292.7825	0.1836
292.9951	0.1801
293.2077	0.1855
293.4203	0.1924
293.6328	0.1852
293.8454	0.1894
294.0579	0.1797
294.2704	0.1924
294.4829	0.1822
294.6954	0.1834
294.9079	0.1807
295.1204	0.1838
295.3328	0.1885
295.5453	0.1921
295.7577	0.1849
295.9701	0.1825
296.1825	0.1876
296.3949	0.1804
296.6073	0.182
296.8197	0.1864
297.0321	0.1909
297.2444	0.1824
297.4567	0.1881
297.6691	0.1874
297.8814	0.1886
298.0937	0.1852
298.306	0.1858
298.5182	0.1901
298.7305	0.1893
298.9428	0.1853
299.155	0.177
299.3672	0.1799
299.5794	0.1831
299.7916	0.1873
300.0038	0.1867
300.216	0.1854
300.4282	0.183
300.6403	0.19
300.8525	0.1869
301.0646	0.1947
301.2767	0.1828
301.4888	0.1887
301.7009	0.1883
301.913	0.1868
302.125	0.1839
302.3371	0.1846
302.5491	0.1848
302.7612	0.19
302.9732	0.1904
303.1852	0.1856
303.3972	0.1859
303.6092	0.1909
303.8211	0.1864
304.0331	0.1814
304.245	0.187
304.457	0.1848
304.6689	0.1841
304.8808	0.1847
305.0927	0.182
305.3046	0.1765
305.5164	0.1802
305.7283	0.1764
305.9401	0.1734
306.152	0.1811
306.3638	0.1725
306.5756	0.1732
306.7874	0.1753
306.9992	0.1733
307.2109	0.1721
307.4227	0.1703
307.6344	0.1713
307.8462	0.1665
308.0579	0.1668
308.2696	0.1658
308.4813	0.1641
308.693	0.1586
308.9046	0.1628
309.1163	0.1631
309.328	0.1568
309.5396	0.1559
309.7512	0.1496
309.9628	0.1563
310.1744	0.1457
310.386	0.1474
310.5976	0.1468
310.8091	0.1516
311.0207	0.1468
311.2322	0.144
311.4437	0.1442
311.6552	0.1463
311.8667	0.1494
312.0782	0.1454
312.2897	0.1434
312.5012	0.1429
312.7126	0.1392
312.924	0.142
313.1355	0.1394
313.3469	0.1456
313.5583	0.1377
313.7696	0.1375
313.981	0.142
314.1924	0.1327
314.4037	0.1357
314.6151	0.1336
314.8264	0.1382
315.0377	0.1351
315.249	0.1383
315.4603	0.1293
315.6716	0.1331
315.8828	0.1303
316.0941	0.1344
316.3053	0.1324
316.5165	0.1354
316.7277	0.1254
316.9389	0.1342
317.1501	0.135
317.3613	0.1362
317.5724	0.1296
317.7836	0.1257
317.9947	0.1326
318.2058	0.1289
318.417	0.1295
318.6281	0.1293
318.8391	0.1321
319.0502	0.1307
319.2613	0.1324
319.4723	0.1324
319.6834	0.1375
319.8944	0.129
320.1054	0.1289
320.3164	0.1238
320.5274	0.133
320.7383	0.1295
320.9493	0.1346
321.1602	0.1272
321.3712	0.1273
321.5821	0.1337
321.793	0.1338
322.0039	0.1269
322.2148	0.1331
322.4257	0.125
322.6365	0.1267
322.8474	0.1301
323.0582	0.1313
323.269	0.1293
323.4798	0.1289
323.6906	0.1276
323.9014	0.1314
324.1122	0.1283
324.3229	0.1347
324.5337	0.1359
324.7444	0.1283
324.9551	0.1312
325.1658	0.1308
325.3765	0.1377
325.5872	0.1358
325.7979	0.1286
326.0085	0.1335
326.2192	0.1342
326.4298	0.1396
326.6404	0.137
326.851	0.139
327.0616	0.1295
327.2722	0.135
327.4828	0.135
327.6933	0.1456
327.9039	0.1358
328.1144	0.1408
328.3249	0.1468
328.5354	0.1405
328.7459	0.1394
328.9564	0.1409
329.1669	0.1379
329.3773	0.142
329.5878	0.1385
329.7982	0.145
330.0086	0.1438
330.219	0.1402
330.4294	0.1454
330.6398	0.1399
330.8502	0.1519
331.0605	0.1468
331.2708	0.1411
331.4812	0.1442
331.6915	0.1474
331.9018	0.1412
332.1121	0.1545
332.3224	0.142
332.5326	0.1423
332.7429	0.1453
332.9531	0.1488
333.1633	0.1446
333.3735	0.1452
333.5837	0.147
333.7939	0.1475
334.0041	0.1497
334.2143	0.1411
334.4244	0.1479
334.6346	0.1443
334.8447	0.143
335.0548	0.1425
335.2649	0.149
335.475	0.1497
335.685	0.1436
335.8951	0.1467
336.1051	0.1473
336.3152	0.1446
336.5252	0.1414
336.7352	0.1384
336.9452	0.141
337.1552	0.1443
337.3652	0.1351
337.5751	0.1464
337.7851	0.1453
337.995	0.1469
338.2049	0.1454
338.4148	0.1518
338.6247	0.1484
338.8346	0.1445
339.0445	0.1459
339.2543	0.145
339.4642	0.1482
339.674	0.1463
339.8838	0.1424
340.0936	0.1411
340.3034	0.1368
340.5132	0.1361
340.7229	0.1456
340.9327	0.1524
341.1424	0.1458
341.3522	0.1415
341.5619	0.1523
341.7716	0.1577
341.9813	0.1564
342.1909	0.1616
342.4006	0.1542
342.6102	0.1542
342.8199	0.1578
343.0295	0.1504
343.2391	0.1576
343.4487	0.1564
343.6583	0.1659
343.8679	0.1547
344.0774	0.1565
344.287	0.155
344.4965	0.1528
344.706	0.1692
344.9155	0.1574
345.125	0.1583
345.3345	0.1723
345.544	0.1631
345.7534	0.1666
345.9629	0.1636
346.1723	0.1696
346.3817	0.1729
346.5911	0.171
346.8005	0.1726
347.0099	0.1666
347.2193	0.1787
347.4286	0.1758
347.638	0.1743
347.8473	0.1755
348.0566	0.1738
348.2659	0.1736
348.4752	0.1743
348.6845	0.177
348.8937	0.1731
349.103	0.1738
349.3122	0.1738
349.5214	0.1759
349.7306	0.1816
349.9398	0.1804
350.149	0.1783
350.3582	0.1799
350.5674	0.1802
350.7765	0.1801
350.9856	0.1771
351.1948	0.1839
351.4039	0.186
351.613	0.1803
351.822	0.1865
352.0311	0.1762
352.2402	0.1893
352.4492	0.1799
352.6582	0.1813
352.8672	0.1789
353.0762	0.1851
353.2852	0.1823
353.4942	0.1856
353.7032	0.1833
353.9121	0.1879
354.1211	0.1841
354.33	0.1864
354.5389	0.1837
354.7478	0.1811
354.9567	0.1843
355.1655	0.1828
355.3744	0.1831
355.5833	0.1813
355.7921	0.1861
356.0009	0.1878
356.2097	0.1823
356.4185	0.1861
356.6273	0.189
356.8361	0.1871
357.0448	0.1828
357.2536	0.1889
357.4623	0.1856
357.671	0.1895
357.8797	0.1913
358.0884	0.1821
358.2971	0.1924
358.5057	0.1848
358.7144	0.1871
358.923	0.1952
359.1316	0.1961
359.3402	0.1909
359.5488	0.1901
359.7574	0.1938
359.966	0.1985
360.1746	0.1957
360.3831	0.2007
360.5916	0.1973
360.8002	0.2094
361.0087	0.1952
361.2172	0.2014
361.4256	0.2001
361.6341	0.2109
361.8426	0.2013
362.051	0.2004
362.2594	0.1972
362.4678	0.2038
362.6762	0.2075
362.8846	0.2022
363.093	0.2071
363.3014	0.2091
363.5097	0.2055
363.718	0.2185
363.9264	0.2116
364.1347	0.2059
364.343	0.2149
364.5513	0.2135
364.7595	0.2212
364.9678	0.2162
365.176	0.2127
365.3842	0.2268
365.5925	0.2143
365.8007	0.2159
366.0089	0.2165
366.217	0.2147
366.4252	0.2157
366.6333	0.2202
366.8415	0.2165
367.0496	0.2194
367.2577	0.2227
367.4658	0.216
367.6739	0.2224
367.882	0.2266
368.09	0.2209
368.2981	0.2336
368.5061	0.2302
368.7141	0.2222
368.9221	0.2395
369.1301	0.224
369.3381	0.234
369.5461	0.2265
369.754	0.2238
369.962	0.2316
370.1699	0.2393
370.3778	0.2417
370.5857	0.2374
370.7936	0.2393
371.0015	0.2346
371.2093	0.2332
371.4172	0.2272
371.625	0.2429
371.8328	0.234
372.0406	0.2413
372.2484	0.2369
372.4562	0.2427
372.664	0.2397
372.8717	0.2356
373.0795	0.2488
373.2872	0.247
373.4949	0.2435
373.7026	0.2425
373.9103	0.2398
374.118	0.2493
374.3256	0.2466
374.5333	0.2448
374.7409	0.2521
374.9485	0.249
375.1561	0.2515
375.3637	0.243
375.5713	0.252
375.7789	0.2463
375.9864	0.2493
376.194	0.2568
376.4015	0.2479
376.609	0.2533
376.8165	0.254
377.024	0.2604
377.2315	0.2606
377.4389	0.2448
377.6464	0.2662
377.8538	0.2591
378.0612	0.2609
378.2686	0.2539
378.476	0.2663
378.6834	0.2649
378.8908	0.2675
379.0981	0.2622
379.3055	0.2606
379.5128	0.2632
379.7201	0.2653
379.9274	0.2645
380.1347	0.2617
380.342	0.2668
380.5492	0.269
380.7565	0.2664
380.9637	0.2758
381.1709	0.2699
381.3781	0.2769
381.5853	0.2643
381.7925	0.2675
381.9997	0.279
382.2068	0.276
382.4139	0.2667
382.6211	0.27
382.8282	0.2762
383.0353	0.2739
383.2424	0.275
383.4494	0.2798
383.6565	0.2817
383.8635	0.272
384.0706	0.2795
384.2776	0.2763
384.4846	0.2809
384.6916	0.2736
384.8986	0.2788
385.1055	0.2815
385.3125	0.2808
385.5194	0.2754
385.7263	0.2701
385.9333	0.284
386.1402	0.2873
386.347	0.2845
386.5539	0.2741
386.7608	0.2711
386.9676	0.2768
387.1744	0.2714
387.3813	0.2798
387.5881	0.2695
387.7948	0.2793
388.0016	0.2825
388.2084	0.2773
388.4151	0.2744
388.6219	0.2724
388.8286	0.2725
389.0353	0.2772
389.242	0.2827
389.4487	0.2592
389.6553	0.2699
389.862	0.2696
390.0686	0.2781
390.2753	0.2798
390.4819	0.2659
390.6885	0.2677
390.8951	0.2743
391.1016	0.2624
391.3082	0.27
391.5147	0.261
391.7213	0.2654
391.9278	0.2667
392.1343	0.2603
392.3408	0.2668
392.5473	0.2642
392.7537	0.2623
392.9602	0.2547
393.1666	0.2541
393.373	0.2563
393.5794	0.2583
393.7858	0.253
393.9922	0.2521
394.1986	0.253
394.4049	0.2524
394.6113	0.2551
394.8176	0.2546
395.0239	0.2514
395.2302	0.2414
395.4365	0.2502
395.6428	0.2477
395.8491	0.2487
396.0553	0.2393
396.2615	0.2454
396.4678	0.2511
396.674	0.2434
396.8802	0.2448
397.0863	0.2266
397.2925	0.2405
397.4987	0.229
397.7048	0.2357
397.9109	0.2349
398.117	0.236
398.3231	0.2373
398.5292	0.2265
398.7353	0.2336
398.9413	0.2364
399.1474	0.2318
399.3534	0.2348
399.5594	0.2319
399.7654	0.2309
399.9714	0.2411
400.1774	0.2294
400.3833	0.236
400.5893	0.2282
400.7952	0.2415
401.0011	0.2295
401.207	0.2321
401.4129	0.2264
401.6188	0.2341
401.8247	0.2422
402.0305	0.2232
402.2364	0.2338
402.4422	0.2387
402.648	0.2255
402.8538	0.225
403.0596	0.2288
403.2654	0.2382
403.4711	0.2263
403.6768	0.2295
403.8826	0.2304
404.0883	0.2322
404.294	0.2345
404.4997	0.2274
404.7054	0.2367
404.911	0.2297
405.1167	0.2376
405.3223	0.2245
405.5279	0.2365
405.7335	0.2326
405.9391	0.2324
406.1447	0.2363
406.3502	0.2235
406.5558	0.2245
406.7613	0.2233
406.9668	0.225
407.1724	0.2309
407.3778	0.2247
407.5833	0.2307
407.7888	0.2334
407.9942	0.2252
408.1997	0.2379
408.4051	0.2295
408.6105	0.2353
408.8159	0.2309
409.0213	0.2394
409.2267	0.232
409.432	0.2307
409.6374	0.2324
409.8427	0.2393
410.048	0.2321
410.2533	0.2312
410.4586	0.2193
410.6639	0.2216
410.8691	0.2198
411.0744	0.2326
411.2796	0.2302
411.4848	0.2289
411.69	0.23
411.8952	0.2194
412.1004	0.2292
412.3056	0.222
412.5107	0.2229
412.7158	0.2371
412.921	0.2394
413.1261	0.2327
413.3312	0.2362
413.5362	0.2422
413.7413	0.238
413.9464	0.2235
414.1514	0.2331
414.3564	0.2253
414.5614	0.2343
414.7664	0.2202
414.9714	0.2135
415.1764	0.2297
415.3813	0.2206
415.5863	0.2294
415.7912	0.2299
415.9961	0.2257
416.201	0.2352
416.4059	0.2159
416.6108	0.2189
416.8156	0.2192
417.0205	0.2212
417.2253	0.2238
417.4301	0.2285
417.6349	0.2201
417.8397	0.2206
418.0445	0.2156
418.2492	0.2326
418.454	0.2162
418.6587	0.227
418.8634	0.2282
419.0681	0.212
419.2728	0.2245
419.4775	0.2241
419.6822	0.2137
419.8868	0.2049
420.0915	0.2191
420.2961	0.2098
420.5007	0.2164
420.7053	0.2021
420.9099	0.2185
421.1144	0.216
421.319	0.2152
421.5235	0.2016
421.728	0.2241
421.9325	0.2089
422.137	0.2073
422.3415	0.2048
422.546	0.2024
422.7504	0.2015
422.9549	0.2101
423.1593	0.1964
423.3637	0.196
423.5681	0.2098
423.7725	0.2025
423.9769	0.2103
424.1812	0.1938
424.3856	0.2045
424.5899	0.1996
424.7942	0.2035
424.9985	0.1991
425.2028	0.1995
425.4071	0.2022
425.6113	0.1875
425.8156	0.2006
426.0198	0.2055
426.224	0.1903
426.4282	0.196
426.6324	0.1842
426.8366	0.189
427.0407	0.1895
