Data from D4ACN5uM440nmA_Absorbance_13-50-25-822.txt Node
Date: Fri Feb 21 13:50:25 GMT 2025
User: LASERRRRR
Spectrometer: FLMT03099
Trigger mode: 0
Integration Time (sec): 1.500000E-2
Scans to average: 1
Electric dark correction enabled: true
Nonlinearity correction enabled: false
Boxcar width: 0
XAxis mode: Wavelengths
Number of Pixels in Spectrum: 3648
>>>>>Begin Spectral Data<<<<<
179.3399	-0.4609
179.5586	-0.4609
179.7771	-0.4609
179.9957	-0.3591
180.2143	-1.3776
180.4329	0.0747
180.6514	-0
180.8699	-0
181.0885	-0
181.307	0.2667
181.5255	0.3253
181.744	-0
181.9625	0.463
182.181	-0
182.3994	-0.5655
182.6179	-0.1748
182.8363	-0.026
183.0547	0.1087
183.2732	0.1046
183.4916	0.1401
183.71	0.2488
183.9284	0.0027
184.1467	-0.0506
184.3651	0.0677
184.5835	0.0203
184.8018	-0.0087
185.0201	0.3724
185.2385	0.22
185.4568	0.1394
185.6751	0.0411
185.8934	0.1179
186.1117	0.0277
186.3299	0.0428
186.5482	0.1349
186.7664	0.1585
186.9847	-0.0197
187.2029	0.5209
187.4211	-0.0556
187.6393	0.0319
187.8575	0.0177
188.0757	0.3001
188.2939	0.3118
188.512	0.5293
188.7302	0.3321
188.9483	0.2091
189.1665	0.3872
189.3846	0.2939
189.6027	0.1015
189.8208	0.1083
190.0389	0.222
190.257	0.0533
190.475	0.0026
190.6931	0.1803
190.9111	-0.095
191.1292	0.129
191.3472	0.1559
191.5652	0.1992
191.7832	0.0593
192.0012	0.1191
192.2192	0.1973
192.4371	0.0906
192.6551	0.1326
192.873	0.0959
193.091	0.1675
193.3089	0.1697
193.5268	0.2742
193.7447	0.1764
193.9626	0.2537
194.1805	0.1751
194.3984	0.2336
194.6162	0.2171
194.8341	0.3211
195.0519	0.2535
195.2697	0.1938
195.4875	0.2681
195.7054	0.2659
195.9231	0.2324
196.1409	0.3016
196.3587	0.2851
196.5765	0.3709
196.7942	0.321
197.012	0.3958
197.2297	0.2989
197.4474	0.4718
197.6651	0.2907
197.8828	0.375
198.1005	0.3769
198.3182	0.3424
198.5358	0.3955
198.7535	0.4123
198.9711	0.3934
199.1888	0.3853
199.4064	0.3454
199.624	0.3816
199.8416	0.3354
200.0592	0.4016
200.2767	0.3808
200.4943	0.4525
200.7119	0.3757
200.9294	0.4083
201.1469	0.3911
201.3645	0.4348
201.582	0.3898
201.7995	0.3984
202.017	0.4477
202.2344	0.4425
202.4519	0.379
202.6694	0.4023
202.8868	0.3783
203.1042	0.3799
203.3217	0.3731
203.5391	0.3953
203.7565	0.3623
203.9739	0.333
204.1913	0.3414
204.4086	0.3577
204.626	0.3978
204.8433	0.378
205.0607	0.3811
205.278	0.3126
205.4953	0.3329
205.7126	0.3692
205.9299	0.326
206.1472	0.3034
206.3644	0.341
206.5817	0.3375
206.7989	0.3562
207.0162	0.3368
207.2334	0.3184
207.4506	0.2869
207.6678	0.3156
207.885	0.3104
208.1022	0.3263
208.3194	0.3092
208.5365	0.2972
208.7537	0.2638
208.9708	0.2803
209.1879	0.2775
209.405	0.2834
209.6222	0.2812
209.8392	0.291
210.0563	0.2957
210.2734	0.264
210.4905	0.2892
210.7075	0.2709
210.9245	0.2742
211.1416	0.2661
211.3586	0.2875
211.5756	0.2445
211.7926	0.2525
212.0096	0.2745
212.2265	0.2429
212.4435	0.2643
212.6604	0.2608
212.8774	0.2459
213.0943	0.2533
213.3112	0.237
213.5281	0.2531
213.745	0.2186
213.9619	0.2186
214.1788	0.252
214.3956	0.2292
214.6125	0.2652
214.8293	0.2582
215.0461	0.2499
215.2629	0.2532
215.4798	0.2498
215.6965	0.2644
215.9133	0.2387
216.1301	0.2344
216.3469	0.2325
216.5636	0.2423
216.7803	0.2403
216.9971	0.2615
217.2138	0.2391
217.4305	0.2508
217.6472	0.2394
217.8639	0.2524
218.0805	0.2395
218.2972	0.2653
218.5138	0.2583
218.7305	0.2445
218.9471	0.2371
219.1637	0.2621
219.3803	0.2629
219.5969	0.2553
219.8135	0.2594
220.0301	0.2457
220.2466	0.2678
220.4632	0.2489
220.6797	0.2599
220.8962	0.2537
221.1127	0.2581
221.3292	0.2683
221.5457	0.2707
221.7622	0.2705
221.9787	0.283
222.1951	0.2546
222.4116	0.2625
222.628	0.2852
222.8444	0.2642
223.0608	0.2806
223.2772	0.2899
223.4936	0.2776
223.71	0.2826
223.9264	0.2708
224.1427	0.2866
224.3591	0.284
224.5754	0.2946
224.7917	0.2781
225.008	0.2936
225.2243	0.2945
225.4406	0.293
225.6569	0.3009
225.8732	0.308
226.0894	0.3015
226.3057	0.3018
226.5219	0.314
226.7381	0.3169
226.9543	0.3083
227.1705	0.3159
227.3867	0.326
227.6029	0.3278
227.8191	0.3364
228.0352	0.3312
228.2513	0.3427
228.4675	0.3429
228.6836	0.3417
228.8997	0.3342
229.1158	0.3516
229.3319	0.3574
229.548	0.3551
229.764	0.3521
229.9801	0.3626
230.1961	0.3671
230.4121	0.3659
230.6282	0.3805
230.8442	0.381
231.0602	0.388
231.2761	0.3723
231.4921	0.3817
231.7081	0.395
231.924	0.4016
232.14	0.3968
232.3559	0.398
232.5718	0.4135
232.7877	0.4075
233.0036	0.4134
233.2195	0.4003
233.4353	0.4248
233.6512	0.4099
233.867	0.4154
234.0829	0.4313
234.2987	0.4149
234.5145	0.4402
234.7303	0.4311
234.9461	0.4304
235.1619	0.4385
235.3776	0.4299
235.5934	0.4364
235.8091	0.4411
236.0249	0.4513
236.2406	0.4373
236.4563	0.4461
236.672	0.4435
236.8877	0.4453
237.1034	0.4391
237.319	0.4515
237.5347	0.4395
237.7503	0.4448
237.966	0.4608
238.1816	0.4514
238.3972	0.468
238.6128	0.4613
238.8284	0.4571
239.0439	0.4609
239.2595	0.4613
239.475	0.4583
239.6906	0.4585
239.9061	0.4632
240.1216	0.4534
240.3371	0.4673
240.5526	0.4584
240.7681	0.4615
240.9836	0.4479
241.199	0.4581
241.4145	0.4539
241.6299	0.4541
241.8453	0.4437
242.0607	0.4303
242.2761	0.4311
242.4915	0.4164
242.7069	0.4154
242.9223	0.4204
243.1376	0.4127
243.353	0.4012
243.5683	0.3878
243.7836	0.396
243.9989	0.3874
244.2142	0.3808
244.4295	0.3779
244.6448	0.3688
244.86	0.3498
245.0753	0.3457
245.2905	0.3385
245.5057	0.3391
245.721	0.3393
245.9362	0.3331
246.1514	0.3279
246.3665	0.3128
246.5817	0.3053
246.7969	0.3039
247.012	0.2859
247.2271	0.2967
247.4423	0.2878
247.6574	0.2815
247.8725	0.2735
248.0876	0.2714
248.3026	0.27
248.5177	0.2574
248.7328	0.2554
248.9478	0.2474
249.1628	0.2529
249.3779	0.2406
249.5929	0.2428
249.8079	0.2349
250.0228	0.238
250.2378	0.2327
250.4528	0.2253
250.6677	0.2203
250.8827	0.2165
251.0976	0.2151
251.3125	0.2169
251.5274	0.214
251.7423	0.2084
251.9572	0.2064
252.172	0.199
252.3869	0.2111
252.6017	0.2052
252.8166	0.207
253.0314	0.1955
253.2462	0.1968
253.461	0.2005
253.6758	0.1932
253.8906	0.1923
254.1053	0.1948
254.3201	0.1923
254.5348	0.1879
254.7496	0.185
254.9643	0.1893
255.179	0.1937
255.3937	0.1896
255.6083	0.19
255.823	0.1843
256.0377	0.1821
256.2523	0.1884
256.467	0.187
256.6816	0.1825
256.8962	0.1805
257.1108	0.1864
257.3254	0.1854
257.54	0.1756
257.7545	0.1868
257.9691	0.1777
258.1836	0.1755
258.3981	0.1803
258.6127	0.1789
258.8272	0.1856
259.0417	0.1703
259.2561	0.1762
259.4706	0.1727
259.6851	0.1778
259.8995	0.1708
260.114	0.1815
260.3284	0.1786
260.5428	0.1744
260.7572	0.1791
260.9716	0.1796
261.186	0.1763
261.4003	0.1766
261.6147	0.1772
261.829	0.1794
262.0433	0.1769
262.2577	0.1712
262.472	0.1778
262.6863	0.1791
262.9005	0.1784
263.1148	0.1764
263.3291	0.1761
263.5433	0.1833
263.7576	0.1822
263.9718	0.1843
264.186	0.1774
264.4002	0.1845
264.6144	0.1873
264.8286	0.1797
265.0427	0.1901
265.2569	0.1845
265.471	0.1824
265.6851	0.1826
265.8993	0.1797
266.1134	0.1888
266.3275	0.1782
266.5415	0.1835
266.7556	0.1854
266.9697	0.1842
267.1837	0.1888
267.3978	0.1879
267.6118	0.182
267.8258	0.1873
268.0398	0.1867
268.2538	0.1813
268.4677	0.1805
268.6817	0.1844
268.8957	0.1765
269.1096	0.1741
269.3235	0.1786
269.5374	0.1818
269.7514	0.1799
269.9652	0.177
270.1791	0.174
270.393	0.1812
270.6068	0.1754
270.8207	0.1802
271.0345	0.1794
271.2483	0.1698
271.4622	0.1772
271.676	0.1762
271.8897	0.174
272.1035	0.1846
272.3173	0.1735
272.531	0.176
272.7448	0.1741
272.9585	0.1721
273.1722	0.1745
273.3859	0.1783
273.5996	0.1767
273.8133	0.1807
274.0269	0.1786
274.2406	0.1813
274.4542	0.1745
274.6679	0.1809
274.8815	0.1862
275.0951	0.1897
275.3087	0.1866
275.5223	0.1809
275.7358	0.1857
275.9494	0.1824
276.1629	0.1871
276.3765	0.1782
276.59	0.1783
276.8035	0.182
277.017	0.1867
277.2305	0.1889
277.444	0.1841
277.6574	0.1828
277.8709	0.1951
278.0843	0.1882
278.2978	0.1944
278.5112	0.1891
278.7246	0.1855
278.938	0.1853
279.1513	0.1882
279.3647	0.1874
279.5781	0.1845
279.7914	0.1846
280.0047	0.1917
280.2181	0.188
280.4314	0.1889
280.6447	0.1916
280.8579	0.1819
281.0712	0.1891
281.2845	0.1841
281.4977	0.1866
281.711	0.1787
281.9242	0.1861
282.1374	0.1828
282.3506	0.183
282.5638	0.1795
282.7769	0.1766
282.9901	0.1938
283.2033	0.1871
283.4164	0.1832
283.6295	0.185
283.8426	0.18
284.0557	0.1841
284.2688	0.1841
284.4819	0.181
284.695	0.1857
284.908	0.1805
285.1211	0.1852
285.3341	0.1762
285.5471	0.1864
285.7601	0.1875
285.9731	0.1925
286.1861	0.1907
286.3991	0.1885
286.612	0.1881
286.825	0.1948
287.0379	0.1858
287.2508	0.1853
287.4637	0.1885
287.6766	0.19
287.8895	0.185
288.1024	0.1877
288.3152	0.1928
288.5281	0.1837
288.7409	0.1897
288.9538	0.1835
289.1666	0.1873
289.3794	0.1877
289.5922	0.1758
289.8049	0.1913
290.0177	0.1894
290.2304	0.1846
290.4432	0.1908
290.6559	0.1885
290.8686	0.1883
291.0813	0.1823
291.294	0.1883
291.5067	0.1899
291.7194	0.1884
291.932	0.1844
292.1447	0.1863
292.3573	0.1887
292.5699	0.1937
292.7825	0.1867
292.9951	0.1872
293.2077	0.185
293.4203	0.1892
293.6328	0.1895
293.8454	0.1887
294.0579	0.1913
294.2704	0.1969
294.4829	0.1845
294.6954	0.189
294.9079	0.1848
295.1204	0.1827
295.3328	0.1911
295.5453	0.1897
295.7577	0.1879
295.9701	0.1904
296.1825	0.1873
296.3949	0.1829
296.6073	0.1857
296.8197	0.1884
297.0321	0.1921
297.2444	0.1857
297.4567	0.1867
297.6691	0.1843
297.8814	0.1853
298.0937	0.1884
298.306	0.1819
298.5182	0.1914
298.7305	0.1903
298.9428	0.1867
299.155	0.1819
299.3672	0.1834
299.5794	0.1865
299.7916	0.1845
300.0038	0.1855
300.216	0.1875
300.4282	0.1885
300.6403	0.1913
300.8525	0.1878
301.0646	0.1867
301.2767	0.1911
301.4888	0.1907
301.7009	0.1909
301.913	0.1874
302.125	0.1883
302.3371	0.1893
302.5491	0.1942
302.7612	0.1959
302.9732	0.1925
303.1852	0.1832
303.3972	0.1913
303.6092	0.1908
303.8211	0.1859
304.0331	0.1842
304.245	0.1876
304.457	0.1837
304.6689	0.1856
304.8808	0.1823
305.0927	0.1874
305.3046	0.185
305.5164	0.1801
305.7283	0.1814
305.9401	0.1743
306.152	0.1768
306.3638	0.1758
306.5756	0.177
306.7874	0.1768
306.9992	0.166
307.2109	0.1735
307.4227	0.1666
307.6344	0.1731
307.8462	0.1593
308.0579	0.1724
308.2696	0.1695
308.4813	0.1672
308.693	0.1671
308.9046	0.1628
309.1163	0.1577
309.328	0.1644
309.5396	0.1551
309.7512	0.1543
309.9628	0.152
310.1744	0.1461
310.386	0.1481
310.5976	0.1491
310.8091	0.1507
311.0207	0.1522
311.2322	0.139
311.4437	0.1437
311.6552	0.1465
311.8667	0.146
312.0782	0.1447
312.2897	0.1407
312.5012	0.1372
312.7126	0.1371
312.924	0.1422
313.1355	0.1372
313.3469	0.1342
313.5583	0.1348
313.7696	0.1361
313.981	0.14
314.1924	0.1289
314.4037	0.1333
314.6151	0.1314
314.8264	0.1385
315.0377	0.1269
315.249	0.1366
315.4603	0.1274
315.6716	0.1317
315.8828	0.1338
316.0941	0.132
316.3053	0.1275
316.5165	0.1305
316.7277	0.1231
316.9389	0.1272
317.1501	0.13
317.3613	0.1317
317.5724	0.1282
317.7836	0.1271
317.9947	0.1262
318.2058	0.1229
318.417	0.1219
318.6281	0.1256
318.8391	0.1333
319.0502	0.1285
319.2613	0.124
319.4723	0.1307
319.6834	0.1345
319.8944	0.1341
320.1054	0.1248
320.3164	0.1211
320.5274	0.1286
320.7383	0.1277
320.9493	0.1258
321.1602	0.1227
321.3712	0.122
321.5821	0.1198
321.793	0.1299
322.0039	0.1298
322.2148	0.1281
322.4257	0.1239
322.6365	0.1218
322.8474	0.1265
323.0582	0.131
323.269	0.1323
323.4798	0.1325
323.6906	0.1291
323.9014	0.1289
324.1122	0.123
324.3229	0.1325
324.5337	0.1256
324.7444	0.1278
324.9551	0.1303
325.1658	0.1247
325.3765	0.1313
325.5872	0.1308
325.7979	0.1294
326.0085	0.1323
326.2192	0.1315
326.4298	0.1348
326.6404	0.1354
326.851	0.128
327.0616	0.1368
327.2722	0.1318
327.4828	0.1314
327.6933	0.136
327.9039	0.1316
328.1144	0.1357
328.3249	0.1323
328.5354	0.1377
328.7459	0.1429
328.9564	0.1354
329.1669	0.1423
329.3773	0.1386
329.5878	0.1347
329.7982	0.1405
330.0086	0.1398
330.219	0.1369
330.4294	0.1352
330.6398	0.1375
330.8502	0.1385
331.0605	0.1413
331.2708	0.1396
331.4812	0.1433
331.6915	0.1439
331.9018	0.1375
332.1121	0.1397
332.3224	0.1445
332.5326	0.1294
332.7429	0.1373
332.9531	0.1461
333.1633	0.1371
333.3735	0.1376
333.5837	0.1438
333.7939	0.1398
334.0041	0.1432
334.2143	0.14
334.4244	0.1449
334.6346	0.1374
334.8447	0.1478
335.0548	0.143
335.2649	0.141
335.475	0.1489
335.685	0.1438
335.8951	0.1455
336.1051	0.1471
336.3152	0.1403
336.5252	0.1444
336.7352	0.141
336.9452	0.1503
337.1552	0.1465
337.3652	0.1345
337.5751	0.1401
337.7851	0.1432
337.995	0.1441
338.2049	0.1394
338.4148	0.1473
338.6247	0.1444
338.8346	0.1431
339.0445	0.1432
339.2543	0.1456
339.4642	0.1449
339.674	0.1426
339.8838	0.1401
340.0936	0.1487
340.3034	0.1448
340.5132	0.1423
340.7229	0.1472
340.9327	0.1556
341.1424	0.1504
341.3522	0.1467
341.5619	0.1455
341.7716	0.1503
341.9813	0.1492
342.1909	0.1502
342.4006	0.1509
342.6102	0.1528
342.8199	0.1473
343.0295	0.1484
343.2391	0.1529
343.4487	0.1567
343.6583	0.1629
343.8679	0.1576
344.0774	0.1512
344.287	0.152
344.4965	0.1646
344.706	0.1578
344.9155	0.1552
345.125	0.1519
345.3345	0.1647
345.544	0.1576
345.7534	0.1639
345.9629	0.1666
346.1723	0.1656
346.3817	0.1682
346.5911	0.1695
346.8005	0.1735
347.0099	0.1673
347.2193	0.176
347.4286	0.1748
347.638	0.1702
347.8473	0.1688
348.0566	0.1678
348.2659	0.1731
348.4752	0.173
348.6845	0.1749
348.8937	0.1662
349.103	0.1747
349.3122	0.1721
349.5214	0.1752
349.7306	0.1772
349.9398	0.1716
350.149	0.1708
350.3582	0.1785
350.5674	0.1761
350.7765	0.1797
350.9856	0.1743
351.1948	0.1822
351.4039	0.1832
351.613	0.176
351.822	0.1877
352.0311	0.1832
352.2402	0.1893
352.4492	0.179
352.6582	0.178
352.8672	0.1811
353.0762	0.1827
353.2852	0.1825
353.4942	0.1876
353.7032	0.1857
353.9121	0.1808
354.1211	0.1867
354.33	0.1925
354.5389	0.1781
354.7478	0.179
354.9567	0.1848
355.1655	0.185
355.3744	0.1856
355.5833	0.1843
355.7921	0.185
356.0009	0.1881
356.2097	0.1832
356.4185	0.1819
356.6273	0.1892
356.8361	0.1833
357.0448	0.1856
357.2536	0.191
357.4623	0.181
357.671	0.1899
357.8797	0.1987
358.0884	0.1818
358.2971	0.1899
358.5057	0.192
358.7144	0.1926
358.923	0.1896
359.1316	0.1982
359.3402	0.1876
359.5488	0.1896
359.7574	0.1982
359.966	0.196
360.1746	0.1957
360.3831	0.198
360.5916	0.2045
360.8002	0.2021
361.0087	0.1967
361.2172	0.2065
361.4256	0.2025
361.6341	0.2108
361.8426	0.2009
362.051	0.2081
362.2594	0.204
362.4678	0.2039
362.6762	0.2081
362.8846	0.2107
363.093	0.2046
363.3014	0.2125
363.5097	0.2079
363.718	0.2137
363.9264	0.214
364.1347	0.2148
364.343	0.2156
364.5513	0.2165
364.7595	0.2163
364.9678	0.214
365.176	0.2217
365.3842	0.2233
365.5925	0.2187
365.8007	0.2203
366.0089	0.2249
366.217	0.2208
366.4252	0.218
366.6333	0.2316
366.8415	0.2249
367.0496	0.2297
367.2577	0.2282
367.4658	0.2253
367.6739	0.222
367.882	0.2322
368.09	0.2258
368.2981	0.2318
368.5061	0.2466
368.7141	0.227
368.9221	0.2429
369.1301	0.2389
369.3381	0.239
369.5461	0.2344
369.754	0.2374
369.962	0.2298
370.1699	0.2402
370.3778	0.2511
370.5857	0.2352
370.7936	0.2385
371.0015	0.245
371.2093	0.2402
371.4172	0.2385
371.625	0.25
371.8328	0.2351
372.0406	0.2556
372.2484	0.2457
372.4562	0.2508
372.664	0.242
372.8717	0.2512
373.0795	0.2504
373.2872	0.2547
373.4949	0.2581
373.7026	0.2477
373.9103	0.2518
374.118	0.2486
374.3256	0.2509
374.5333	0.2475
374.7409	0.2501
374.9485	0.2498
375.1561	0.2616
375.3637	0.2541
375.5713	0.2613
375.7789	0.2613
375.9864	0.2605
376.194	0.2659
376.4015	0.2594
376.609	0.2636
376.8165	0.2628
377.024	0.2617
377.2315	0.2661
377.4389	0.2572
377.6464	0.2741
377.8538	0.271
378.0612	0.2647
378.2686	0.2651
378.476	0.2757
378.6834	0.2682
378.8908	0.2736
379.0981	0.2623
379.3055	0.2737
379.5128	0.2701
379.7201	0.2656
379.9274	0.2729
380.1347	0.2716
380.342	0.2737
380.5492	0.2744
380.7565	0.2701
380.9637	0.2831
381.1709	0.2758
381.3781	0.2795
381.5853	0.2794
381.7925	0.2793
381.9997	0.281
382.2068	0.2806
382.4139	0.2788
382.6211	0.278
382.8282	0.2919
383.0353	0.2801
383.2424	0.2775
383.4494	0.2842
383.6565	0.2902
383.8635	0.2794
384.0706	0.2881
384.2776	0.2785
384.4846	0.289
384.6916	0.2868
384.8986	0.2932
385.1055	0.2907
385.3125	0.2881
385.5194	0.2902
385.7263	0.2842
385.9333	0.2883
386.1402	0.2836
386.347	0.2834
386.5539	0.2961
386.7608	0.2827
386.9676	0.2902
387.1744	0.2855
387.3813	0.2894
387.5881	0.2851
387.7948	0.2823
388.0016	0.2939
388.2084	0.282
388.4151	0.2898
388.6219	0.2816
388.8286	0.2738
389.0353	0.2877
389.242	0.2821
389.4487	0.2885
389.6553	0.275
389.862	0.2703
390.0686	0.2908
390.2753	0.2796
390.4819	0.2824
390.6885	0.268
390.8951	0.2842
391.1016	0.2802
391.3082	0.2672
391.5147	0.2628
391.7213	0.2772
391.9278	0.2705
392.1343	0.2804
392.3408	0.2648
392.5473	0.2637
392.7537	0.2657
392.9602	0.2649
393.1666	0.2716
393.373	0.2637
393.5794	0.2704
393.7858	0.2711
393.9922	0.2567
394.1986	0.2584
394.4049	0.2589
394.6113	0.2639
394.8176	0.2552
395.0239	0.254
395.2302	0.2604
395.4365	0.2652
395.6428	0.2567
395.8491	0.2519
396.0553	0.2442
396.2615	0.2526
396.4678	0.251
396.674	0.2527
396.8802	0.2503
397.0863	0.2481
397.2925	0.2565
397.4987	0.244
397.7048	0.2508
397.9109	0.2444
398.117	0.2405
398.3231	0.2427
398.5292	0.2402
398.7353	0.242
398.9413	0.2388
399.1474	0.2374
399.3534	0.2384
399.5594	0.2453
399.7654	0.2428
399.9714	0.2381
400.1774	0.2359
400.3833	0.2468
400.5893	0.2407
400.7952	0.2532
401.0011	0.2376
401.207	0.247
401.4129	0.2345
401.6188	0.2382
401.8247	0.252
402.0305	0.2492
402.2364	0.2422
402.4422	0.2472
402.648	0.2431
402.8538	0.2413
403.0596	0.2376
403.2654	0.2316
403.4711	0.2393
403.6768	0.2427
403.8826	0.2368
404.0883	0.2444
404.294	0.2404
404.4997	0.2382
404.7054	0.244
404.911	0.2432
405.1167	0.2386
405.3223	0.2284
405.5279	0.2428
405.7335	0.2463
405.9391	0.237
406.1447	0.2539
406.3502	0.2401
406.5558	0.2401
406.7613	0.2402
406.9668	0.2471
407.1724	0.2364
407.3778	0.2465
407.5833	0.2358
407.7888	0.2435
407.9942	0.2374
408.1997	0.2414
408.4051	0.2413
408.6105	0.2446
408.8159	0.2439
409.0213	0.2438
409.2267	0.243
409.432	0.2368
409.6374	0.239
409.8427	0.241
410.048	0.2471
410.2533	0.2429
410.4586	0.2367
410.6639	0.2428
410.8691	0.2337
411.0744	0.2357
411.2796	0.2407
411.4848	0.2454
411.69	0.2379
411.8952	0.238
412.1004	0.2367
412.3056	0.2382
412.5107	0.2369
412.7158	0.2542
412.921	0.2328
413.1261	0.2404
413.3312	0.2409
413.5362	0.2417
413.7413	0.232
413.9464	0.2341
414.1514	0.2377
414.3564	0.2267
414.5614	0.2357
414.7664	0.2355
414.9714	0.2377
415.1764	0.2333
415.3813	0.2352
415.5863	0.2471
415.7912	0.2358
415.9961	0.2347
416.201	0.2406
416.4059	0.2308
416.6108	0.2334
416.8156	0.2324
417.0205	0.2366
417.2253	0.2296
417.4301	0.233
417.6349	0.2259
417.8397	0.2236
418.0445	0.2278
418.2492	0.2274
418.454	0.2256
418.6587	0.2368
418.8634	0.2328
419.0681	0.2373
419.2728	0.2348
419.4775	0.237
419.6822	0.2258
419.8868	0.2231
420.0915	0.2131
420.2961	0.2143
420.5007	0.2288
420.7053	0.2265
420.9099	0.2263
421.1144	0.2201
421.319	0.2246
421.5235	0.2156
421.728	0.2326
421.9325	0.226
422.137	0.2194
422.3415	0.2102
422.546	0.2159
422.7504	0.2157
422.9549	0.224
423.1593	0.2129
423.3637	0.217
423.5681	0.2161
423.7725	0.2187
423.9769	0.2159
424.1812	0.2097
424.3856	0.1995
424.5899	0.1999
424.7942	0.2031
424.9985	0.2093
425.2028	0.2158
425.4071	0.2052
425.6113	0.2137
425.8156	0.204
426.0198	0.2058
426.224	0.2103
426.4282	0.1993
426.6324	0.2005
426.8366	0.2042
