Data from D4ACN5uM440nmA_Absorbance_13-50-25-222.txt Node
Date: Fri Feb 21 13:50:25 GMT 2025
User: LASERRRRR
Spectrometer: FLMT03099
Trigger mode: 0
Integration Time (sec): 1.500000E-2
Scans to average: 1
Electric dark correction enabled: true
Nonlinearity correction enabled: false
Boxcar width: 0
XAxis mode: Wavelengths
Number of Pixels in Spectrum: 3648
>>>>>Begin Spectral Data<<<<<
179.3399	-0.7553
179.5586	-0.7553
179.7771	-0.7553
179.9957	-0.3606
180.2143	-0
180.4329	-0
180.6514	-0
180.8699	-0
181.0885	-0
181.307	1.6031
181.5255	-0.0965
181.744	-0
181.9625	0.029
182.181	-0
182.3994	-0.649
182.6179	1.0531
182.8363	-0
183.0547	-0.2837
183.2732	0.0136
183.4916	0.0379
183.71	0.1016
183.9284	-0.0063
184.1467	0.759
184.3651	0.0518
184.5835	0.0573
184.8018	0.013
185.0201	0.1343
185.2385	0.1448
185.4568	0.0607
185.6751	0.0929
185.8934	0.1028
186.1117	-0.0814
186.3299	0.3558
186.5482	0.1163
186.7664	-0.0228
186.9847	-0.1193
187.2029	0.2464
187.4211	-0.1608
187.6393	0.0045
187.8575	0.1116
188.0757	0.6945
188.2939	0.2721
188.512	0.1069
188.7302	0.244
188.9483	0.2601
189.1665	0.6018
189.3846	0.2337
189.6027	0.2034
189.8208	0.1074
190.0389	0.0068
190.257	-0.0558
190.475	0.0464
190.6931	0.0771
190.9111	0.0651
191.1292	0.1314
191.3472	0.0057
191.5652	0.3479
191.7832	0.1806
192.0012	0.031
192.2192	0.1859
192.4371	0.2407
192.6551	0.1464
192.873	0.1226
193.091	0.2422
193.3089	0.2487
193.5268	0.2443
193.7447	0.2819
193.9626	0.2402
194.1805	0.2323
194.3984	0.3293
194.6162	0.2608
194.8341	0.2705
195.0519	0.3112
195.2697	0.2074
195.4875	0.3054
195.7054	0.2303
195.9231	0.2367
196.1409	0.3244
196.3587	0.2711
196.5765	0.3033
196.7942	0.3223
197.012	0.3328
197.2297	0.3328
197.4474	0.4063
197.6651	0.3613
197.8828	0.357
198.1005	0.4158
198.3182	0.394
198.5358	0.3629
198.7535	0.3767
198.9711	0.3684
199.1888	0.3813
199.4064	0.3947
199.624	0.3746
199.8416	0.3352
200.0592	0.4226
200.2767	0.3915
200.4943	0.4199
200.7119	0.3848
200.9294	0.4081
201.1469	0.4009
201.3645	0.3707
201.582	0.3545
201.7995	0.4055
202.017	0.4235
202.2344	0.3753
202.4519	0.4225
202.6694	0.3924
202.8868	0.3774
203.1042	0.4162
203.3217	0.4056
203.5391	0.3937
203.7565	0.3537
203.9739	0.339
204.1913	0.3468
204.4086	0.3256
204.626	0.3846
204.8433	0.3567
205.0607	0.3656
205.278	0.3424
205.4953	0.345
205.7126	0.3453
205.9299	0.2835
206.1472	0.3246
206.3644	0.3424
206.5817	0.3047
206.7989	0.3321
207.0162	0.2909
207.2334	0.3338
207.4506	0.2836
207.6678	0.2892
207.885	0.3011
208.1022	0.3023
208.3194	0.2772
208.5365	0.28
208.7537	0.2955
208.9708	0.3021
209.1879	0.2731
209.405	0.2793
209.6222	0.2892
209.8392	0.287
210.0563	0.2778
210.2734	0.2568
210.4905	0.2827
210.7075	0.2584
210.9245	0.2641
211.1416	0.248
211.3586	0.2488
211.5756	0.2388
211.7926	0.2656
212.0096	0.2591
212.2265	0.267
212.4435	0.2493
212.6604	0.261
212.8774	0.2362
213.0943	0.2416
213.3112	0.231
213.5281	0.2535
213.745	0.2232
213.9619	0.2404
214.1788	0.2424
214.3956	0.2509
214.6125	0.2414
214.8293	0.2552
215.0461	0.2535
215.2629	0.2524
215.4798	0.2422
215.6965	0.2467
215.9133	0.2328
216.1301	0.2503
216.3469	0.2527
216.5636	0.2583
216.7803	0.2358
216.9971	0.2464
217.2138	0.242
217.4305	0.2394
217.6472	0.2528
217.8639	0.2445
218.0805	0.2459
218.2972	0.2482
218.5138	0.2502
218.7305	0.2536
218.9471	0.2485
219.1637	0.2709
219.3803	0.2599
219.5969	0.249
219.8135	0.2585
220.0301	0.2583
220.2466	0.2475
220.4632	0.2509
220.6797	0.2562
220.8962	0.2602
221.1127	0.2607
221.3292	0.2604
221.5457	0.261
221.7622	0.2599
221.9787	0.2876
222.1951	0.2712
222.4116	0.2716
222.628	0.2786
222.8444	0.2793
223.0608	0.2685
223.2772	0.2801
223.4936	0.2843
223.71	0.2757
223.9264	0.2975
224.1427	0.2746
224.3591	0.2847
224.5754	0.2879
224.7917	0.289
225.008	0.2956
225.2243	0.3038
225.4406	0.2847
225.6569	0.3005
225.8732	0.2991
226.0894	0.3097
226.3057	0.306
226.5219	0.3131
226.7381	0.313
226.9543	0.3033
227.1705	0.3163
227.3867	0.3156
227.6029	0.3231
227.8191	0.348
228.0352	0.3307
228.2513	0.3501
228.4675	0.3441
228.6836	0.3449
228.8997	0.3363
229.1158	0.3508
229.3319	0.359
229.548	0.35
229.764	0.3567
229.9801	0.3743
230.1961	0.3709
230.4121	0.3653
230.6282	0.3798
230.8442	0.3899
231.0602	0.3794
231.2761	0.3721
231.4921	0.3819
231.7081	0.3886
231.924	0.4044
232.14	0.4022
232.3559	0.3941
232.5718	0.4094
232.7877	0.3972
233.0036	0.4067
233.2195	0.406
233.4353	0.4258
233.6512	0.4134
233.867	0.4127
234.0829	0.4308
234.2987	0.4276
234.5145	0.4226
234.7303	0.432
234.9461	0.4331
235.1619	0.4364
235.3776	0.4327
235.5934	0.4333
235.8091	0.4436
236.0249	0.452
236.2406	0.437
236.4563	0.4448
236.672	0.432
236.8877	0.4554
237.1034	0.4463
237.319	0.4505
237.5347	0.4434
237.7503	0.4381
237.966	0.4575
238.1816	0.4484
238.3972	0.4502
238.6128	0.46
238.8284	0.461
239.0439	0.4565
239.2595	0.4583
239.475	0.4656
239.6906	0.4589
239.9061	0.4673
240.1216	0.4574
240.3371	0.4501
240.5526	0.4572
240.7681	0.4626
240.9836	0.4486
241.199	0.4542
241.4145	0.446
241.6299	0.4476
241.8453	0.4353
242.0607	0.4337
242.2761	0.4271
242.4915	0.4181
242.7069	0.4208
242.9223	0.4191
243.1376	0.4033
243.353	0.3979
243.5683	0.3926
243.7836	0.3953
243.9989	0.3788
244.2142	0.371
244.4295	0.3724
244.6448	0.3712
244.86	0.3544
245.0753	0.3414
245.2905	0.3459
245.5057	0.3365
245.721	0.3316
245.9362	0.326
246.1514	0.3169
246.3665	0.3098
246.5817	0.3058
246.7969	0.2942
247.012	0.2912
247.2271	0.2894
247.4423	0.2817
247.6574	0.2808
247.8725	0.2767
248.0876	0.2638
248.3026	0.2695
248.5177	0.2526
248.7328	0.2567
248.9478	0.255
249.1628	0.2475
249.3779	0.2363
249.5929	0.2352
249.8079	0.2424
250.0228	0.2381
250.2378	0.2272
250.4528	0.2276
250.6677	0.2207
250.8827	0.2134
251.0976	0.2158
251.3125	0.2174
251.5274	0.2079
251.7423	0.2102
251.9572	0.2037
252.172	0.2008
252.3869	0.2015
252.6017	0.2031
252.8166	0.1946
253.0314	0.1949
253.2462	0.1919
253.461	0.196
253.6758	0.1955
253.8906	0.1892
254.1053	0.195
254.3201	0.1948
254.5348	0.1827
254.7496	0.1848
254.9643	0.187
255.179	0.1846
255.3937	0.192
255.6083	0.1898
255.823	0.1875
256.0377	0.1819
256.2523	0.1838
256.467	0.1867
256.6816	0.1802
256.8962	0.1801
257.1108	0.1853
257.3254	0.1825
257.54	0.1725
257.7545	0.1825
257.9691	0.1789
258.1836	0.1762
258.3981	0.1765
258.6127	0.1719
258.8272	0.1805
259.0417	0.1755
259.2561	0.1779
259.4706	0.1763
259.6851	0.177
259.8995	0.1768
260.114	0.1722
260.3284	0.1663
260.5428	0.1724
260.7572	0.1771
260.9716	0.181
261.186	0.1742
261.4003	0.1755
261.6147	0.1704
261.829	0.1757
262.0433	0.181
262.2577	0.1738
262.472	0.1724
262.6863	0.1893
262.9005	0.1754
263.1148	0.1695
263.3291	0.1791
263.5433	0.1811
263.7576	0.1801
263.9718	0.1798
264.186	0.1792
264.4002	0.1745
264.6144	0.1861
264.8286	0.1788
265.0427	0.1809
265.2569	0.182
265.471	0.1836
265.6851	0.1826
265.8993	0.1823
266.1134	0.1819
266.3275	0.181
266.5415	0.1803
266.7556	0.1843
266.9697	0.1829
267.1837	0.1824
267.3978	0.1822
267.6118	0.176
267.8258	0.1821
268.0398	0.186
268.2538	0.184
268.4677	0.1784
268.6817	0.1812
268.8957	0.1749
269.1096	0.1767
269.3235	0.1815
269.5374	0.179
269.7514	0.1821
269.9652	0.1785
270.1791	0.174
270.393	0.1715
270.6068	0.1788
270.8207	0.165
271.0345	0.1738
271.2483	0.1702
271.4622	0.1742
271.676	0.1637
271.8897	0.1702
272.1035	0.1724
272.3173	0.176
272.531	0.1735
272.7448	0.1683
272.9585	0.1652
273.1722	0.1699
273.3859	0.1741
273.5996	0.173
273.8133	0.1718
274.0269	0.1694
274.2406	0.1699
274.4542	0.1696
274.6679	0.1727
274.8815	0.18
275.0951	0.1796
275.3087	0.1728
275.5223	0.1767
275.7358	0.1738
275.9494	0.1728
276.1629	0.1775
276.3765	0.1778
276.59	0.1741
276.8035	0.181
277.017	0.1818
277.2305	0.18
277.444	0.1809
277.6574	0.1839
277.8709	0.1862
278.0843	0.1778
278.2978	0.1845
278.5112	0.1744
278.7246	0.1786
278.938	0.1761
279.1513	0.1819
279.3647	0.1816
279.5781	0.1812
279.7914	0.1811
280.0047	0.1859
280.2181	0.181
280.4314	0.1831
280.6447	0.1847
280.8579	0.1757
281.0712	0.1783
281.2845	0.1844
281.4977	0.1802
281.711	0.1796
281.9242	0.1814
282.1374	0.1846
282.3506	0.1841
282.5638	0.1751
282.7769	0.178
282.9901	0.1809
283.2033	0.1826
283.4164	0.1851
283.6295	0.1871
283.8426	0.1764
284.0557	0.1802
284.2688	0.1795
284.4819	0.1787
284.695	0.1889
284.908	0.1762
285.1211	0.1814
285.3341	0.1802
285.5471	0.1871
285.7601	0.1837
285.9731	0.1849
286.1861	0.1897
286.3991	0.1893
286.612	0.1842
286.825	0.1962
287.0379	0.1861
287.2508	0.1881
287.4637	0.1849
287.6766	0.1857
287.8895	0.1846
288.1024	0.1892
288.3152	0.1918
288.5281	0.1817
288.7409	0.1931
288.9538	0.188
289.1666	0.1882
289.3794	0.1845
289.5922	0.1867
289.8049	0.192
290.0177	0.1913
290.2304	0.1865
290.4432	0.1909
290.6559	0.1921
290.8686	0.1923
291.0813	0.1911
291.294	0.1919
291.5067	0.1835
291.7194	0.1896
291.932	0.1804
292.1447	0.1882
292.3573	0.1888
292.5699	0.1935
292.7825	0.1867
292.9951	0.192
293.2077	0.1883
293.4203	0.1889
293.6328	0.1907
293.8454	0.1929
294.0579	0.1933
294.2704	0.192
294.4829	0.1837
294.6954	0.1933
294.9079	0.1876
295.1204	0.1859
295.3328	0.1889
295.5453	0.19
295.7577	0.1851
295.9701	0.1899
296.1825	0.1949
296.3949	0.1865
296.6073	0.1884
296.8197	0.1905
297.0321	0.1936
297.2444	0.1917
297.4567	0.1905
297.6691	0.1875
297.8814	0.1921
298.0937	0.1909
298.306	0.1878
298.5182	0.1947
298.7305	0.1891
298.9428	0.1918
299.155	0.1876
299.3672	0.1892
299.5794	0.1893
299.7916	0.1917
300.0038	0.1964
300.216	0.1847
300.4282	0.1921
300.6403	0.1992
300.8525	0.1906
301.0646	0.1888
301.2767	0.1878
301.4888	0.1903
301.7009	0.1932
301.913	0.1897
302.125	0.1946
302.3371	0.1861
302.5491	0.1954
302.7612	0.1993
302.9732	0.1913
303.1852	0.1958
303.3972	0.1861
303.6092	0.1891
303.8211	0.1905
304.0331	0.1861
304.245	0.1898
304.457	0.1894
304.6689	0.1827
304.8808	0.1868
305.0927	0.1917
305.3046	0.1858
305.5164	0.1883
305.7283	0.1791
305.9401	0.173
306.152	0.1747
306.3638	0.1766
306.5756	0.183
306.7874	0.1772
306.9992	0.1732
307.2109	0.1723
307.4227	0.1664
307.6344	0.1749
307.8462	0.1668
308.0579	0.1708
308.2696	0.164
308.4813	0.1682
308.693	0.1632
308.9046	0.1617
309.1163	0.1592
309.328	0.1571
309.5396	0.1574
309.7512	0.1498
309.9628	0.1534
310.1744	0.1495
310.386	0.1424
310.5976	0.1484
310.8091	0.1506
311.0207	0.1479
311.2322	0.142
311.4437	0.1481
311.6552	0.1451
311.8667	0.1468
312.0782	0.1392
312.2897	0.1489
312.5012	0.1385
312.7126	0.1415
312.924	0.1334
313.1355	0.1325
313.3469	0.1345
313.5583	0.1363
313.7696	0.1334
313.981	0.1383
314.1924	0.1324
314.4037	0.1365
314.6151	0.1316
314.8264	0.1358
315.0377	0.1264
315.249	0.1343
315.4603	0.1254
315.6716	0.1279
315.8828	0.1291
316.0941	0.132
316.3053	0.1259
316.5165	0.1235
316.7277	0.1247
316.9389	0.1277
317.1501	0.1293
317.3613	0.1236
317.5724	0.1282
317.7836	0.1181
317.9947	0.1146
318.2058	0.1188
318.417	0.1198
318.6281	0.1283
318.8391	0.1269
319.0502	0.1249
319.2613	0.1245
319.4723	0.1218
319.6834	0.1259
319.8944	0.1258
320.1054	0.1228
320.3164	0.1179
320.5274	0.1193
320.7383	0.1272
320.9493	0.123
321.1602	0.1211
321.3712	0.1241
321.5821	0.1204
321.793	0.1281
322.0039	0.1248
322.2148	0.1248
322.4257	0.1274
322.6365	0.1195
322.8474	0.1233
323.0582	0.1249
323.269	0.1239
323.4798	0.1261
323.6906	0.1208
323.9014	0.1243
324.1122	0.1225
324.3229	0.1291
324.5337	0.1257
324.7444	0.125
324.9551	0.1261
325.1658	0.1238
325.3765	0.1301
325.5872	0.1273
325.7979	0.1283
326.0085	0.1245
326.2192	0.1252
326.4298	0.1247
326.6404	0.1317
326.851	0.1274
327.0616	0.1314
327.2722	0.1306
327.4828	0.1265
327.6933	0.1376
327.9039	0.1256
328.1144	0.1318
328.3249	0.1329
328.5354	0.1299
328.7459	0.1317
328.9564	0.1287
329.1669	0.1368
329.3773	0.1341
329.5878	0.1335
329.7982	0.1329
330.0086	0.1374
330.219	0.1351
330.4294	0.136
330.6398	0.1381
330.8502	0.137
331.0605	0.1345
331.2708	0.1308
331.4812	0.1292
331.6915	0.1362
331.9018	0.1324
332.1121	0.1391
332.3224	0.1337
332.5326	0.1286
332.7429	0.133
332.9531	0.1402
333.1633	0.1287
333.3735	0.1356
333.5837	0.1443
333.7939	0.1364
334.0041	0.1373
334.2143	0.1326
334.4244	0.1461
334.6346	0.1357
334.8447	0.1376
335.0548	0.1427
335.2649	0.1365
335.475	0.1429
335.685	0.1342
335.8951	0.1358
336.1051	0.1413
336.3152	0.1356
336.5252	0.1362
336.7352	0.1368
336.9452	0.1399
337.1552	0.1368
337.3652	0.1374
337.5751	0.1399
337.7851	0.1367
337.995	0.1403
338.2049	0.137
338.4148	0.1366
338.6247	0.1432
338.8346	0.141
339.0445	0.1436
339.2543	0.1405
339.4642	0.1371
339.674	0.1389
339.8838	0.1445
340.0936	0.1449
340.3034	0.1411
340.5132	0.1342
340.7229	0.1445
340.9327	0.1527
341.1424	0.1423
341.3522	0.1419
341.5619	0.146
341.7716	0.1494
341.9813	0.1497
342.1909	0.149
342.4006	0.1453
342.6102	0.1483
342.8199	0.1551
343.0295	0.1417
343.2391	0.1505
343.4487	0.1559
343.6583	0.1548
343.8679	0.1419
344.0774	0.1454
344.287	0.148
344.4965	0.1536
344.706	0.156
344.9155	0.1506
345.125	0.1541
345.3345	0.1651
345.544	0.1593
345.7534	0.1586
345.9629	0.1598
346.1723	0.1539
346.3817	0.1616
346.5911	0.1599
346.8005	0.1654
347.0099	0.1588
347.2193	0.1712
347.4286	0.1685
347.638	0.1678
347.8473	0.1631
348.0566	0.1629
348.2659	0.1713
348.4752	0.1675
348.6845	0.1698
348.8937	0.1659
349.103	0.1695
349.3122	0.1641
349.5214	0.1727
349.7306	0.1711
349.9398	0.1686
350.149	0.1669
350.3582	0.1651
350.5674	0.1717
350.7765	0.1726
350.9856	0.1697
351.1948	0.1771
351.4039	0.1727
351.613	0.1718
351.822	0.1799
352.0311	0.1764
352.2402	0.184
352.4492	0.1805
352.6582	0.1829
352.8672	0.1759
353.0762	0.177
353.2852	0.1789
353.4942	0.1822
353.7032	0.1792
353.9121	0.1846
354.1211	0.189
354.33	0.1781
354.5389	0.1786
354.7478	0.1704
354.9567	0.194
355.1655	0.1829
355.3744	0.18
355.5833	0.1835
355.7921	0.1907
356.0009	0.182
356.2097	0.1785
356.4185	0.1836
356.6273	0.1811
356.8361	0.1869
357.0448	0.1831
357.2536	0.1916
357.4623	0.1876
357.671	0.1905
357.8797	0.187
358.0884	0.1916
358.2971	0.1914
358.5057	0.184
358.7144	0.1934
358.923	0.1944
359.1316	0.1956
359.3402	0.1936
359.5488	0.1985
359.7574	0.2013
359.966	0.1995
360.1746	0.196
360.3831	0.2034
360.5916	0.2007
360.8002	0.2077
361.0087	0.1992
361.2172	0.2065
361.4256	0.2034
361.6341	0.206
361.8426	0.2102
362.051	0.212
362.2594	0.2055
362.4678	0.2075
362.6762	0.2099
362.8846	0.2141
363.093	0.2061
363.3014	0.2141
363.5097	0.2097
363.718	0.2177
363.9264	0.225
364.1347	0.2209
364.343	0.2187
364.5513	0.2272
364.7595	0.2272
364.9678	0.2128
365.176	0.2202
365.3842	0.2311
365.5925	0.2201
365.8007	0.2269
366.0089	0.2297
366.217	0.2237
366.4252	0.219
366.6333	0.2296
366.8415	0.2302
367.0496	0.2367
367.2577	0.2389
367.4658	0.2287
367.6739	0.2377
367.882	0.2394
368.09	0.2321
368.2981	0.2417
368.5061	0.2421
368.7141	0.2326
368.9221	0.252
369.1301	0.2458
369.3381	0.2439
369.5461	0.2435
369.754	0.2447
369.962	0.2364
370.1699	0.2438
370.3778	0.2584
370.5857	0.2434
370.7936	0.2468
371.0015	0.2475
371.2093	0.2459
371.4172	0.2456
371.625	0.251
371.8328	0.2441
372.0406	0.2601
372.2484	0.2543
372.4562	0.258
372.664	0.2584
372.8717	0.2498
373.0795	0.2576
373.2872	0.2589
373.4949	0.2606
373.7026	0.2524
373.9103	0.2585
374.118	0.2612
374.3256	0.258
374.5333	0.2619
374.7409	0.2585
374.9485	0.2556
375.1561	0.2681
375.3637	0.26
375.5713	0.2698
375.7789	0.2607
375.9864	0.2664
376.194	0.2774
376.4015	0.2678
376.609	0.2751
376.8165	0.2698
377.024	0.2763
377.2315	0.266
377.4389	0.2607
377.6464	0.2752
377.8538	0.2767
378.0612	0.2672
378.2686	0.2716
378.476	0.2861
378.6834	0.28
378.8908	0.2817
379.0981	0.2814
379.3055	0.2837
379.5128	0.2765
379.7201	0.2758
379.9274	0.2836
380.1347	0.2726
380.342	0.286
380.5492	0.2816
380.7565	0.2882
380.9637	0.2817
381.1709	0.2873
381.3781	0.2939
381.5853	0.2819
381.7925	0.29
381.9997	0.2878
382.2068	0.2933
382.4139	0.2871
382.6211	0.2984
382.8282	0.2999
383.0353	0.2942
383.2424	0.2846
383.4494	0.299
383.6565	0.2877
383.8635	0.2852
384.0706	0.3054
384.2776	0.2973
384.4846	0.2925
384.6916	0.2951
384.8986	0.2899
385.1055	0.2962
385.3125	0.2958
385.5194	0.3035
385.7263	0.2963
385.9333	0.3001
386.1402	0.2965
386.347	0.2889
386.5539	0.3007
386.7608	0.291
386.9676	0.2953
387.1744	0.3052
387.3813	0.2935
387.5881	0.2892
387.7948	0.3023
388.0016	0.3024
388.2084	0.2951
388.4151	0.3012
388.6219	0.2948
388.8286	0.2958
389.0353	0.3039
389.242	0.2946
389.4487	0.2897
389.6553	0.2792
389.862	0.2872
390.0686	0.2912
390.2753	0.288
390.4819	0.2946
390.6885	0.2876
390.8951	0.2859
391.1016	0.2874
391.3082	0.289
391.5147	0.2854
391.7213	0.2795
391.9278	0.2781
392.1343	0.2821
392.3408	0.2804
392.5473	0.2763
392.7537	0.2799
392.9602	0.2733
393.1666	0.2695
393.373	0.2732
393.5794	0.2651
393.7858	0.2685
393.9922	0.2668
394.1986	0.2714
394.4049	0.2648
394.6113	0.2654
394.8176	0.2746
395.0239	0.2611
395.2302	0.2686
395.4365	0.2776
395.6428	0.2561
395.8491	0.2581
396.0553	0.2538
396.2615	0.2632
396.4678	0.2728
396.674	0.2496
396.8802	0.2571
397.0863	0.2647
397.2925	0.2634
397.4987	0.2571
397.7048	0.2552
397.9109	0.2519
398.117	0.2566
398.3231	0.2505
398.5292	0.2455
398.7353	0.2448
398.9413	0.252
399.1474	0.2457
399.3534	0.2494
399.5594	0.2554
399.7654	0.2406
399.9714	0.2558
400.1774	0.2539
400.3833	0.2585
400.5893	0.2471
400.7952	0.2537
401.0011	0.2502
401.207	0.2523
401.4129	0.2514
401.6188	0.2491
401.8247	0.2529
402.0305	0.2484
402.2364	0.2582
402.4422	0.2501
402.648	0.2532
402.8538	0.2486
403.0596	0.2451
403.2654	0.2544
403.4711	0.2426
403.6768	0.2446
403.8826	0.252
404.0883	0.2492
404.294	0.2526
404.4997	0.2494
404.7054	0.2509
404.911	0.2462
405.1167	0.2511
405.3223	0.254
405.5279	0.2429
405.7335	0.2454
405.9391	0.2416
406.1447	0.2655
406.3502	0.2449
406.5558	0.2476
406.7613	0.2459
406.9668	0.2547
407.1724	0.2418
407.3778	0.2508
407.5833	0.2438
407.7888	0.2522
407.9942	0.2426
408.1997	0.2463
408.4051	0.2435
408.6105	0.2478
408.8159	0.2507
409.0213	0.2551
409.2267	0.2471
409.432	0.2482
409.6374	0.2483
409.8427	0.2591
410.048	0.2514
410.2533	0.2544
410.4586	0.2381
410.6639	0.2602
410.8691	0.2356
411.0744	0.2534
411.2796	0.2405
411.4848	0.2501
411.69	0.2333
411.8952	0.2467
412.1004	0.251
412.3056	0.2396
412.5107	0.2495
412.7158	0.2589
412.921	0.2462
413.1261	0.2404
413.3312	0.247
413.5362	0.2533
413.7413	0.2444
413.9464	0.2445
414.1514	0.2419
414.3564	0.2358
414.5614	0.2457
414.7664	0.2337
414.9714	0.2382
415.1764	0.2435
415.3813	0.2392
415.5863	0.26
415.7912	0.2356
415.9961	0.2438
416.201	0.2483
416.4059	0.2485
416.6108	0.2388
416.8156	0.2416
417.0205	0.2393
417.2253	0.2432
417.4301	0.2526
417.6349	0.2396
417.8397	0.2394
418.0445	0.2333
418.2492	0.2367
418.454	0.2344
418.6587	0.2483
418.8634	0.2294
419.0681	0.2442
419.2728	0.2487
419.4775	0.2422
419.6822	0.2363
419.8868	0.2423
420.0915	0.2284
420.2961	0.2301
420.5007	0.2295
420.7053	0.237
420.9099	0.2306
421.1144	0.2228
421.319	0.2315
421.5235	0.2264
421.728	0.2362
421.9325	0.2268
422.137	0.2258
422.3415	0.2192
422.546	0.2208
422.7504	0.2236
422.9549	0.2312
423.1593	0.2158
423.3637	0.2279
423.5681	0.229
423.7725	0.2126
423.9769	0.2238
424.1812	0.2193
424.3856	0.2133
424.5899	0.2154
424.7942	0.2132
424.9985	0.2148
425.2028	0.2224
425.4071	0.2065
425.6113	0.2183
425.8156	0.2094
426.0198	0.2152
426.224	0.2103
426.4282	0.2031
426.6324	0.2057
426.8366	0.2049
