Data from D4ACN5uM440nmA_Absorbance_13-50-24-697.txt Node
Date: Fri Feb 21 13:50:24 GMT 2025
User: LASERRRRR
Spectrometer: FLMT03099
Trigger mode: 0
Integration Time (sec): 1.500000E-2
Scans to average: 1
Electric dark correction enabled: true
Nonlinearity correction enabled: false
Boxcar width: 0
XAxis mode: Wavelengths
Number of Pixels in Spectrum: 3648
>>>>>Begin Spectral Data<<<<<
179.3399	13.5334
179.5586	13.5334
179.7771	13.5334
179.9957	-0.2927
180.2143	-1.5958
180.4329	-0
180.6514	-0
180.8699	0.075
181.0885	0.4937
181.307	0.0768
181.5255	0.1599
181.744	0.1146
181.9625	0.2812
182.181	-0
182.3994	-0.6997
182.6179	0.1288
182.8363	-0
183.0547	-0.0834
183.2732	0.0394
183.4916	0.0785
183.71	0.4143
183.9284	0.0231
184.1467	0.146
184.3651	0.0673
184.5835	0.1255
184.8018	0.1598
185.0201	0.0525
185.2385	0.1809
185.4568	0.0185
185.6751	0.1461
185.8934	0.2684
186.1117	-0.0661
186.3299	0.19
186.5482	0.3387
186.7664	0.011
186.9847	-0.0374
187.2029	0.339
187.4211	0.1332
187.6393	0.2546
187.8575	0.1745
188.0757	0.0606
188.2939	-0.0724
188.512	0.1676
188.7302	0.2273
188.9483	0.9938
189.1665	0.3331
189.3846	0.2184
189.6027	0.2084
189.8208	0.1792
190.0389	0.1861
190.257	-0.0439
190.475	-0.0277
190.6931	0.1594
190.9111	0.1702
191.1292	0.0338
191.3472	0.0357
191.5652	0.2041
191.7832	0.1355
192.0012	0.2557
192.2192	0.0855
192.4371	0.1734
192.6551	0.2734
192.873	0.2027
193.091	0.1218
193.3089	0.3037
193.5268	0.3568
193.7447	0.2248
193.9626	0.1352
194.1805	0.2742
194.3984	0.1599
194.6162	0.248
194.8341	0.2939
195.0519	0.1735
195.2697	0.2166
195.4875	0.2855
195.7054	0.2755
195.9231	0.2514
196.1409	0.3639
196.3587	0.2714
196.5765	0.3435
196.7942	0.2569
197.012	0.3389
197.2297	0.3231
197.4474	0.4526
197.6651	0.3273
197.8828	0.348
198.1005	0.4045
198.3182	0.3862
198.5358	0.3297
198.7535	0.437
198.9711	0.3909
199.1888	0.3695
199.4064	0.4073
199.624	0.3759
199.8416	0.3671
200.0592	0.4088
200.2767	0.3866
200.4943	0.466
200.7119	0.3888
200.9294	0.4495
201.1469	0.4347
201.3645	0.4487
201.582	0.3791
201.7995	0.4321
202.017	0.4203
202.2344	0.3717
202.4519	0.3873
202.6694	0.3815
202.8868	0.379
203.1042	0.4334
203.3217	0.3589
203.5391	0.3993
203.7565	0.338
203.9739	0.3397
204.1913	0.3414
204.4086	0.3772
204.626	0.3396
204.8433	0.3603
205.0607	0.3727
205.278	0.3531
205.4953	0.3467
205.7126	0.3194
205.9299	0.3409
206.1472	0.3207
206.3644	0.3685
206.5817	0.3238
206.7989	0.319
207.0162	0.2982
207.2334	0.3445
207.4506	0.3087
207.6678	0.316
207.885	0.2857
208.1022	0.308
208.3194	0.298
208.5365	0.3111
208.7537	0.3038
208.9708	0.2876
209.1879	0.2792
209.405	0.2884
209.6222	0.2644
209.8392	0.2835
210.0563	0.2778
210.2734	0.2566
210.4905	0.2961
210.7075	0.2759
210.9245	0.2761
211.1416	0.2741
211.3586	0.2726
211.5756	0.262
211.7926	0.2683
212.0096	0.263
212.2265	0.2449
212.4435	0.2446
212.6604	0.2535
212.8774	0.2504
213.0943	0.2757
213.3112	0.2655
213.5281	0.252
213.745	0.2434
213.9619	0.2385
214.1788	0.2614
214.3956	0.2514
214.6125	0.2436
214.8293	0.2536
215.0461	0.259
215.2629	0.2667
215.4798	0.2326
215.6965	0.2463
215.9133	0.2371
216.1301	0.2483
216.3469	0.2464
216.5636	0.2612
216.7803	0.2647
216.9971	0.2471
217.2138	0.2602
217.4305	0.2537
217.6472	0.2548
217.8639	0.2512
218.0805	0.254
218.2972	0.2401
218.5138	0.2653
218.7305	0.2565
218.9471	0.253
219.1637	0.2684
219.3803	0.2532
219.5969	0.252
219.8135	0.2669
220.0301	0.2559
220.2466	0.2706
220.4632	0.2509
220.6797	0.2621
220.8962	0.2599
221.1127	0.2697
221.3292	0.2561
221.5457	0.2806
221.7622	0.2568
221.9787	0.2761
222.1951	0.2652
222.4116	0.2706
222.628	0.2841
222.8444	0.2808
223.0608	0.2919
223.2772	0.2723
223.4936	0.284
223.71	0.2836
223.9264	0.285
224.1427	0.2869
224.3591	0.2846
224.5754	0.2951
224.7917	0.2969
225.008	0.2897
225.2243	0.3103
225.4406	0.3026
225.6569	0.3072
225.8732	0.303
226.0894	0.2994
226.3057	0.3249
226.5219	0.3203
226.7381	0.3324
226.9543	0.3088
227.1705	0.319
227.3867	0.3258
227.6029	0.3254
227.8191	0.3377
228.0352	0.3616
228.2513	0.353
228.4675	0.3419
228.6836	0.3415
228.8997	0.3403
229.1158	0.3532
229.3319	0.3561
229.548	0.3547
229.764	0.3496
229.9801	0.3683
230.1961	0.3722
230.4121	0.3788
230.6282	0.3715
230.8442	0.389
231.0602	0.3826
231.2761	0.3786
231.4921	0.3921
231.7081	0.3871
231.924	0.3888
232.14	0.4097
232.3559	0.397
232.5718	0.4189
232.7877	0.3954
233.0036	0.4074
233.2195	0.4094
233.4353	0.4223
233.6512	0.4231
233.867	0.4261
234.0829	0.4225
234.2987	0.4203
234.5145	0.4241
234.7303	0.4368
234.9461	0.4422
235.1619	0.4344
235.3776	0.4391
235.5934	0.4255
235.8091	0.446
236.0249	0.448
236.2406	0.4385
236.4563	0.4551
236.672	0.4349
236.8877	0.449
237.1034	0.4418
237.319	0.457
237.5347	0.4409
237.7503	0.4553
237.966	0.4605
238.1816	0.4437
238.3972	0.4486
238.6128	0.4619
238.8284	0.472
239.0439	0.4591
239.2595	0.4532
239.475	0.4547
239.6906	0.4567
239.9061	0.4569
240.1216	0.4575
240.3371	0.464
240.5526	0.4548
240.7681	0.4518
240.9836	0.4444
241.199	0.4505
241.4145	0.4507
241.6299	0.4503
241.8453	0.4378
242.0607	0.4297
242.2761	0.4338
242.4915	0.4304
242.7069	0.4181
242.9223	0.4186
243.1376	0.3996
243.353	0.3921
243.5683	0.3906
243.7836	0.3923
243.9989	0.3702
244.2142	0.3761
244.4295	0.3711
244.6448	0.3621
244.86	0.347
245.0753	0.3411
245.2905	0.3323
245.5057	0.3304
245.721	0.3348
245.9362	0.3271
246.1514	0.3098
246.3665	0.3018
246.5817	0.3041
246.7969	0.2925
247.012	0.2916
247.2271	0.291
247.4423	0.2856
247.6574	0.2757
247.8725	0.2691
248.0876	0.2643
248.3026	0.268
248.5177	0.2632
248.7328	0.2489
248.9478	0.2445
249.1628	0.249
249.3779	0.2455
249.5929	0.2412
249.8079	0.2329
250.0228	0.2303
250.2378	0.2347
250.4528	0.228
250.6677	0.2185
250.8827	0.211
251.0976	0.216
251.3125	0.2128
251.5274	0.2107
251.7423	0.2075
251.9572	0.2187
252.172	0.2037
252.3869	0.2047
252.6017	0.2022
252.8166	0.1992
253.0314	0.1964
253.2462	0.1979
253.461	0.1998
253.6758	0.1933
253.8906	0.1923
254.1053	0.1923
254.3201	0.1943
254.5348	0.1822
254.7496	0.1791
254.9643	0.1869
255.179	0.1861
255.3937	0.1882
255.6083	0.1949
255.823	0.1813
256.0377	0.1855
256.2523	0.1811
256.467	0.1867
256.6816	0.1749
256.8962	0.1836
257.1108	0.1857
257.3254	0.1776
257.54	0.18
257.7545	0.183
257.9691	0.1778
258.1836	0.174
258.3981	0.1799
258.6127	0.1743
258.8272	0.1852
259.0417	0.1774
259.2561	0.1783
259.4706	0.1795
259.6851	0.1768
259.8995	0.1752
260.114	0.1775
260.3284	0.1716
260.5428	0.1741
260.7572	0.1776
260.9716	0.1759
261.186	0.1739
261.4003	0.1731
261.6147	0.1735
261.829	0.1764
262.0433	0.1746
262.2577	0.174
262.472	0.1767
262.6863	0.1826
262.9005	0.1714
263.1148	0.1761
263.3291	0.1753
263.5433	0.1755
263.7576	0.1774
263.9718	0.1748
264.186	0.1822
264.4002	0.1799
264.6144	0.181
264.8286	0.1769
265.0427	0.1829
265.2569	0.1827
265.471	0.1827
265.6851	0.1785
265.8993	0.1741
266.1134	0.1842
266.3275	0.1755
266.5415	0.1787
266.7556	0.1826
266.9697	0.1775
267.1837	0.1733
267.3978	0.1811
267.6118	0.1724
267.8258	0.1831
268.0398	0.1752
268.2538	0.1821
268.4677	0.1713
268.6817	0.1817
268.8957	0.1712
269.1096	0.1666
269.3235	0.172
269.5374	0.1736
269.7514	0.1791
269.9652	0.1728
270.1791	0.1668
270.393	0.1718
270.6068	0.1708
270.8207	0.1735
271.0345	0.167
271.2483	0.1676
271.4622	0.1719
271.676	0.1674
271.8897	0.1702
272.1035	0.1769
272.3173	0.1657
272.531	0.1705
272.7448	0.1694
272.9585	0.1628
273.1722	0.1617
273.3859	0.169
273.5996	0.1733
273.8133	0.1695
274.0269	0.1682
274.2406	0.1685
274.4542	0.1671
274.6679	0.1665
274.8815	0.1697
275.0951	0.1789
275.3087	0.17
275.5223	0.1673
275.7358	0.1725
275.9494	0.169
276.1629	0.1728
276.3765	0.1714
276.59	0.164
276.8035	0.1696
277.017	0.1759
277.2305	0.1724
277.444	0.1709
277.6574	0.174
277.8709	0.1753
278.0843	0.176
278.2978	0.1782
278.5112	0.1766
278.7246	0.1703
278.938	0.1761
279.1513	0.1804
279.3647	0.1778
279.5781	0.1759
279.7914	0.1686
280.0047	0.1789
280.2181	0.1741
280.4314	0.179
280.6447	0.1787
280.8579	0.1784
281.0712	0.1777
281.2845	0.171
281.4977	0.1832
281.711	0.1737
281.9242	0.1801
282.1374	0.1814
282.3506	0.1818
282.5638	0.1773
282.7769	0.1756
282.9901	0.1771
283.2033	0.1813
283.4164	0.1785
283.6295	0.1774
283.8426	0.1773
284.0557	0.1829
284.2688	0.1854
284.4819	0.1772
284.695	0.184
284.908	0.1845
285.1211	0.1872
285.3341	0.1833
285.5471	0.1906
285.7601	0.1867
285.9731	0.1875
286.1861	0.1892
286.3991	0.1913
286.612	0.1848
286.825	0.1898
287.0379	0.1848
287.2508	0.1905
287.4637	0.191
287.6766	0.1853
287.8895	0.1875
288.1024	0.1866
288.3152	0.1914
288.5281	0.1887
288.7409	0.193
288.9538	0.1918
289.1666	0.1891
289.3794	0.1911
289.5922	0.1893
289.8049	0.188
290.0177	0.1939
290.2304	0.1919
290.4432	0.1995
290.6559	0.1942
290.8686	0.1895
291.0813	0.1913
291.294	0.1907
291.5067	0.1901
291.7194	0.1966
291.932	0.1894
292.1447	0.1919
292.3573	0.1917
292.5699	0.1951
292.7825	0.1899
292.9951	0.1957
293.2077	0.1907
293.4203	0.1915
293.6328	0.1948
293.8454	0.2008
294.0579	0.1952
294.2704	0.1982
294.4829	0.1877
294.6954	0.1985
294.9079	0.1921
295.1204	0.1858
295.3328	0.1976
295.5453	0.1934
295.7577	0.1939
295.9701	0.1944
296.1825	0.1947
296.3949	0.1893
296.6073	0.1906
296.8197	0.1966
297.0321	0.1952
297.2444	0.1922
297.4567	0.1956
297.6691	0.1955
297.8814	0.1895
298.0937	0.1914
298.306	0.1899
298.5182	0.196
298.7305	0.1976
298.9428	0.1961
299.155	0.1937
299.3672	0.196
299.5794	0.1922
299.7916	0.1957
300.0038	0.1972
300.216	0.1852
300.4282	0.1966
300.6403	0.2007
300.8525	0.1933
301.0646	0.1969
301.2767	0.1922
301.4888	0.1936
301.7009	0.1912
301.913	0.1922
302.125	0.1909
302.3371	0.1954
302.5491	0.1992
302.7612	0.1986
302.9732	0.2007
303.1852	0.1912
303.3972	0.1965
303.6092	0.1961
303.8211	0.193
304.0331	0.1879
304.245	0.1941
304.457	0.1894
304.6689	0.1883
304.8808	0.1829
305.0927	0.1895
305.3046	0.1875
305.5164	0.1844
305.7283	0.1852
305.9401	0.1718
306.152	0.1763
306.3638	0.1832
306.5756	0.1816
306.7874	0.1755
306.9992	0.1764
307.2109	0.1737
307.4227	0.1736
307.6344	0.1759
307.8462	0.1685
308.0579	0.1674
308.2696	0.1693
308.4813	0.1692
308.693	0.1654
308.9046	0.1671
309.1163	0.1571
309.328	0.1615
309.5396	0.1551
309.7512	0.1572
309.9628	0.1531
310.1744	0.153
310.386	0.1492
310.5976	0.1482
310.8091	0.1446
311.0207	0.1471
311.2322	0.1412
311.4437	0.141
311.6552	0.1459
311.8667	0.1473
312.0782	0.1412
312.2897	0.1388
312.5012	0.1433
312.7126	0.1357
312.924	0.1385
313.1355	0.1327
313.3469	0.1321
313.5583	0.1275
313.7696	0.1293
313.981	0.136
314.1924	0.1313
314.4037	0.1296
314.6151	0.127
314.8264	0.1364
315.0377	0.129
315.249	0.1277
315.4603	0.1224
315.6716	0.1262
315.8828	0.1308
316.0941	0.1265
316.3053	0.1201
316.5165	0.1322
316.7277	0.1196
316.9389	0.1258
317.1501	0.1239
317.3613	0.1215
317.5724	0.1206
317.7836	0.1138
317.9947	0.1226
318.2058	0.1196
318.417	0.1232
318.6281	0.1171
318.8391	0.125
319.0502	0.1226
319.2613	0.1207
319.4723	0.1172
319.6834	0.1255
319.8944	0.1228
320.1054	0.1226
320.3164	0.1178
320.5274	0.1185
320.7383	0.1207
320.9493	0.1244
321.1602	0.117
321.3712	0.1217
321.5821	0.1171
321.793	0.1271
322.0039	0.125
322.2148	0.121
322.4257	0.118
322.6365	0.119
322.8474	0.1237
323.0582	0.1234
323.269	0.1199
323.4798	0.1209
323.6906	0.1158
323.9014	0.1166
324.1122	0.122
324.3229	0.1203
324.5337	0.1233
324.7444	0.1259
324.9551	0.1287
325.1658	0.1237
325.3765	0.127
325.5872	0.1231
325.7979	0.1204
326.0085	0.12
326.2192	0.1175
326.4298	0.1253
326.6404	0.1247
326.851	0.1221
327.0616	0.1256
327.2722	0.1285
327.4828	0.1276
327.6933	0.1327
327.9039	0.125
328.1144	0.1316
328.3249	0.1282
328.5354	0.1319
328.7459	0.1272
328.9564	0.1248
329.1669	0.1284
329.3773	0.1283
329.5878	0.1301
329.7982	0.1297
330.0086	0.1325
330.219	0.1246
330.4294	0.1292
330.6398	0.1311
330.8502	0.1327
331.0605	0.127
331.2708	0.1256
331.4812	0.1284
331.6915	0.1321
331.9018	0.1271
332.1121	0.1354
332.3224	0.1287
332.5326	0.1257
332.7429	0.1312
332.9531	0.1361
333.1633	0.1247
333.3735	0.131
333.5837	0.1316
333.7939	0.1336
334.0041	0.1287
334.2143	0.1289
334.4244	0.1396
334.6346	0.1339
334.8447	0.1331
335.0548	0.1329
335.2649	0.1366
335.475	0.134
335.685	0.1332
335.8951	0.1314
336.1051	0.1371
336.3152	0.144
336.5252	0.1374
336.7352	0.1358
336.9452	0.1327
337.1552	0.1327
337.3652	0.1302
337.5751	0.1387
337.7851	0.1387
337.995	0.1366
338.2049	0.1365
338.4148	0.1375
338.6247	0.1405
338.8346	0.144
339.0445	0.1388
339.2543	0.1388
339.4642	0.1388
339.674	0.1361
339.8838	0.1404
340.0936	0.1399
340.3034	0.1336
340.5132	0.1399
340.7229	0.1389
340.9327	0.147
341.1424	0.141
341.3522	0.1371
341.5619	0.1458
341.7716	0.1428
341.9813	0.1493
342.1909	0.1452
342.4006	0.1506
342.6102	0.147
342.8199	0.1479
343.0295	0.1408
343.2391	0.1449
343.4487	0.1485
343.6583	0.1558
343.8679	0.1433
344.0774	0.1398
344.287	0.1499
344.4965	0.1557
344.706	0.1539
344.9155	0.1458
345.125	0.1534
345.3345	0.162
345.544	0.1502
345.7534	0.1538
345.9629	0.1574
346.1723	0.1546
346.3817	0.1604
346.5911	0.1668
346.8005	0.1622
347.0099	0.163
347.2193	0.1592
347.4286	0.1702
347.638	0.167
347.8473	0.1671
348.0566	0.1631
348.2659	0.1616
348.4752	0.1678
348.6845	0.164
348.8937	0.1608
349.103	0.1639
349.3122	0.1647
349.5214	0.1701
349.7306	0.1752
349.9398	0.1691
350.149	0.1626
350.3582	0.1693
350.5674	0.1721
350.7765	0.1771
350.9856	0.1703
351.1948	0.1702
351.4039	0.1772
351.613	0.1717
351.822	0.1809
352.0311	0.1733
352.2402	0.1772
352.4492	0.1763
352.6582	0.1813
352.8672	0.1791
353.0762	0.1796
353.2852	0.178
353.4942	0.1829
353.7032	0.1775
353.9121	0.1764
354.1211	0.1781
354.33	0.1821
354.5389	0.187
354.7478	0.1787
354.9567	0.1851
355.1655	0.1836
355.3744	0.1794
355.5833	0.1872
355.7921	0.1902
356.0009	0.1896
356.2097	0.1885
356.4185	0.1856
356.6273	0.1892
356.8361	0.1931
357.0448	0.1826
357.2536	0.1913
357.4623	0.1841
357.671	0.1921
357.8797	0.1909
358.0884	0.1912
358.2971	0.1985
358.5057	0.1973
358.7144	0.1953
358.923	0.2006
359.1316	0.2046
359.3402	0.1963
359.5488	0.202
359.7574	0.2056
359.966	0.2123
360.1746	0.1998
360.3831	0.2009
360.5916	0.2105
360.8002	0.2054
361.0087	0.2068
361.2172	0.2063
361.4256	0.2042
361.6341	0.2151
361.8426	0.2105
362.051	0.2108
362.2594	0.2037
362.4678	0.2103
362.6762	0.2156
362.8846	0.2166
363.093	0.2139
363.3014	0.217
363.5097	0.22
363.718	0.2279
363.9264	0.2271
364.1347	0.2236
364.343	0.229
364.5513	0.232
364.7595	0.2376
364.9678	0.2242
365.176	0.2231
365.3842	0.2378
365.5925	0.2326
365.8007	0.2313
366.0089	0.2383
366.217	0.233
366.4252	0.2298
366.6333	0.2381
366.8415	0.239
367.0496	0.23
367.2577	0.2367
367.4658	0.2322
367.6739	0.2357
367.882	0.2403
368.09	0.2332
368.2981	0.2518
368.5061	0.2453
368.7141	0.24
368.9221	0.2575
369.1301	0.2458
369.3381	0.2533
369.5461	0.2482
369.754	0.2503
369.962	0.2496
370.1699	0.2549
370.3778	0.2567
370.5857	0.252
370.7936	0.2569
371.0015	0.2516
371.2093	0.252
371.4172	0.2608
371.625	0.2608
371.8328	0.2526
372.0406	0.2652
372.2484	0.2515
372.4562	0.2613
372.664	0.2603
372.8717	0.2638
373.0795	0.2739
373.2872	0.2618
373.4949	0.2657
373.7026	0.2622
373.9103	0.2642
374.118	0.2665
374.3256	0.2757
374.5333	0.2707
374.7409	0.2761
374.9485	0.2734
375.1561	0.2759
375.3637	0.2682
375.5713	0.2672
375.7789	0.2668
375.9864	0.2749
376.194	0.2713
376.4015	0.2745
376.609	0.2764
376.8165	0.2839
377.024	0.2813
377.2315	0.2818
377.4389	0.2764
377.6464	0.281
377.8538	0.2888
378.0612	0.2928
378.2686	0.2807
378.476	0.29
378.6834	0.2869
378.8908	0.2817
379.0981	0.2937
379.3055	0.2966
379.5128	0.2857
379.7201	0.2954
379.9274	0.2897
380.1347	0.2947
380.342	0.3033
380.5492	0.3024
380.7565	0.2835
380.9637	0.2987
381.1709	0.2962
381.3781	0.2958
381.5853	0.2987
381.7925	0.2974
381.9997	0.297
382.2068	0.303
382.4139	0.301
382.6211	0.3071
382.8282	0.3049
383.0353	0.3099
383.2424	0.2956
383.4494	0.2995
383.6565	0.3074
383.8635	0.3067
384.0706	0.3094
384.2776	0.3069
384.4846	0.3102
384.6916	0.3086
384.8986	0.3005
385.1055	0.3165
385.3125	0.309
385.5194	0.3094
385.7263	0.3023
385.9333	0.3142
386.1402	0.313
386.347	0.2973
386.5539	0.3096
386.7608	0.3103
386.9676	0.3006
387.1744	0.308
387.3813	0.312
387.5881	0.2985
387.7948	0.3111
388.0016	0.3118
388.2084	0.2976
388.4151	0.3021
388.6219	0.3036
388.8286	0.3132
389.0353	0.3123
389.242	0.3037
389.4487	0.3073
389.6553	0.2916
389.862	0.2995
390.0686	0.3094
390.2753	0.3017
390.4819	0.3004
390.6885	0.3005
390.8951	0.2934
391.1016	0.3016
391.3082	0.3014
391.5147	0.2932
391.7213	0.3006
391.9278	0.2886
392.1343	0.2894
392.3408	0.2891
392.5473	0.2837
392.7537	0.287
392.9602	0.2777
393.1666	0.2818
393.373	0.2872
393.5794	0.2898
393.7858	0.2918
393.9922	0.2849
394.1986	0.2756
394.4049	0.279
394.6113	0.2781
394.8176	0.282
395.0239	0.2798
395.2302	0.2702
395.4365	0.2736
395.6428	0.2769
395.8491	0.2712
396.0553	0.2682
396.2615	0.2747
396.4678	0.2863
396.674	0.2556
396.8802	0.2652
397.0863	0.2665
397.2925	0.2613
397.4987	0.2648
397.7048	0.2766
397.9109	0.2635
398.117	0.259
398.3231	0.2664
398.5292	0.2511
398.7353	0.2617
398.9413	0.2579
399.1474	0.2722
399.3534	0.2653
399.5594	0.2702
399.7654	0.2634
399.9714	0.2562
400.1774	0.2581
400.3833	0.2617
400.5893	0.2533
400.7952	0.2725
401.0011	0.2556
401.207	0.255
401.4129	0.2707
401.6188	0.2609
401.8247	0.2642
402.0305	0.2639
402.2364	0.2698
402.4422	0.2575
402.648	0.2565
402.8538	0.2628
403.0596	0.2496
403.2654	0.2658
403.4711	0.2505
403.6768	0.2641
403.8826	0.2699
404.0883	0.2561
404.294	0.2673
404.4997	0.267
404.7054	0.2642
404.911	0.2564
405.1167	0.2603
405.3223	0.2559
405.5279	0.2612
405.7335	0.2626
405.9391	0.2568
406.1447	0.2685
406.3502	0.2593
406.5558	0.2658
406.7613	0.2583
406.9668	0.2561
407.1724	0.2562
407.3778	0.2616
407.5833	0.2506
407.7888	0.2605
407.9942	0.2621
408.1997	0.2609
408.4051	0.256
408.6105	0.2619
408.8159	0.2613
409.0213	0.2721
409.2267	0.2644
409.432	0.2604
409.6374	0.2642
409.8427	0.2697
410.048	0.2624
410.2533	0.2657
410.4586	0.2516
410.6639	0.2657
410.8691	0.2514
411.0744	0.2571
411.2796	0.2589
411.4848	0.265
411.69	0.2397
411.8952	0.2668
412.1004	0.2572
412.3056	0.2606
412.5107	0.2674
412.7158	0.2756
412.921	0.2579
413.1261	0.2629
413.3312	0.2532
413.5362	0.2734
413.7413	0.2636
413.9464	0.2533
414.1514	0.2613
414.3564	0.262
414.5614	0.26
414.7664	0.2496
414.9714	0.2535
415.1764	0.2621
415.3813	0.2597
415.5863	0.2593
415.7912	0.2531
415.9961	0.2538
416.201	0.2619
416.4059	0.2525
416.6108	0.2428
416.8156	0.255
417.0205	0.2499
417.2253	0.2498
417.4301	0.2501
417.6349	0.2453
417.8397	0.2441
418.0445	0.2466
418.2492	0.2478
418.454	0.2562
418.6587	0.2533
418.8634	0.2509
419.0681	0.2579
419.2728	0.2429
419.4775	0.2614
419.6822	0.2521
419.8868	0.232
420.0915	0.244
420.2961	0.2371
420.5007	0.2403
420.7053	0.2461
420.9099	0.2397
421.1144	0.2379
421.319	0.2465
421.5235	0.2277
421.728	0.247
421.9325	0.2379
422.137	0.2347
422.3415	0.2388
422.546	0.2331
422.7504	0.2289
422.9549	0.2382
423.1593	0.2298
423.3637	0.2317
423.5681	0.2328
423.7725	0.2224
423.9769	0.2385
424.1812	0.2279
424.3856	0.2351
424.5899	0.2189
424.7942	0.2196
424.9985	0.224
425.2028	0.232
425.4071	0.2259
425.6113	0.222
425.8156	0.2187
426.0198	0.2161
426.224	0.2226
426.4282	0.213
426.6324	0.2208
426.8366	0.2116
