Data from D4ACN5uM440nmA_Absorbance_13-50-24-682.txt Node
Date: Fri Feb 21 13:50:24 GMT 2025
User: LASERRRRR
Spectrometer: FLMT03099
Trigger mode: 0
Integration Time (sec): 1.500000E-2
Scans to average: 1
Electric dark correction enabled: true
Nonlinearity correction enabled: false
Boxcar width: 0
XAxis mode: Wavelengths
Number of Pixels in Spectrum: 3648
>>>>>Begin Spectral Data<<<<<
179.3399	-0.6009
179.5586	-0.6009
179.7771	-0.6009
179.9957	-0.1403
180.2143	-1.3879
180.4329	0.0272
180.6514	-0
180.8699	0.3026
181.0885	0.8405
181.307	0.7643
181.5255	0.0992
181.744	-0
181.9625	0.4266
182.181	1.7019
182.3994	-0.2598
182.6179	-0.3217
182.8363	0.8222
183.0547	-0.0869
183.2732	-0.061
183.4916	0.097
183.71	0.2626
183.9284	0.1114
184.1467	0.204
184.3651	0.0372
184.5835	0.1766
184.8018	0.0285
185.0201	0.3513
185.2385	0.2442
185.4568	0.1515
185.6751	0.0402
185.8934	0.2048
186.1117	0.1131
186.3299	0.2174
186.5482	0.0062
186.7664	0.1686
186.9847	-0.0342
187.2029	-0.0468
187.4211	-0.0567
187.6393	0.1173
187.8575	0.1064
188.0757	0.0513
188.2939	0.0131
188.512	0.0919
188.7302	0.1056
188.9483	-0.0446
189.1665	0.5069
189.3846	0.2066
189.6027	0.0493
189.8208	0.2046
190.0389	0.2796
190.257	0.2332
190.475	0.1808
190.6931	0.1293
190.9111	0.1055
191.1292	0.0794
191.3472	0.1287
191.5652	0.2247
191.7832	0.128
192.0012	0.374
192.2192	0.2032
192.4371	0.1191
192.6551	0.1713
192.873	0.0822
193.091	0.1693
193.3089	0.2082
193.5268	0.406
193.7447	0.1621
193.9626	0.1209
194.1805	0.2255
194.3984	0.2866
194.6162	0.2306
194.8341	0.2855
195.0519	0.1963
195.2697	0.2482
195.4875	0.2713
195.7054	0.2214
195.9231	0.2956
196.1409	0.3452
196.3587	0.2422
196.5765	0.3161
196.7942	0.297
197.012	0.3255
197.2297	0.2842
197.4474	0.3963
197.6651	0.2611
197.8828	0.3179
198.1005	0.5196
198.3182	0.3979
198.5358	0.3185
198.7535	0.3439
198.9711	0.387
199.1888	0.3494
199.4064	0.3372
199.624	0.3998
199.8416	0.3804
200.0592	0.3839
200.2767	0.3775
200.4943	0.4015
200.7119	0.3943
200.9294	0.4002
201.1469	0.4018
201.3645	0.4576
201.582	0.3732
201.7995	0.3487
202.017	0.3914
202.2344	0.3798
202.4519	0.3617
202.6694	0.3696
202.8868	0.3438
203.1042	0.3604
203.3217	0.3502
203.5391	0.4012
203.7565	0.368
203.9739	0.3744
204.1913	0.3232
204.4086	0.3357
204.626	0.3219
204.8433	0.3642
205.0607	0.3525
205.278	0.3206
205.4953	0.3109
205.7126	0.3521
205.9299	0.308
206.1472	0.3552
206.3644	0.3286
206.5817	0.3143
206.7989	0.3226
207.0162	0.3248
207.2334	0.317
207.4506	0.286
207.6678	0.3328
207.885	0.3006
208.1022	0.3047
208.3194	0.2779
208.5365	0.2975
208.7537	0.2686
208.9708	0.273
209.1879	0.2788
209.405	0.2703
209.6222	0.2629
209.8392	0.2908
210.0563	0.289
210.2734	0.2536
210.4905	0.2549
210.7075	0.2516
210.9245	0.2581
211.1416	0.2681
211.3586	0.2497
211.5756	0.2468
211.7926	0.2617
212.0096	0.2556
212.2265	0.2691
212.4435	0.2401
212.6604	0.2451
212.8774	0.2694
213.0943	0.2485
213.3112	0.2464
213.5281	0.235
213.745	0.2318
213.9619	0.2384
214.1788	0.2487
214.3956	0.2432
214.6125	0.2524
214.8293	0.2451
215.0461	0.2308
215.2629	0.254
215.4798	0.25
215.6965	0.2573
215.9133	0.2317
216.1301	0.2255
216.3469	0.2406
216.5636	0.245
216.7803	0.2358
216.9971	0.2629
217.2138	0.2467
217.4305	0.2518
217.6472	0.2403
217.8639	0.2468
218.0805	0.246
218.2972	0.2337
218.5138	0.2595
218.7305	0.2627
218.9471	0.2619
219.1637	0.2667
219.3803	0.2612
219.5969	0.2517
219.8135	0.2519
220.0301	0.2497
220.2466	0.2563
220.4632	0.2469
220.6797	0.2666
220.8962	0.2556
221.1127	0.2729
221.3292	0.2622
221.5457	0.271
221.7622	0.2675
221.9787	0.271
222.1951	0.2659
222.4116	0.2772
222.628	0.2878
222.8444	0.2835
223.0608	0.2692
223.2772	0.276
223.4936	0.2713
223.71	0.2824
223.9264	0.2745
224.1427	0.2854
224.3591	0.2758
224.5754	0.2863
224.7917	0.295
225.008	0.2864
225.2243	0.2945
225.4406	0.2966
225.6569	0.2979
225.8732	0.3037
226.0894	0.3138
226.3057	0.3077
226.5219	0.3118
226.7381	0.328
226.9543	0.3026
227.1705	0.3088
227.3867	0.3092
227.6029	0.3301
227.8191	0.3294
228.0352	0.3372
228.2513	0.3482
228.4675	0.3392
228.6836	0.3474
228.8997	0.3421
229.1158	0.3572
229.3319	0.3606
229.548	0.3499
229.764	0.3419
229.9801	0.3731
230.1961	0.3671
230.4121	0.3634
230.6282	0.3756
230.8442	0.373
231.0602	0.3764
231.2761	0.3893
231.4921	0.3921
231.7081	0.3931
231.924	0.3954
232.14	0.4081
232.3559	0.3985
232.5718	0.398
232.7877	0.4002
233.0036	0.393
233.2195	0.4138
233.4353	0.4155
233.6512	0.4227
233.867	0.4144
234.0829	0.42
234.2987	0.4298
234.5145	0.4245
234.7303	0.4344
234.9461	0.4346
235.1619	0.428
235.3776	0.4395
235.5934	0.4368
235.8091	0.4386
236.0249	0.4542
236.2406	0.4347
236.4563	0.4497
236.672	0.4361
236.8877	0.4453
237.1034	0.4408
237.319	0.4468
237.5347	0.4534
237.7503	0.4443
237.966	0.4617
238.1816	0.4514
238.3972	0.4653
238.6128	0.4687
238.8284	0.4515
239.0439	0.4554
239.2595	0.458
239.475	0.4612
239.6906	0.4515
239.9061	0.4564
240.1216	0.4593
240.3371	0.4609
240.5526	0.4578
240.7681	0.4556
240.9836	0.4574
241.199	0.4539
241.4145	0.4421
241.6299	0.4475
241.8453	0.436
242.0607	0.4272
242.2761	0.4258
242.4915	0.4249
242.7069	0.4148
242.9223	0.4088
243.1376	0.4084
243.353	0.3953
243.5683	0.3899
243.7836	0.3882
243.9989	0.3673
244.2142	0.3691
244.4295	0.3713
244.6448	0.3568
244.86	0.3544
245.0753	0.3393
245.2905	0.3335
245.5057	0.3297
245.721	0.3291
245.9362	0.3298
246.1514	0.3195
246.3665	0.3093
246.5817	0.299
246.7969	0.2982
247.012	0.2836
247.2271	0.2922
247.4423	0.2864
247.6574	0.2733
247.8725	0.2662
248.0876	0.2668
248.3026	0.2622
248.5177	0.2529
248.7328	0.2475
248.9478	0.2436
249.1628	0.2427
249.3779	0.2404
249.5929	0.2308
249.8079	0.2339
250.0228	0.2301
250.2378	0.2267
250.4528	0.2295
250.6677	0.218
250.8827	0.2137
251.0976	0.2092
251.3125	0.2127
251.5274	0.2117
251.7423	0.2076
251.9572	0.2042
252.172	0.2044
252.3869	0.2065
252.6017	0.201
252.8166	0.2005
253.0314	0.1973
253.2462	0.1933
253.461	0.1992
253.6758	0.1903
253.8906	0.1948
254.1053	0.1904
254.3201	0.1923
254.5348	0.1817
254.7496	0.1875
254.9643	0.1915
255.179	0.1861
255.3937	0.1922
255.6083	0.1898
255.823	0.1883
256.0377	0.1771
256.2523	0.1829
256.467	0.1841
256.6816	0.1767
256.8962	0.179
257.1108	0.1807
257.3254	0.1805
257.54	0.1763
257.7545	0.1845
257.9691	0.1824
258.1836	0.1752
258.3981	0.1763
258.6127	0.177
258.8272	0.1808
259.0417	0.171
259.2561	0.1752
259.4706	0.1731
259.6851	0.1726
259.8995	0.1773
260.114	0.1758
260.3284	0.1721
260.5428	0.175
260.7572	0.1717
260.9716	0.179
261.186	0.1695
261.4003	0.1717
261.6147	0.1717
261.829	0.1767
262.0433	0.183
262.2577	0.1717
262.472	0.174
262.6863	0.1807
262.9005	0.1726
263.1148	0.173
263.3291	0.1737
263.5433	0.1771
263.7576	0.1725
263.9718	0.1714
264.186	0.1778
264.4002	0.1746
264.6144	0.1835
264.8286	0.1773
265.0427	0.1806
265.2569	0.1795
265.471	0.1807
265.6851	0.1797
265.8993	0.1767
266.1134	0.1762
266.3275	0.1775
266.5415	0.1849
266.7556	0.181
266.9697	0.1819
267.1837	0.1818
267.3978	0.1775
267.6118	0.1763
267.8258	0.1796
268.0398	0.1799
268.2538	0.1777
268.4677	0.18
268.6817	0.1753
268.8957	0.1708
269.1096	0.1697
269.3235	0.1796
269.5374	0.1825
269.7514	0.1737
269.9652	0.1713
270.1791	0.1685
270.393	0.1646
270.6068	0.1711
270.8207	0.1641
271.0345	0.1692
271.2483	0.1648
271.4622	0.1644
271.676	0.1671
271.8897	0.1664
272.1035	0.1734
272.3173	0.1651
272.531	0.1652
272.7448	0.1665
272.9585	0.1654
273.1722	0.1611
273.3859	0.1691
273.5996	0.1754
273.8133	0.1686
274.0269	0.1626
274.2406	0.1711
274.4542	0.1689
274.6679	0.1704
274.8815	0.1674
275.0951	0.1699
275.3087	0.178
275.5223	0.1679
275.7358	0.172
275.9494	0.1738
276.1629	0.1778
276.3765	0.1705
276.59	0.1649
276.8035	0.1701
277.017	0.1764
277.2305	0.1726
277.444	0.1781
277.6574	0.1728
277.8709	0.1792
278.0843	0.1716
278.2978	0.1764
278.5112	0.1731
278.7246	0.172
278.938	0.1767
279.1513	0.1756
279.3647	0.1729
279.5781	0.1723
279.7914	0.175
280.0047	0.1768
280.2181	0.1726
280.4314	0.1816
280.6447	0.1874
280.8579	0.1712
281.0712	0.176
281.2845	0.1827
281.4977	0.1758
281.711	0.1766
281.9242	0.1733
282.1374	0.1819
282.3506	0.1813
282.5638	0.1786
282.7769	0.1745
282.9901	0.1791
283.2033	0.1777
283.4164	0.1767
283.6295	0.1774
283.8426	0.1767
284.0557	0.1808
284.2688	0.1809
284.4819	0.1797
284.695	0.1825
284.908	0.1829
285.1211	0.1844
285.3341	0.1796
285.5471	0.1867
285.7601	0.1853
285.9731	0.1848
286.1861	0.1835
286.3991	0.1926
286.612	0.1858
286.825	0.188
287.0379	0.1815
287.2508	0.1863
287.4637	0.1926
287.6766	0.1877
287.8895	0.1845
288.1024	0.189
288.3152	0.1956
288.5281	0.1855
288.7409	0.1896
288.9538	0.1931
289.1666	0.1851
289.3794	0.1909
289.5922	0.1877
289.8049	0.1926
290.0177	0.1921
290.2304	0.1902
290.4432	0.1933
290.6559	0.1945
290.8686	0.1908
291.0813	0.1893
291.294	0.1931
291.5067	0.1896
291.7194	0.1911
291.932	0.1897
292.1447	0.192
292.3573	0.1919
292.5699	0.1963
292.7825	0.1916
292.9951	0.1925
293.2077	0.1907
293.4203	0.1918
293.6328	0.1853
293.8454	0.1941
294.0579	0.1939
294.2704	0.1969
294.4829	0.1876
294.6954	0.1909
294.9079	0.191
295.1204	0.1881
295.3328	0.1998
295.5453	0.1931
295.7577	0.1911
295.9701	0.1939
296.1825	0.1968
296.3949	0.1922
296.6073	0.1869
296.8197	0.1959
297.0321	0.1909
297.2444	0.1882
297.4567	0.2007
297.6691	0.1909
297.8814	0.198
298.0937	0.1912
298.306	0.1892
298.5182	0.1988
298.7305	0.1987
298.9428	0.1928
299.155	0.1899
299.3672	0.1864
299.5794	0.1917
299.7916	0.1949
300.0038	0.1935
300.216	0.1919
300.4282	0.1912
300.6403	0.191
300.8525	0.1906
301.0646	0.1949
301.2767	0.19
301.4888	0.1927
301.7009	0.1952
301.913	0.1938
302.125	0.1944
302.3371	0.1882
302.5491	0.1977
302.7612	0.2026
302.9732	0.1922
303.1852	0.1936
303.3972	0.1906
303.6092	0.1926
303.8211	0.1928
304.0331	0.1856
304.245	0.1931
304.457	0.1875
304.6689	0.1951
304.8808	0.1865
305.0927	0.1917
305.3046	0.1835
305.5164	0.1827
305.7283	0.1786
305.9401	0.1721
306.152	0.1816
306.3638	0.1808
306.5756	0.178
306.7874	0.173
306.9992	0.1765
307.2109	0.1704
307.4227	0.1665
307.6344	0.1741
307.8462	0.1645
308.0579	0.1755
308.2696	0.168
308.4813	0.1683
308.693	0.1636
308.9046	0.1662
309.1163	0.159
309.328	0.1573
309.5396	0.1599
309.7512	0.1545
309.9628	0.1562
310.1744	0.1483
310.386	0.1486
310.5976	0.1449
310.8091	0.1504
311.0207	0.1439
311.2322	0.1369
311.4437	0.1448
311.6552	0.1421
311.8667	0.1437
312.0782	0.1395
312.2897	0.1447
312.5012	0.1377
312.7126	0.137
312.924	0.1394
313.1355	0.1303
313.3469	0.1356
313.5583	0.1306
313.7696	0.1264
313.981	0.1359
314.1924	0.1304
314.4037	0.1239
314.6151	0.1314
314.8264	0.1303
315.0377	0.1284
315.249	0.1256
315.4603	0.1223
315.6716	0.1279
315.8828	0.1232
316.0941	0.1257
316.3053	0.1189
316.5165	0.1249
316.7277	0.1196
316.9389	0.1269
317.1501	0.1237
317.3613	0.1176
317.5724	0.1216
317.7836	0.1132
317.9947	0.1219
318.2058	0.1162
318.417	0.1229
318.6281	0.1183
318.8391	0.1223
319.0502	0.1221
319.2613	0.1159
319.4723	0.1117
319.6834	0.1239
319.8944	0.1166
320.1054	0.1217
320.3164	0.1195
320.5274	0.1153
320.7383	0.1232
320.9493	0.1187
321.1602	0.1198
321.3712	0.1189
321.5821	0.1195
321.793	0.1242
322.0039	0.1225
322.2148	0.12
322.4257	0.1168
322.6365	0.1189
322.8474	0.1218
323.0582	0.1207
323.269	0.1208
323.4798	0.1269
323.6906	0.1205
323.9014	0.1208
324.1122	0.1157
324.3229	0.1238
324.5337	0.1213
324.7444	0.1299
324.9551	0.1221
325.1658	0.1217
325.3765	0.1272
325.5872	0.1276
325.7979	0.123
326.0085	0.1244
326.2192	0.1183
326.4298	0.1238
326.6404	0.1298
326.851	0.1222
327.0616	0.1196
327.2722	0.1239
327.4828	0.1271
327.6933	0.1286
327.9039	0.1221
328.1144	0.1225
328.3249	0.1265
328.5354	0.1239
328.7459	0.1269
328.9564	0.132
329.1669	0.1342
329.3773	0.1326
329.5878	0.129
329.7982	0.1281
330.0086	0.1315
330.219	0.1264
330.4294	0.1316
330.6398	0.1342
330.8502	0.1307
331.0605	0.1285
331.2708	0.1239
331.4812	0.1304
331.6915	0.1299
331.9018	0.132
332.1121	0.1312
332.3224	0.1327
332.5326	0.1233
332.7429	0.1295
332.9531	0.1341
333.1633	0.1264
333.3735	0.1281
333.5837	0.1289
333.7939	0.1313
334.0041	0.1365
334.2143	0.1276
334.4244	0.1386
334.6346	0.1311
334.8447	0.1276
335.0548	0.1356
335.2649	0.1335
335.475	0.1327
335.685	0.1392
335.8951	0.1263
336.1051	0.1338
336.3152	0.137
336.5252	0.1345
336.7352	0.1292
336.9452	0.1361
337.1552	0.1391
337.3652	0.1303
337.5751	0.1331
337.7851	0.1351
337.995	0.142
338.2049	0.1307
338.4148	0.1334
338.6247	0.1335
338.8346	0.1355
339.0445	0.1392
339.2543	0.1413
339.4642	0.1424
339.674	0.1333
339.8838	0.1444
340.0936	0.1326
340.3034	0.1329
340.5132	0.132
340.7229	0.1356
340.9327	0.1487
341.1424	0.1387
341.3522	0.1388
341.5619	0.1419
341.7716	0.1481
341.9813	0.1467
342.1909	0.1429
342.4006	0.1463
342.6102	0.1489
342.8199	0.1424
343.0295	0.1408
343.2391	0.148
343.4487	0.1541
343.6583	0.1537
343.8679	0.1395
344.0774	0.1468
344.287	0.1499
344.4965	0.1565
344.706	0.1552
344.9155	0.1439
345.125	0.1506
345.3345	0.157
345.544	0.147
345.7534	0.1558
345.9629	0.1601
346.1723	0.1619
346.3817	0.152
346.5911	0.163
346.8005	0.1605
347.0099	0.1639
347.2193	0.1604
347.4286	0.1659
347.638	0.1629
347.8473	0.1685
348.0566	0.1569
348.2659	0.1643
348.4752	0.162
348.6845	0.1574
348.8937	0.1594
349.103	0.1572
349.3122	0.1592
349.5214	0.1634
349.7306	0.1731
349.9398	0.1608
350.149	0.164
350.3582	0.1659
350.5674	0.1728
350.7765	0.1768
350.9856	0.1733
351.1948	0.1713
351.4039	0.1797
351.613	0.1746
351.822	0.1762
352.0311	0.17
352.2402	0.1731
352.4492	0.1755
352.6582	0.1717
352.8672	0.1726
353.0762	0.1822
353.2852	0.1798
353.4942	0.1825
353.7032	0.1778
353.9121	0.1844
354.1211	0.1845
354.33	0.182
354.5389	0.1804
354.7478	0.1782
354.9567	0.1831
355.1655	0.181
355.3744	0.1823
355.5833	0.1881
355.7921	0.1838
356.0009	0.1936
356.2097	0.1868
356.4185	0.1895
356.6273	0.1922
356.8361	0.1926
357.0448	0.19
357.2536	0.1916
357.4623	0.1821
357.671	0.1903
357.8797	0.1939
358.0884	0.1856
358.2971	0.1922
358.5057	0.2
358.7144	0.1965
358.923	0.1982
359.1316	0.1922
359.3402	0.2024
359.5488	0.1962
359.7574	0.2053
359.966	0.204
360.1746	0.1999
360.3831	0.2117
360.5916	0.2029
360.8002	0.2147
361.0087	0.1994
361.2172	0.2053
361.4256	0.2056
361.6341	0.2117
361.8426	0.2127
362.051	0.2028
362.2594	0.2055
362.4678	0.2166
362.6762	0.2183
362.8846	0.2188
363.093	0.2089
363.3014	0.2214
363.5097	0.2207
363.718	0.2182
363.9264	0.223
364.1347	0.2325
364.343	0.2207
364.5513	0.2256
364.7595	0.2304
364.9678	0.2227
365.176	0.2291
365.3842	0.2309
365.5925	0.2365
365.8007	0.2332
366.0089	0.2409
366.217	0.2363
366.4252	0.2322
366.6333	0.2384
366.8415	0.2396
367.0496	0.2409
367.2577	0.2326
367.4658	0.2316
367.6739	0.2342
367.882	0.2408
368.09	0.2357
368.2981	0.2376
368.5061	0.2383
368.7141	0.242
368.9221	0.2479
369.1301	0.2446
369.3381	0.2576
369.5461	0.2463
369.754	0.2485
369.962	0.2492
370.1699	0.2541
370.3778	0.2613
370.5857	0.2467
370.7936	0.2588
371.0015	0.2512
371.2093	0.2504
371.4172	0.2573
371.625	0.2491
371.8328	0.2505
372.0406	0.2686
372.2484	0.2664
372.4562	0.2604
372.664	0.266
372.8717	0.2589
373.0795	0.2712
373.2872	0.2676
373.4949	0.2623
373.7026	0.2638
373.9103	0.2637
374.118	0.2648
374.3256	0.2746
374.5333	0.2665
374.7409	0.2668
374.9485	0.2706
375.1561	0.2727
375.3637	0.2653
375.5713	0.2719
375.7789	0.2687
375.9864	0.2689
376.194	0.2845
376.4015	0.2732
376.609	0.2705
376.8165	0.2846
377.024	0.2773
377.2315	0.2735
377.4389	0.2779
377.6464	0.2813
377.8538	0.2884
378.0612	0.2912
378.2686	0.275
378.476	0.299
378.6834	0.2805
378.8908	0.2841
379.0981	0.2918
379.3055	0.2929
379.5128	0.2895
379.7201	0.2879
379.9274	0.2983
380.1347	0.2892
380.342	0.2978
380.5492	0.2933
380.7565	0.2881
380.9637	0.2961
381.1709	0.289
381.3781	0.2969
381.5853	0.2957
381.7925	0.2954
381.9997	0.2981
382.2068	0.3065
382.4139	0.295
382.6211	0.3083
382.8282	0.3078
383.0353	0.3079
383.2424	0.2989
383.4494	0.2989
383.6565	0.3007
383.8635	0.2969
384.0706	0.3018
384.2776	0.3033
384.4846	0.3065
384.6916	0.2983
384.8986	0.3206
385.1055	0.3158
385.3125	0.3119
385.5194	0.3082
385.7263	0.3068
385.9333	0.3094
386.1402	0.3104
386.347	0.3003
386.5539	0.3129
386.7608	0.3105
386.9676	0.3083
387.1744	0.3085
387.3813	0.3069
387.5881	0.2951
387.7948	0.3066
388.0016	0.305
388.2084	0.3085
388.4151	0.3037
388.6219	0.2986
388.8286	0.3172
389.0353	0.3129
389.242	0.3038
389.4487	0.2982
389.6553	0.289
389.862	0.3045
390.0686	0.3033
390.2753	0.2946
390.4819	0.3
390.6885	0.2994
390.8951	0.3002
391.1016	0.295
391.3082	0.3048
391.5147	0.2845
391.7213	0.2949
391.9278	0.295
392.1343	0.2985
392.3408	0.2906
392.5473	0.2915
392.7537	0.286
392.9602	0.2832
393.1666	0.283
393.373	0.2744
393.5794	0.2959
393.7858	0.2859
393.9922	0.276
394.1986	0.2847
394.4049	0.2797
394.6113	0.2818
394.8176	0.2839
395.0239	0.273
395.2302	0.274
395.4365	0.2748
395.6428	0.2753
395.8491	0.2696
396.0553	0.2697
396.2615	0.2759
396.4678	0.2768
396.674	0.2648
396.8802	0.2666
397.0863	0.264
397.2925	0.2757
397.4987	0.2647
397.7048	0.2646
397.9109	0.2581
398.117	0.2689
398.3231	0.2602
398.5292	0.254
398.7353	0.2692
398.9413	0.2624
399.1474	0.2613
399.3534	0.2648
399.5594	0.2593
399.7654	0.2612
399.9714	0.2588
400.1774	0.2579
400.3833	0.259
400.5893	0.2523
400.7952	0.2668
401.0011	0.252
401.207	0.2618
401.4129	0.2594
401.6188	0.2641
401.8247	0.2729
402.0305	0.2558
402.2364	0.2556
402.4422	0.2645
402.648	0.263
402.8538	0.2571
403.0596	0.2551
403.2654	0.2547
403.4711	0.2574
403.6768	0.2542
403.8826	0.2702
404.0883	0.2682
404.294	0.2578
404.4997	0.2638
404.7054	0.2602
404.911	0.2587
405.1167	0.2588
405.3223	0.248
405.5279	0.2616
405.7335	0.2605
405.9391	0.2498
406.1447	0.2569
406.3502	0.2522
406.5558	0.258
406.7613	0.2625
406.9668	0.2567
407.1724	0.2513
407.3778	0.2692
407.5833	0.2507
407.7888	0.2682
407.9942	0.2567
408.1997	0.2574
408.4051	0.2678
408.6105	0.2603
408.8159	0.2587
409.0213	0.2594
409.2267	0.2618
409.432	0.255
409.6374	0.2622
409.8427	0.2611
410.048	0.2553
410.2533	0.2637
410.4586	0.2622
410.6639	0.2642
410.8691	0.2493
411.0744	0.253
411.2796	0.2645
411.4848	0.2655
411.69	0.25
411.8952	0.2565
412.1004	0.2668
412.3056	0.2517
412.5107	0.2513
412.7158	0.26
412.921	0.2644
413.1261	0.2591
413.3312	0.2494
413.5362	0.2639
413.7413	0.2499
413.9464	0.2549
414.1514	0.2474
414.3564	0.2558
414.5614	0.248
414.7664	0.2393
414.9714	0.255
415.1764	0.2659
415.3813	0.2394
415.5863	0.2584
415.7912	0.2607
415.9961	0.2474
416.201	0.2477
416.4059	0.2525
416.6108	0.2538
416.8156	0.2475
417.0205	0.2579
417.2253	0.2429
417.4301	0.2538
417.6349	0.2446
417.8397	0.246
418.0445	0.2506
418.2492	0.2414
418.454	0.2395
418.6587	0.2491
418.8634	0.2447
419.0681	0.2481
419.2728	0.2498
419.4775	0.2518
419.6822	0.2442
419.8868	0.2338
420.0915	0.2428
420.2961	0.2361
420.5007	0.2438
420.7053	0.2413
420.9099	0.2419
421.1144	0.2416
421.319	0.2342
421.5235	0.2336
421.728	0.2391
421.9325	0.2427
422.137	0.2338
422.3415	0.234
422.546	0.2302
422.7504	0.2379
422.9549	0.2403
423.1593	0.2237
423.3637	0.2256
423.5681	0.2352
423.7725	0.2254
423.9769	0.2334
424.1812	0.2184
424.3856	0.2208
424.5899	0.2288
424.7942	0.2212
424.9985	0.2205
425.2028	0.2228
425.4071	0.2332
425.6113	0.2195
425.8156	0.2205
426.0198	0.2248
426.224	0.2219
426.4282	0.213
426.6324	0.2151
