Data from D4ACN5uM440nmA_Absorbance_13-50-25-927.txt Node
Date: Fri Feb 21 13:50:25 GMT 2025
User: LASERRRRR
Spectrometer: FLMT03099
Trigger mode: 0
Integration Time (sec): 1.500000E-2
Scans to average: 1
Electric dark correction enabled: true
Nonlinearity correction enabled: false
Boxcar width: 0
XAxis mode: Wavelengths
Number of Pixels in Spectrum: 3648
>>>>>Begin Spectral Data<<<<<
179.3399	0.8799
179.5586	0.8799
179.7771	0.8799
179.9957	0.0383
180.2143	-0
180.4329	0.0763
180.6514	-0.8431
180.8699	-0
181.0885	-0
181.307	-0
181.5255	0.3818
181.744	-0.261
181.9625	1.4426
182.181	0.4008
182.3994	-0.5436
182.6179	-0.4885
182.8363	-0
183.0547	0.3288
183.2732	0.1352
183.4916	0.2163
183.71	0.1692
183.9284	0.0064
184.1467	0.1003
184.3651	0.168
184.5835	0.2133
184.8018	0.0852
185.0201	0.0943
185.2385	0.2456
185.4568	0.0085
185.6751	0.052
185.8934	0.3331
186.1117	-0.0081
186.3299	0.3923
186.5482	0.2406
186.7664	0.1892
186.9847	0.1583
187.2029	0.1026
187.4211	0.1139
187.6393	0.1577
187.8575	0.6195
188.0757	0.2783
188.2939	-0.0313
188.512	0.2129
188.7302	0.0532
188.9483	0.2614
189.1665	0.9679
189.3846	0.3329
189.6027	0.0381
189.8208	0.1623
190.0389	0.1694
190.257	0.1279
190.475	-0.0557
190.6931	0.4362
190.9111	0.0562
191.1292	0.066
191.3472	0.0383
191.5652	0.3722
191.7832	0.22
192.0012	0.1887
192.2192	0.2783
192.4371	0.2514
192.6551	0.2041
192.873	0.0979
193.091	0.2896
193.3089	0.198
193.5268	0.2862
193.7447	0.1223
193.9626	0.1683
194.1805	0.351
194.3984	0.3092
194.6162	0.2353
194.8341	0.3099
195.0519	0.3138
195.2697	0.3398
195.4875	0.3449
195.7054	0.2365
195.9231	0.2698
196.1409	0.3299
196.3587	0.2866
196.5765	0.3021
196.7942	0.396
197.012	0.333
197.2297	0.3387
197.4474	0.4716
197.6651	0.3556
197.8828	0.4035
198.1005	0.3946
198.3182	0.4023
198.5358	0.3993
198.7535	0.4317
198.9711	0.3849
199.1888	0.3659
199.4064	0.4201
199.624	0.4134
199.8416	0.3489
200.0592	0.3862
200.2767	0.4019
200.4943	0.4098
200.7119	0.3974
200.9294	0.4263
201.1469	0.4076
201.3645	0.3917
201.582	0.4076
201.7995	0.4511
202.017	0.4041
202.2344	0.3846
202.4519	0.3897
202.6694	0.404
202.8868	0.4255
203.1042	0.408
203.3217	0.3662
203.5391	0.4249
203.7565	0.3796
203.9739	0.3587
204.1913	0.3759
204.4086	0.3513
204.626	0.3745
204.8433	0.372
205.0607	0.36
205.278	0.394
205.4953	0.3392
205.7126	0.3523
205.9299	0.3425
206.1472	0.3107
206.3644	0.3519
206.5817	0.339
206.7989	0.3365
207.0162	0.3111
207.2334	0.3205
207.4506	0.3168
207.6678	0.3022
207.885	0.3316
208.1022	0.3409
208.3194	0.3
208.5365	0.306
208.7537	0.2981
208.9708	0.3177
209.1879	0.2825
209.405	0.2673
209.6222	0.2634
209.8392	0.2867
210.0563	0.2993
210.2734	0.2693
210.4905	0.2834
210.7075	0.2584
210.9245	0.2811
211.1416	0.2791
211.3586	0.2584
211.5756	0.2583
211.7926	0.2719
212.0096	0.269
212.2265	0.261
212.4435	0.2643
212.6604	0.2643
212.8774	0.2448
213.0943	0.2797
213.3112	0.2556
213.5281	0.2305
213.745	0.2453
213.9619	0.2425
214.1788	0.2539
214.3956	0.2502
214.6125	0.2682
214.8293	0.2507
215.0461	0.2608
215.2629	0.2482
215.4798	0.2577
215.6965	0.2367
215.9133	0.2375
216.1301	0.2511
216.3469	0.2548
216.5636	0.2444
216.7803	0.2431
216.9971	0.2558
217.2138	0.2383
217.4305	0.2474
217.6472	0.2241
217.8639	0.2524
218.0805	0.2657
218.2972	0.2515
218.5138	0.2499
218.7305	0.2651
218.9471	0.2358
219.1637	0.2634
219.3803	0.2704
219.5969	0.2525
219.8135	0.2643
220.0301	0.2502
220.2466	0.2515
220.4632	0.2487
220.6797	0.254
220.8962	0.263
221.1127	0.279
221.3292	0.2637
221.5457	0.2697
221.7622	0.2564
221.9787	0.2824
222.1951	0.27
222.4116	0.2777
222.628	0.2911
222.8444	0.2782
223.0608	0.2735
223.2772	0.2756
223.4936	0.2831
223.71	0.2887
223.9264	0.2876
224.1427	0.2776
224.3591	0.2891
224.5754	0.2807
224.7917	0.2892
225.008	0.3062
225.2243	0.3053
225.4406	0.2924
225.6569	0.302
225.8732	0.3111
226.0894	0.309
226.3057	0.3001
226.5219	0.312
226.7381	0.3068
226.9543	0.3258
227.1705	0.3209
227.3867	0.3311
227.6029	0.3224
227.8191	0.3422
228.0352	0.3309
228.2513	0.3499
228.4675	0.3434
228.6836	0.355
228.8997	0.3414
229.1158	0.3539
229.3319	0.3507
229.548	0.3514
229.764	0.3599
229.9801	0.3762
230.1961	0.3714
230.4121	0.3615
230.6282	0.3769
230.8442	0.3817
231.0602	0.3817
231.2761	0.378
231.4921	0.3904
231.7081	0.3977
231.924	0.4
232.14	0.4016
232.3559	0.3964
232.5718	0.4188
232.7877	0.3993
233.0036	0.4119
233.2195	0.3995
233.4353	0.4067
233.6512	0.4211
233.867	0.4268
234.0829	0.4271
234.2987	0.4177
234.5145	0.4424
234.7303	0.4297
234.9461	0.4382
235.1619	0.4496
235.3776	0.441
235.5934	0.4328
235.8091	0.4425
236.0249	0.4529
236.2406	0.4346
236.4563	0.4398
236.672	0.4266
236.8877	0.4504
237.1034	0.4387
237.319	0.4566
237.5347	0.4504
237.7503	0.4495
237.966	0.4641
238.1816	0.4487
238.3972	0.4594
238.6128	0.4732
238.8284	0.466
239.0439	0.4553
239.2595	0.4608
239.475	0.4644
239.6906	0.4652
239.9061	0.4518
240.1216	0.4663
240.3371	0.465
240.5526	0.4641
240.7681	0.4637
240.9836	0.4593
241.199	0.4548
241.4145	0.452
241.6299	0.459
241.8453	0.4417
242.0607	0.4409
242.2761	0.4409
242.4915	0.4324
242.7069	0.4172
242.9223	0.4174
243.1376	0.4012
243.353	0.409
243.5683	0.4033
243.7836	0.4
243.9989	0.3739
244.2142	0.379
244.4295	0.3779
244.6448	0.3718
244.86	0.3601
245.0753	0.3512
245.2905	0.3505
245.5057	0.3396
245.721	0.339
245.9362	0.3304
246.1514	0.319
246.3665	0.3086
246.5817	0.2984
246.7969	0.2995
247.012	0.2944
247.2271	0.297
247.4423	0.2817
247.6574	0.2837
247.8725	0.2679
248.0876	0.2729
248.3026	0.2668
248.5177	0.2546
248.7328	0.2534
248.9478	0.2471
249.1628	0.2483
249.3779	0.241
249.5929	0.2406
249.8079	0.2378
250.0228	0.233
250.2378	0.2282
250.4528	0.2303
250.6677	0.2299
250.8827	0.2191
251.0976	0.2121
251.3125	0.2214
251.5274	0.2133
251.7423	0.2068
251.9572	0.2078
252.172	0.2026
252.3869	0.2042
252.6017	0.2062
252.8166	0.2036
253.0314	0.197
253.2462	0.1981
253.461	0.1925
253.6758	0.1987
253.8906	0.1933
254.1053	0.1913
254.3201	0.1889
254.5348	0.1876
254.7496	0.1865
254.9643	0.1928
255.179	0.1888
255.3937	0.1893
255.6083	0.1928
255.823	0.1853
256.0377	0.1796
256.2523	0.1789
256.467	0.1875
256.6816	0.1769
256.8962	0.1807
257.1108	0.1803
257.3254	0.1827
257.54	0.1742
257.7545	0.1824
257.9691	0.1855
258.1836	0.171
258.3981	0.1789
258.6127	0.1704
258.8272	0.1844
259.0417	0.1751
259.2561	0.1765
259.4706	0.1803
259.6851	0.1843
259.8995	0.1797
260.114	0.1775
260.3284	0.1721
260.5428	0.1731
260.7572	0.1725
260.9716	0.1866
261.186	0.1775
261.4003	0.1786
261.6147	0.1772
261.829	0.1811
262.0433	0.1759
262.2577	0.1811
262.472	0.1769
262.6863	0.1835
262.9005	0.1771
263.1148	0.1799
263.3291	0.1832
263.5433	0.1809
263.7576	0.181
263.9718	0.1846
264.186	0.1853
264.4002	0.1856
264.6144	0.1873
264.8286	0.1858
265.0427	0.1811
265.2569	0.1829
265.471	0.1901
265.6851	0.1899
265.8993	0.1811
266.1134	0.1819
266.3275	0.1849
266.5415	0.1862
266.7556	0.1814
266.9697	0.1868
267.1837	0.188
267.3978	0.1804
267.6118	0.1792
267.8258	0.1816
268.0398	0.1871
268.2538	0.1865
268.4677	0.1832
268.6817	0.1881
268.8957	0.1806
269.1096	0.1773
269.3235	0.1804
269.5374	0.183
269.7514	0.1832
269.9652	0.1808
270.1791	0.1727
270.393	0.179
270.6068	0.1782
270.8207	0.1724
271.0345	0.1805
271.2483	0.1678
271.4622	0.1769
271.676	0.178
271.8897	0.1767
272.1035	0.1791
272.3173	0.1784
272.531	0.1786
272.7448	0.1737
272.9585	0.1759
273.1722	0.1754
273.3859	0.1778
273.5996	0.1796
273.8133	0.1806
274.0269	0.1735
274.2406	0.1771
274.4542	0.178
274.6679	0.184
274.8815	0.1877
275.0951	0.1865
275.3087	0.1888
275.5223	0.1841
275.7358	0.1922
275.9494	0.1857
276.1629	0.1864
276.3765	0.1839
276.59	0.181
276.8035	0.1819
277.017	0.1948
277.2305	0.1876
277.444	0.1864
277.6574	0.1907
277.8709	0.1982
278.0843	0.1933
278.2978	0.1853
278.5112	0.189
278.7246	0.1853
278.938	0.1852
279.1513	0.1944
279.3647	0.191
279.5781	0.1831
279.7914	0.1819
280.0047	0.1878
280.2181	0.1919
280.4314	0.1873
280.6447	0.1946
280.8579	0.1823
281.0712	0.1899
281.2845	0.1867
281.4977	0.1854
281.711	0.187
281.9242	0.1895
282.1374	0.187
282.3506	0.186
282.5638	0.1867
282.7769	0.1823
282.9901	0.1858
283.2033	0.1847
283.4164	0.1794
283.6295	0.1808
283.8426	0.1895
284.0557	0.1861
284.2688	0.185
284.4819	0.182
284.695	0.1881
284.908	0.1859
285.1211	0.1896
285.3341	0.1848
285.5471	0.1873
285.7601	0.1874
285.9731	0.1915
286.1861	0.1949
286.3991	0.1885
286.612	0.1871
286.825	0.1884
287.0379	0.1845
287.2508	0.1858
287.4637	0.1824
287.6766	0.1872
287.8895	0.1834
288.1024	0.194
288.3152	0.1896
288.5281	0.1835
288.7409	0.1929
288.9538	0.1847
289.1666	0.1856
289.3794	0.1892
289.5922	0.1878
289.8049	0.194
290.0177	0.1865
290.2304	0.1869
290.4432	0.1946
290.6559	0.1937
290.8686	0.1948
291.0813	0.1906
291.294	0.1865
291.5067	0.1877
291.7194	0.1903
291.932	0.1842
292.1447	0.1879
292.3573	0.1908
292.5699	0.1908
292.7825	0.1851
292.9951	0.1866
293.2077	0.1905
293.4203	0.1884
293.6328	0.1843
293.8454	0.1904
294.0579	0.1884
294.2704	0.195
294.4829	0.1911
294.6954	0.1895
294.9079	0.1895
295.1204	0.1799
295.3328	0.1914
295.5453	0.1914
295.7577	0.1928
295.9701	0.1841
296.1825	0.1878
296.3949	0.1866
296.6073	0.1839
296.8197	0.1897
297.0321	0.1901
297.2444	0.1847
297.4567	0.1922
297.6691	0.1834
297.8814	0.187
298.0937	0.1883
298.306	0.1848
298.5182	0.1897
298.7305	0.1888
298.9428	0.1925
299.155	0.1814
299.3672	0.1858
299.5794	0.1899
299.7916	0.1909
300.0038	0.1883
300.216	0.1873
300.4282	0.1869
300.6403	0.1906
300.8525	0.1917
301.0646	0.1933
301.2767	0.1862
301.4888	0.1912
301.7009	0.1921
301.913	0.1901
302.125	0.1909
302.3371	0.1897
302.5491	0.1909
302.7612	0.1931
302.9732	0.192
303.1852	0.1887
303.3972	0.192
303.6092	0.1862
303.8211	0.1857
304.0331	0.1875
304.245	0.1834
304.457	0.1902
304.6689	0.1865
304.8808	0.1802
305.0927	0.185
305.3046	0.1801
305.5164	0.1826
305.7283	0.1807
305.9401	0.1783
306.152	0.1781
306.3638	0.1789
306.5756	0.181
306.7874	0.1746
306.9992	0.1719
307.2109	0.1716
307.4227	0.1674
307.6344	0.1695
307.8462	0.166
308.0579	0.1726
308.2696	0.1669
308.4813	0.1673
308.693	0.1636
308.9046	0.1656
309.1163	0.1585
309.328	0.1605
309.5396	0.1572
309.7512	0.1594
309.9628	0.1561
310.1744	0.1495
310.386	0.1481
310.5976	0.1482
310.8091	0.1532
311.0207	0.1457
311.2322	0.1449
311.4437	0.1469
311.6552	0.1405
311.8667	0.144
312.0782	0.1437
312.2897	0.1451
312.5012	0.141
312.7126	0.1343
312.924	0.1425
313.1355	0.1396
313.3469	0.1392
313.5583	0.133
313.7696	0.1342
313.981	0.1424
314.1924	0.134
314.4037	0.1373
314.6151	0.131
314.8264	0.1436
315.0377	0.1337
315.249	0.1338
315.4603	0.1268
315.6716	0.1352
315.8828	0.1282
316.0941	0.1309
316.3053	0.1278
316.5165	0.1386
316.7277	0.1282
316.9389	0.1325
317.1501	0.1324
317.3613	0.1239
317.5724	0.1343
317.7836	0.1261
317.9947	0.1248
318.2058	0.1306
318.417	0.1321
318.6281	0.1314
318.8391	0.1329
319.0502	0.1268
319.2613	0.1277
319.4723	0.1245
319.6834	0.132
319.8944	0.1303
320.1054	0.1318
320.3164	0.1235
320.5274	0.1268
320.7383	0.1303
320.9493	0.1279
321.1602	0.1258
321.3712	0.1283
321.5821	0.1222
321.793	0.1352
322.0039	0.1278
322.2148	0.1324
322.4257	0.1309
322.6365	0.125
322.8474	0.1296
323.0582	0.129
323.269	0.1301
323.4798	0.1276
323.6906	0.129
323.9014	0.1287
324.1122	0.1212
324.3229	0.1353
324.5337	0.1359
324.7444	0.132
324.9551	0.1316
325.1658	0.1305
325.3765	0.1321
325.5872	0.136
325.7979	0.1333
326.0085	0.13
326.2192	0.1258
326.4298	0.1357
326.6404	0.1368
326.851	0.128
327.0616	0.1345
327.2722	0.1325
327.4828	0.1363
327.6933	0.141
327.9039	0.1314
328.1144	0.1402
328.3249	0.1408
328.5354	0.1361
328.7459	0.1338
328.9564	0.1428
329.1669	0.1447
329.3773	0.1447
329.5878	0.1411
329.7982	0.1383
330.0086	0.1455
330.219	0.1378
330.4294	0.1442
330.6398	0.1391
330.8502	0.1397
331.0605	0.1379
331.2708	0.1402
331.4812	0.1421
331.6915	0.1435
331.9018	0.1362
332.1121	0.1455
332.3224	0.1414
332.5326	0.1381
332.7429	0.1474
332.9531	0.1423
333.1633	0.1394
333.3735	0.1405
333.5837	0.1434
333.7939	0.1451
334.0041	0.1469
334.2143	0.1392
334.4244	0.147
334.6346	0.1428
334.8447	0.1396
335.0548	0.1443
335.2649	0.1534
335.475	0.1457
335.685	0.1473
335.8951	0.1359
336.1051	0.147
336.3152	0.1514
336.5252	0.1414
336.7352	0.1461
336.9452	0.1416
337.1552	0.1437
337.3652	0.1412
337.5751	0.1424
337.7851	0.1455
337.995	0.1379
338.2049	0.1432
338.4148	0.1418
338.6247	0.1496
338.8346	0.141
339.0445	0.1485
339.2543	0.1373
339.4642	0.1418
339.674	0.1433
339.8838	0.1512
340.0936	0.1492
340.3034	0.1463
340.5132	0.1409
340.7229	0.1477
340.9327	0.1559
341.1424	0.1448
341.3522	0.139
341.5619	0.1517
341.7716	0.1545
341.9813	0.1494
342.1909	0.1537
342.4006	0.1527
342.6102	0.15
342.8199	0.155
343.0295	0.1495
343.2391	0.1561
343.4487	0.1583
343.6583	0.1618
343.8679	0.1531
344.0774	0.1575
344.287	0.1556
344.4965	0.1666
344.706	0.1594
344.9155	0.1568
345.125	0.1601
345.3345	0.1612
345.544	0.165
345.7534	0.1641
345.9629	0.1617
346.1723	0.1673
346.3817	0.1671
346.5911	0.1696
346.8005	0.1686
347.0099	0.1668
347.2193	0.1755
347.4286	0.1799
347.638	0.1648
347.8473	0.1744
348.0566	0.1747
348.2659	0.1729
348.4752	0.1719
348.6845	0.1705
348.8937	0.1718
349.103	0.1735
349.3122	0.1778
349.5214	0.1801
349.7306	0.1797
349.9398	0.1788
350.149	0.1775
350.3582	0.178
350.5674	0.1784
350.7765	0.1775
350.9856	0.1745
351.1948	0.178
351.4039	0.181
351.613	0.1813
351.822	0.1844
352.0311	0.1775
352.2402	0.1793
352.4492	0.1886
352.6582	0.1804
352.8672	0.1866
353.0762	0.1863
353.2852	0.1813
353.4942	0.1875
353.7032	0.179
353.9121	0.1785
354.1211	0.1898
354.33	0.1878
354.5389	0.1806
354.7478	0.181
354.9567	0.1823
355.1655	0.1856
355.3744	0.1834
355.5833	0.1826
355.7921	0.1907
356.0009	0.1829
356.2097	0.1862
356.4185	0.185
356.6273	0.1823
356.8361	0.1886
357.0448	0.1945
357.2536	0.1838
357.4623	0.1898
357.671	0.1924
357.8797	0.1929
358.0884	0.1882
358.2971	0.19
358.5057	0.1885
358.7144	0.1954
358.923	0.1948
359.1316	0.1977
359.3402	0.1978
359.5488	0.1915
359.7574	0.197
359.966	0.2019
360.1746	0.2034
360.3831	0.196
360.5916	0.2005
360.8002	0.205
361.0087	0.2011
361.2172	0.2017
361.4256	0.2005
361.6341	0.2005
361.8426	0.1963
362.051	0.2076
362.2594	0.2055
362.4678	0.2081
362.6762	0.21
362.8846	0.2074
363.093	0.2114
363.3014	0.2115
363.5097	0.2057
363.718	0.2145
363.9264	0.2137
364.1347	0.2214
364.343	0.2166
364.5513	0.2063
364.7595	0.2221
364.9678	0.214
365.176	0.2192
365.3842	0.2229
365.5925	0.2145
365.8007	0.2235
366.0089	0.2252
366.217	0.2289
366.4252	0.2255
366.6333	0.2278
366.8415	0.2289
367.0496	0.2242
367.2577	0.24
367.4658	0.2283
367.6739	0.2285
367.882	0.2415
368.09	0.2224
368.2981	0.2352
368.5061	0.2278
368.7141	0.2303
368.9221	0.2349
369.1301	0.2423
369.3381	0.2405
369.5461	0.2454
369.754	0.2374
369.962	0.2263
370.1699	0.2412
370.3778	0.2515
370.5857	0.2397
370.7936	0.2411
371.0015	0.2346
371.2093	0.2329
371.4172	0.2359
371.625	0.2415
371.8328	0.2488
372.0406	0.2551
372.2484	0.2434
372.4562	0.2484
372.664	0.2492
372.8717	0.2462
373.0795	0.2497
373.2872	0.2533
373.4949	0.2627
373.7026	0.2509
373.9103	0.2467
374.118	0.2539
374.3256	0.256
374.5333	0.2548
374.7409	0.2574
374.9485	0.2515
375.1561	0.2606
375.3637	0.2559
375.5713	0.2616
375.7789	0.254
375.9864	0.2537
376.194	0.2636
376.4015	0.2585
376.609	0.2645
376.8165	0.2645
377.024	0.2643
377.2315	0.2646
377.4389	0.2576
377.6464	0.2726
377.8538	0.2715
378.0612	0.2695
378.2686	0.2677
378.476	0.2789
378.6834	0.2692
378.8908	0.2676
379.0981	0.2683
379.3055	0.2707
379.5128	0.2702
379.7201	0.2753
379.9274	0.2705
380.1347	0.2718
380.342	0.2862
380.5492	0.2742
380.7565	0.2802
380.9637	0.281
381.1709	0.2712
381.3781	0.2795
381.5853	0.2733
381.7925	0.2815
381.9997	0.2861
382.2068	0.2795
382.4139	0.2801
382.6211	0.2858
382.8282	0.2821
383.0353	0.2823
383.2424	0.2731
383.4494	0.2814
383.6565	0.2831
383.8635	0.282
384.0706	0.2916
384.2776	0.2888
384.4846	0.2809
384.6916	0.2924
384.8986	0.2892
385.1055	0.2961
385.3125	0.2884
385.5194	0.2947
385.7263	0.2788
385.9333	0.2879
386.1402	0.2838
386.347	0.2805
386.5539	0.2869
386.7608	0.2838
386.9676	0.2943
387.1744	0.2847
387.3813	0.2817
387.5881	0.2717
387.7948	0.2921
388.0016	0.2908
388.2084	0.2881
388.4151	0.2781
388.6219	0.2784
388.8286	0.2898
389.0353	0.2874
389.242	0.2878
389.4487	0.2773
389.6553	0.2743
389.862	0.2781
390.0686	0.2846
390.2753	0.2689
390.4819	0.2808
390.6885	0.2806
390.8951	0.2784
391.1016	0.268
391.3082	0.2848
391.5147	0.2697
391.7213	0.2687
391.9278	0.2681
392.1343	0.276
392.3408	0.2663
392.5473	0.2674
392.7537	0.2665
392.9602	0.2631
393.1666	0.2617
393.373	0.2627
393.5794	0.2501
393.7858	0.2689
393.9922	0.2564
394.1986	0.2535
394.4049	0.2747
394.6113	0.2507
394.8176	0.2618
395.0239	0.2573
395.2302	0.2543
395.4365	0.2625
395.6428	0.255
395.8491	0.2553
396.0553	0.246
396.2615	0.2542
396.4678	0.2587
396.674	0.2404
396.8802	0.2467
397.0863	0.242
397.2925	0.2435
397.4987	0.2434
397.7048	0.2551
397.9109	0.2398
398.117	0.2445
398.3231	0.2423
398.5292	0.2403
398.7353	0.2414
398.9413	0.2357
399.1474	0.2447
399.3534	0.2485
399.5594	0.2427
399.7654	0.2451
399.9714	0.2414
400.1774	0.2344
400.3833	0.2434
400.5893	0.2457
400.7952	0.2465
401.0011	0.2354
401.207	0.2368
401.4129	0.2384
401.6188	0.2401
401.8247	0.2518
402.0305	0.2445
402.2364	0.2539
402.4422	0.2542
402.648	0.2427
402.8538	0.2408
403.0596	0.2379
403.2654	0.247
403.4711	0.2398
403.6768	0.2464
403.8826	0.2367
404.0883	0.2455
404.294	0.2383
404.4997	0.2373
404.7054	0.2378
404.911	0.2391
405.1167	0.2445
405.3223	0.239
405.5279	0.2329
405.7335	0.2434
405.9391	0.2299
406.1447	0.2418
406.3502	0.2402
406.5558	0.2353
406.7613	0.2498
406.9668	0.2494
407.1724	0.2432
407.3778	0.2482
407.5833	0.2356
407.7888	0.2469
407.9942	0.2406
408.1997	0.2478
408.4051	0.2411
408.6105	0.2434
408.8159	0.2275
409.0213	0.2527
409.2267	0.2437
409.432	0.245
409.6374	0.2457
409.8427	0.2344
410.048	0.2463
410.2533	0.2328
410.4586	0.2306
410.6639	0.2514
410.8691	0.2387
411.0744	0.2504
411.2796	0.234
411.4848	0.2482
411.69	0.2288
411.8952	0.2488
412.1004	0.2371
412.3056	0.2486
412.5107	0.2406
412.7158	0.2461
412.921	0.2366
413.1261	0.2411
413.3312	0.2389
413.5362	0.251
413.7413	0.239
413.9464	0.2292
414.1514	0.2307
414.3564	0.2251
414.5614	0.2288
414.7664	0.2319
414.9714	0.2344
415.1764	0.2407
415.3813	0.2371
415.5863	0.2419
415.7912	0.2371
415.9961	0.2376
416.201	0.2303
416.4059	0.2259
416.6108	0.232
416.8156	0.2303
417.0205	0.2356
417.2253	0.2336
417.4301	0.2489
417.6349	0.2322
417.8397	0.2291
418.0445	0.2401
418.2492	0.2247
418.454	0.2351
418.6587	0.2333
418.8634	0.2313
419.0681	0.2311
419.2728	0.2251
419.4775	0.2457
419.6822	0.2229
419.8868	0.2249
420.0915	0.2272
420.2961	0.2212
420.5007	0.2272
420.7053	0.2269
420.9099	0.2332
421.1144	0.2148
421.319	0.2254
421.5235	0.2173
421.728	0.2261
421.9325	0.2227
422.137	0.219
422.3415	0.2125
422.546	0.2161
422.7504	0.2151
422.9549	0.2335
423.1593	0.205
423.3637	0.2144
423.5681	0.2068
423.7725	0.2085
423.9769	0.2138
424.1812	0.2042
424.3856	0.2076
424.5899	0.2086
424.7942	0.2014
424.9985	0.204
425.2028	0.2062
425.4071	0.2062
425.6113	0.2095
425.8156	0.1986
426.0198	0.2052
426.224	0.2143
426.4282	0.1888
426.6324	0.2014
426.8366	0.2003
