Data from D4ACN5uM440nmA_Absorbance_13-50-26-812.txt Node
Date: Fri Feb 21 13:50:26 GMT 2025
User: LASERRRRR
Spectrometer: FLMT03099
Trigger mode: 0
Integration Time (sec): 1.500000E-2
Scans to average: 1
Electric dark correction enabled: true
Nonlinearity correction enabled: false
Boxcar width: 0
XAxis mode: Wavelengths
Number of Pixels in Spectrum: 3648
>>>>>Begin Spectral Data<<<<<
179.3399	-0.3989
179.5586	-0.3989
179.7771	-0.3989
179.9957	0.0231
180.2143	-0
180.4329	0.6599
180.6514	-0
180.8699	-0
181.0885	-0.5149
181.307	0.5697
181.5255	1.005
181.744	-0
181.9625	0.1002
182.181	0.1967
182.3994	-0.4525
182.6179	-0
182.8363	-0
183.0547	-0.0834
183.2732	0.0894
183.4916	0.4194
183.71	0.1444
183.9284	0.0189
184.1467	-0.1128
184.3651	0.0201
184.5835	0.2566
184.8018	0.2567
185.0201	-0.0834
185.2385	0.1049
185.4568	0.1129
185.6751	0.3
185.8934	0.2617
186.1117	-0.1747
186.3299	0.0768
186.5482	0.2137
186.7664	0.1461
186.9847	0.0267
187.2029	0.2402
187.4211	-0.0227
187.6393	0.0709
187.8575	0.2215
188.0757	0.3964
188.2939	0.6043
188.512	0.172
188.7302	-0.0499
188.9483	0.4497
189.1665	0.5092
189.3846	0.0284
189.6027	0.2041
189.8208	0.3262
190.0389	0.3255
190.257	0.0603
190.475	0.2064
190.6931	0.0459
190.9111	0.1402
191.1292	0.2505
191.3472	0.093
191.5652	0.28
191.7832	0.1812
192.0012	0.0904
192.2192	0.1763
192.4371	0.1939
192.6551	0.2511
192.873	0.1325
193.091	0.2757
193.3089	0.2116
193.5268	0.3217
193.7447	0.1739
193.9626	0.2614
194.1805	0.209
194.3984	0.1762
194.6162	0.2374
194.8341	0.2398
195.0519	0.2753
195.2697	0.239
195.4875	0.3078
195.7054	0.3094
195.9231	0.2124
196.1409	0.3015
196.3587	0.385
196.5765	0.3078
196.7942	0.3278
197.012	0.3419
197.2297	0.3564
197.4474	0.4
197.6651	0.3615
197.8828	0.3299
198.1005	0.3742
198.3182	0.3707
198.5358	0.3691
198.7535	0.3676
198.9711	0.4082
199.1888	0.3407
199.4064	0.4131
199.624	0.3561
199.8416	0.386
200.0592	0.4109
200.2767	0.3748
200.4943	0.4149
200.7119	0.3888
200.9294	0.4142
201.1469	0.4152
201.3645	0.425
201.582	0.4372
201.7995	0.4263
202.017	0.3854
202.2344	0.4004
202.4519	0.4007
202.6694	0.4166
202.8868	0.3633
203.1042	0.3962
203.3217	0.3569
203.5391	0.4042
203.7565	0.3708
203.9739	0.3574
204.1913	0.3269
204.4086	0.3469
204.626	0.3683
204.8433	0.35
205.0607	0.3594
205.278	0.3496
205.4953	0.3021
205.7126	0.3299
205.9299	0.3388
206.1472	0.3141
206.3644	0.342
206.5817	0.3203
206.7989	0.3288
207.0162	0.3088
207.2334	0.3304
207.4506	0.2958
207.6678	0.3103
207.885	0.2837
208.1022	0.3121
208.3194	0.2829
208.5365	0.2914
208.7537	0.2804
208.9708	0.2883
209.1879	0.2818
209.405	0.2757
209.6222	0.2648
209.8392	0.2995
210.0563	0.2651
210.2734	0.2749
210.4905	0.2642
210.7075	0.2796
210.9245	0.2442
211.1416	0.2679
211.3586	0.2707
211.5756	0.2385
211.7926	0.2601
212.0096	0.2381
212.2265	0.2463
212.4435	0.246
212.6604	0.2426
212.8774	0.2487
213.0943	0.2596
213.3112	0.2331
213.5281	0.2407
213.745	0.2301
213.9619	0.2283
214.1788	0.2509
214.3956	0.2376
214.6125	0.2491
214.8293	0.2437
215.0461	0.2371
215.2629	0.265
215.4798	0.2491
215.6965	0.236
215.9133	0.2326
216.1301	0.2474
216.3469	0.2193
216.5636	0.2268
216.7803	0.2333
216.9971	0.2428
217.2138	0.2375
217.4305	0.2419
217.6472	0.2233
217.8639	0.2416
218.0805	0.2512
218.2972	0.2367
218.5138	0.2464
218.7305	0.2476
218.9471	0.2582
219.1637	0.2552
219.3803	0.2585
219.5969	0.2483
219.8135	0.2556
220.0301	0.2599
220.2466	0.2522
220.4632	0.2347
220.6797	0.2572
220.8962	0.2586
221.1127	0.2642
221.3292	0.2601
221.5457	0.2649
221.7622	0.2579
221.9787	0.2619
222.1951	0.2602
222.4116	0.2673
222.628	0.2823
222.8444	0.2649
223.0608	0.278
223.2772	0.2757
223.4936	0.2825
223.71	0.2802
223.9264	0.2856
224.1427	0.272
224.3591	0.2861
224.5754	0.2744
224.7917	0.2863
225.008	0.3019
225.2243	0.2933
225.4406	0.2823
225.6569	0.3059
225.8732	0.3
226.0894	0.3056
226.3057	0.3018
226.5219	0.3135
226.7381	0.3032
226.9543	0.3019
227.1705	0.3155
227.3867	0.3189
227.6029	0.3177
227.8191	0.3312
228.0352	0.3335
228.2513	0.3418
228.4675	0.3373
228.6836	0.3372
228.8997	0.3444
229.1158	0.3531
229.3319	0.3621
229.548	0.345
229.764	0.344
229.9801	0.371
230.1961	0.3599
230.4121	0.3685
230.6282	0.3731
230.8442	0.386
231.0602	0.3883
231.2761	0.3801
231.4921	0.3886
231.7081	0.3907
231.924	0.4052
232.14	0.3979
232.3559	0.4099
232.5718	0.406
232.7877	0.4113
233.0036	0.4142
233.2195	0.4052
233.4353	0.4154
233.6512	0.4143
233.867	0.4195
234.0829	0.4146
234.2987	0.4199
234.5145	0.4341
234.7303	0.4431
234.9461	0.4452
235.1619	0.4409
235.3776	0.4397
235.5934	0.4368
235.8091	0.4571
236.0249	0.4408
236.2406	0.4397
236.4563	0.4284
236.672	0.4446
236.8877	0.4476
237.1034	0.4404
237.319	0.4489
237.5347	0.4404
237.7503	0.4446
237.966	0.4642
238.1816	0.4592
238.3972	0.4547
238.6128	0.4603
238.8284	0.4517
239.0439	0.4627
239.2595	0.4559
239.475	0.4591
239.6906	0.4542
239.9061	0.4595
240.1216	0.4601
240.3371	0.4539
240.5526	0.4544
240.7681	0.458
240.9836	0.4648
241.199	0.455
241.4145	0.4532
241.6299	0.4538
241.8453	0.4351
242.0607	0.4362
242.2761	0.4388
242.4915	0.4266
242.7069	0.4165
242.9223	0.4248
243.1376	0.4158
243.353	0.3943
243.5683	0.3995
243.7836	0.3903
243.9989	0.375
244.2142	0.3792
244.4295	0.3747
244.6448	0.3776
244.86	0.3554
245.0753	0.3494
245.2905	0.3465
245.5057	0.3358
245.721	0.3362
245.9362	0.3424
246.1514	0.3238
246.3665	0.3156
246.5817	0.304
246.7969	0.302
247.012	0.2934
247.2271	0.2988
247.4423	0.2873
247.6574	0.2801
247.8725	0.2764
248.0876	0.2736
248.3026	0.271
248.5177	0.2579
248.7328	0.2531
248.9478	0.2512
249.1628	0.2464
249.3779	0.2377
249.5929	0.2426
249.8079	0.2393
250.0228	0.2366
250.2378	0.2306
250.4528	0.2309
250.6677	0.2254
250.8827	0.2177
251.0976	0.2127
251.3125	0.2156
251.5274	0.2031
251.7423	0.2127
251.9572	0.2135
252.172	0.2077
252.3869	0.2053
252.6017	0.2035
252.8166	0.2004
253.0314	0.1962
253.2462	0.1936
253.461	0.193
253.6758	0.1912
253.8906	0.1943
254.1053	0.1963
254.3201	0.1904
254.5348	0.1796
254.7496	0.1833
254.9643	0.189
255.179	0.1814
255.3937	0.1869
255.6083	0.1942
255.823	0.184
256.0377	0.1813
256.2523	0.1794
256.467	0.1916
256.6816	0.1775
256.8962	0.1833
257.1108	0.1834
257.3254	0.1838
257.54	0.1793
257.7545	0.1843
257.9691	0.1782
258.1836	0.1736
258.3981	0.1782
258.6127	0.1672
258.8272	0.1828
259.0417	0.1705
259.2561	0.1715
259.4706	0.1794
259.6851	0.1793
259.8995	0.1781
260.114	0.1743
260.3284	0.1774
260.5428	0.1765
260.7572	0.1768
260.9716	0.1854
261.186	0.1772
261.4003	0.1668
261.6147	0.1765
261.829	0.1768
262.0433	0.1725
262.2577	0.1813
262.472	0.1806
262.6863	0.1816
262.9005	0.1798
263.1148	0.1787
263.3291	0.1816
263.5433	0.1832
263.7576	0.1835
263.9718	0.1777
264.186	0.1903
264.4002	0.1798
264.6144	0.1882
264.8286	0.1839
265.0427	0.188
265.2569	0.1844
265.471	0.1878
265.6851	0.1872
265.8993	0.1834
266.1134	0.1947
266.3275	0.1872
266.5415	0.1907
266.7556	0.1887
266.9697	0.1895
267.1837	0.1913
267.3978	0.19
267.6118	0.1843
267.8258	0.1898
268.0398	0.1866
268.2538	0.1925
268.4677	0.1847
268.6817	0.1863
268.8957	0.1789
269.1096	0.1684
269.3235	0.1798
269.5374	0.1896
269.7514	0.1858
269.9652	0.185
270.1791	0.1747
270.393	0.1823
270.6068	0.1842
270.8207	0.1751
271.0345	0.175
271.2483	0.1787
271.4622	0.1787
271.676	0.1782
271.8897	0.1831
272.1035	0.1841
272.3173	0.1833
272.531	0.1786
272.7448	0.1756
272.9585	0.1778
273.1722	0.1784
273.3859	0.1819
273.5996	0.1857
273.8133	0.1861
274.0269	0.1807
274.2406	0.1808
274.4542	0.1843
274.6679	0.1848
274.8815	0.1875
275.0951	0.1901
275.3087	0.1932
275.5223	0.1933
275.7358	0.1859
275.9494	0.1978
276.1629	0.1902
276.3765	0.1865
276.59	0.1825
276.8035	0.1903
277.017	0.1993
277.2305	0.1952
277.444	0.1983
277.6574	0.2006
277.8709	0.2013
278.0843	0.1974
278.2978	0.1934
278.5112	0.1978
278.7246	0.1928
278.938	0.1945
279.1513	0.1983
279.3647	0.1919
279.5781	0.194
279.7914	0.1881
280.0047	0.1956
280.2181	0.1897
280.4314	0.1854
280.6447	0.1961
280.8579	0.1841
281.0712	0.1898
281.2845	0.1879
281.4977	0.1912
281.711	0.184
281.9242	0.1872
282.1374	0.1924
282.3506	0.1834
282.5638	0.1855
282.7769	0.1806
282.9901	0.1903
283.2033	0.1919
283.4164	0.1888
283.6295	0.1852
283.8426	0.1795
284.0557	0.1879
284.2688	0.1843
284.4819	0.185
284.695	0.1841
284.908	0.184
285.1211	0.183
285.3341	0.182
285.5471	0.1861
285.7601	0.1835
285.9731	0.1876
286.1861	0.192
286.3991	0.1883
286.612	0.1884
286.825	0.1853
287.0379	0.1845
287.2508	0.1921
287.4637	0.185
287.6766	0.1819
287.8895	0.1829
288.1024	0.1842
288.3152	0.186
288.5281	0.1845
288.7409	0.1869
288.9538	0.1881
289.1666	0.1822
289.3794	0.1833
289.5922	0.1821
289.8049	0.1855
290.0177	0.1899
290.2304	0.1851
290.4432	0.1886
290.6559	0.1872
290.8686	0.186
291.0813	0.1891
291.294	0.183
291.5067	0.1847
291.7194	0.1851
291.932	0.1833
292.1447	0.1869
292.3573	0.1859
292.5699	0.1885
292.7825	0.184
292.9951	0.183
293.2077	0.1834
293.4203	0.185
293.6328	0.1857
293.8454	0.1854
294.0579	0.1808
294.2704	0.1936
294.4829	0.1846
294.6954	0.1808
294.9079	0.1835
295.1204	0.1823
295.3328	0.1905
295.5453	0.1858
295.7577	0.1844
295.9701	0.1855
296.1825	0.1843
296.3949	0.1826
296.6073	0.1829
296.8197	0.1851
297.0321	0.1904
297.2444	0.1845
297.4567	0.187
297.6691	0.1867
297.8814	0.1805
298.0937	0.185
298.306	0.1824
298.5182	0.1874
298.7305	0.1831
298.9428	0.1803
299.155	0.1816
299.3672	0.1819
299.5794	0.1851
299.7916	0.185
300.0038	0.1873
300.216	0.1814
300.4282	0.1825
300.6403	0.191
300.8525	0.1849
301.0646	0.1842
301.2767	0.1879
301.4888	0.1828
301.7009	0.1891
301.913	0.1891
302.125	0.1821
302.3371	0.1808
302.5491	0.1867
302.7612	0.1873
302.9732	0.1845
303.1852	0.186
303.3972	0.1895
303.6092	0.1871
303.8211	0.1866
304.0331	0.1831
304.245	0.1855
304.457	0.1802
304.6689	0.1842
304.8808	0.1814
305.0927	0.1854
305.3046	0.1875
305.5164	0.1736
305.7283	0.1787
305.9401	0.1764
306.152	0.1779
306.3638	0.177
306.5756	0.1763
306.7874	0.1697
306.9992	0.1788
307.2109	0.1744
307.4227	0.1675
307.6344	0.169
307.8462	0.1711
308.0579	0.1702
308.2696	0.161
308.4813	0.163
308.693	0.1597
308.9046	0.163
309.1163	0.154
309.328	0.1556
309.5396	0.1501
309.7512	0.1512
309.9628	0.1536
310.1744	0.1515
310.386	0.1451
310.5976	0.1535
310.8091	0.1553
311.0207	0.1515
311.2322	0.1486
311.4437	0.1461
311.6552	0.1477
311.8667	0.1433
312.0782	0.144
312.2897	0.1469
312.5012	0.1405
312.7126	0.1435
312.924	0.1419
313.1355	0.1392
313.3469	0.1421
313.5583	0.1392
313.7696	0.1353
313.981	0.1428
314.1924	0.1364
314.4037	0.135
314.6151	0.1329
314.8264	0.1417
315.0377	0.1352
315.249	0.1386
315.4603	0.1372
315.6716	0.1332
315.8828	0.1326
316.0941	0.1361
316.3053	0.1305
316.5165	0.1388
316.7277	0.1325
316.9389	0.1373
317.1501	0.1362
317.3613	0.1331
317.5724	0.1325
317.7836	0.1242
317.9947	0.1273
318.2058	0.1297
318.417	0.1302
318.6281	0.1276
318.8391	0.1317
319.0502	0.1321
319.2613	0.1337
319.4723	0.1297
319.6834	0.138
319.8944	0.1277
320.1054	0.131
320.3164	0.1304
320.5274	0.1231
320.7383	0.1352
320.9493	0.1336
321.1602	0.1281
321.3712	0.133
321.5821	0.1306
321.793	0.1392
322.0039	0.1302
322.2148	0.1311
322.4257	0.1235
322.6365	0.1318
322.8474	0.1344
323.0582	0.1363
323.269	0.1327
323.4798	0.1345
323.6906	0.1298
323.9014	0.1289
324.1122	0.1288
324.3229	0.1356
324.5337	0.1353
324.7444	0.1437
324.9551	0.1308
325.1658	0.1325
325.3765	0.1381
325.5872	0.1352
325.7979	0.1294
326.0085	0.1374
326.2192	0.1265
326.4298	0.1433
326.6404	0.1435
326.851	0.1357
327.0616	0.1426
327.2722	0.1406
327.4828	0.1375
327.6933	0.146
327.9039	0.1347
328.1144	0.1432
328.3249	0.1383
328.5354	0.1369
328.7459	0.1406
328.9564	0.1412
329.1669	0.1442
329.3773	0.1466
329.5878	0.1389
329.7982	0.1518
330.0086	0.1447
330.219	0.1399
330.4294	0.1444
330.6398	0.1451
330.8502	0.1485
331.0605	0.1438
331.2708	0.143
331.4812	0.1432
331.6915	0.1485
331.9018	0.1419
332.1121	0.1512
332.3224	0.1486
332.5326	0.1431
332.7429	0.1498
332.9531	0.152
333.1633	0.137
333.3735	0.1435
333.5837	0.1499
333.7939	0.1422
334.0041	0.152
334.2143	0.1474
334.4244	0.1506
334.6346	0.1464
334.8447	0.1405
335.0548	0.1531
335.2649	0.1515
335.475	0.1507
335.685	0.1428
335.8951	0.1364
336.1051	0.1477
336.3152	0.1498
336.5252	0.1469
336.7352	0.1467
336.9452	0.1446
337.1552	0.1431
337.3652	0.1432
337.5751	0.1417
337.7851	0.1451
337.995	0.1425
338.2049	0.1445
338.4148	0.1434
338.6247	0.1508
338.8346	0.1537
339.0445	0.1493
339.2543	0.1475
339.4642	0.1434
339.674	0.1492
339.8838	0.1461
340.0936	0.1445
340.3034	0.1418
340.5132	0.1395
340.7229	0.1505
340.9327	0.1548
341.1424	0.1476
341.3522	0.1461
341.5619	0.1528
341.7716	0.1541
341.9813	0.1574
342.1909	0.1539
342.4006	0.1603
342.6102	0.1551
342.8199	0.1516
343.0295	0.1539
343.2391	0.1598
343.4487	0.1571
343.6583	0.1679
343.8679	0.1569
344.0774	0.1607
344.287	0.1573
344.4965	0.1625
344.706	0.1645
344.9155	0.1581
345.125	0.1635
345.3345	0.171
345.544	0.1625
345.7534	0.169
345.9629	0.1702
346.1723	0.1738
346.3817	0.165
346.5911	0.1696
346.8005	0.1799
347.0099	0.174
347.2193	0.1777
347.4286	0.1797
347.638	0.1753
347.8473	0.1773
348.0566	0.1811
348.2659	0.1807
348.4752	0.1734
348.6845	0.1752
348.8937	0.172
349.103	0.1763
349.3122	0.1772
349.5214	0.1794
349.7306	0.1841
349.9398	0.1773
350.149	0.173
350.3582	0.1848
350.5674	0.1861
350.7765	0.1887
350.9856	0.1806
351.1948	0.181
351.4039	0.1863
351.613	0.178
351.822	0.182
352.0311	0.1853
352.2402	0.1769
352.4492	0.1881
352.6582	0.1861
352.8672	0.184
353.0762	0.1807
353.2852	0.1872
353.4942	0.1856
353.7032	0.1814
353.9121	0.1811
354.1211	0.1887
354.33	0.1842
354.5389	0.1869
354.7478	0.184
354.9567	0.1858
355.1655	0.1866
355.3744	0.181
355.5833	0.1822
355.7921	0.1797
356.0009	0.1899
356.2097	0.1782
356.4185	0.1765
356.6273	0.1845
356.8361	0.1842
357.0448	0.1829
357.2536	0.1838
357.4623	0.1887
357.671	0.1897
357.8797	0.1824
358.0884	0.1895
358.2971	0.1829
358.5057	0.1919
358.7144	0.1917
358.923	0.1985
359.1316	0.1901
359.3402	0.1914
359.5488	0.184
359.7574	0.1959
359.966	0.1923
360.1746	0.1866
360.3831	0.1969
360.5916	0.1937
360.8002	0.1993
361.0087	0.1934
361.2172	0.2013
361.4256	0.2031
361.6341	0.1991
361.8426	0.2031
362.051	0.1972
362.2594	0.1956
362.4678	0.202
362.6762	0.2089
362.8846	0.1979
363.093	0.2061
363.3014	0.2001
363.5097	0.2006
363.718	0.2099
363.9264	0.2028
364.1347	0.1987
364.343	0.2069
364.5513	0.2032
364.7595	0.212
364.9678	0.2122
365.176	0.2133
365.3842	0.2059
365.5925	0.2163
365.8007	0.2171
366.0089	0.2198
366.217	0.22
366.4252	0.2144
366.6333	0.2237
366.8415	0.2203
367.0496	0.2093
367.2577	0.2111
367.4658	0.2146
367.6739	0.2147
367.882	0.2236
368.09	0.2175
368.2981	0.2304
368.5061	0.2204
368.7141	0.229
368.9221	0.2309
369.1301	0.2301
369.3381	0.2403
369.5461	0.2272
369.754	0.2283
369.962	0.2264
370.1699	0.241
370.3778	0.2387
370.5857	0.2305
370.7936	0.2312
371.0015	0.2301
371.2093	0.2302
371.4172	0.2293
371.625	0.2276
371.8328	0.2291
372.0406	0.246
372.2484	0.2346
372.4562	0.2365
372.664	0.2356
372.8717	0.2361
373.0795	0.2433
373.2872	0.2433
373.4949	0.243
373.7026	0.2358
373.9103	0.2325
374.118	0.2466
374.3256	0.2413
374.5333	0.2425
374.7409	0.2418
374.9485	0.2376
375.1561	0.2484
375.3637	0.236
375.5713	0.2497
375.7789	0.2464
375.9864	0.2436
376.194	0.2608
376.4015	0.2474
376.609	0.2497
376.8165	0.2512
377.024	0.2498
377.2315	0.2491
377.4389	0.2509
377.6464	0.2558
377.8538	0.2549
378.0612	0.2574
378.2686	0.2549
378.476	0.2666
378.6834	0.2547
378.8908	0.2572
379.0981	0.2591
379.3055	0.2654
379.5128	0.2599
379.7201	0.2533
379.9274	0.2607
380.1347	0.2631
380.342	0.2684
380.5492	0.2577
380.7565	0.2577
380.9637	0.2646
381.1709	0.2591
381.3781	0.2691
381.5853	0.262
381.7925	0.2576
381.9997	0.2764
382.2068	0.2673
382.4139	0.264
382.6211	0.2692
382.8282	0.2736
383.0353	0.2728
383.2424	0.2625
383.4494	0.2681
383.6565	0.2714
383.8635	0.2658
384.0706	0.2762
384.2776	0.2808
384.4846	0.2721
384.6916	0.275
384.8986	0.2698
385.1055	0.2748
385.3125	0.2737
385.5194	0.2775
385.7263	0.2737
385.9333	0.2758
386.1402	0.2734
386.347	0.2705
386.5539	0.2714
386.7608	0.2742
386.9676	0.2723
387.1744	0.2719
387.3813	0.2742
387.5881	0.2556
387.7948	0.2709
388.0016	0.2889
388.2084	0.2664
388.4151	0.2726
388.6219	0.2639
388.8286	0.2662
389.0353	0.2726
389.242	0.2645
389.4487	0.2709
389.6553	0.2533
389.862	0.2606
390.0686	0.2729
390.2753	0.2662
390.4819	0.2695
390.6885	0.2618
390.8951	0.2626
391.1016	0.2616
391.3082	0.2653
391.5147	0.2543
391.7213	0.2544
391.9278	0.2593
392.1343	0.2519
392.3408	0.2629
392.5473	0.2482
392.7537	0.2528
392.9602	0.254
393.1666	0.256
393.373	0.2538
393.5794	0.2415
393.7858	0.2483
393.9922	0.2495
394.1986	0.2421
394.4049	0.2441
394.6113	0.2446
394.8176	0.247
395.0239	0.2442
395.2302	0.2396
395.4365	0.2546
395.6428	0.2498
395.8491	0.2377
396.0553	0.2465
396.2615	0.2389
396.4678	0.2425
396.674	0.2477
396.8802	0.2453
397.0863	0.2355
397.2925	0.2435
397.4987	0.2335
397.7048	0.2466
397.9109	0.2291
398.117	0.2214
398.3231	0.2297
398.5292	0.2251
398.7353	0.2208
398.9413	0.2305
399.1474	0.2316
399.3534	0.228
399.5594	0.2352
399.7654	0.2287
399.9714	0.2305
400.1774	0.2266
400.3833	0.2357
400.5893	0.2348
400.7952	0.2304
401.0011	0.2251
401.207	0.2315
401.4129	0.2192
401.6188	0.2224
401.8247	0.2364
402.0305	0.2269
402.2364	0.2318
402.4422	0.2312
402.648	0.2338
402.8538	0.2268
403.0596	0.214
403.2654	0.2281
403.4711	0.2222
403.6768	0.223
403.8826	0.2248
404.0883	0.2233
404.294	0.235
404.4997	0.2281
404.7054	0.2309
404.911	0.2304
405.1167	0.2328
405.3223	0.2265
405.5279	0.2233
405.7335	0.2341
405.9391	0.2211
406.1447	0.2311
406.3502	0.2274
406.5558	0.2315
406.7613	0.2296
406.9668	0.2244
407.1724	0.2182
407.3778	0.2215
407.5833	0.2104
407.7888	0.238
407.9942	0.2238
408.1997	0.2247
408.4051	0.2245
408.6105	0.233
408.8159	0.2313
409.0213	0.2213
409.2267	0.2361
409.432	0.2231
409.6374	0.233
409.8427	0.2311
410.048	0.2269
410.2533	0.2259
410.4586	0.2152
410.6639	0.224
410.8691	0.2175
411.0744	0.2291
411.2796	0.2256
411.4848	0.229
411.69	0.2139
411.8952	0.2225
412.1004	0.2255
412.3056	0.217
412.5107	0.233
412.7158	0.2392
412.921	0.2187
413.1261	0.2166
413.3312	0.2362
413.5362	0.2406
413.7413	0.2317
413.9464	0.2178
414.1514	0.2226
414.3564	0.2137
414.5614	0.2197
414.7664	0.2167
414.9714	0.2246
415.1764	0.2285
415.3813	0.2154
415.5863	0.223
415.7912	0.2197
415.9961	0.2101
416.201	0.2322
416.4059	0.2185
416.6108	0.22
416.8156	0.2276
417.0205	0.2304
417.2253	0.2182
417.4301	0.2174
417.6349	0.2134
417.8397	0.2188
418.0445	0.2167
418.2492	0.22
418.454	0.2152
418.6587	0.2235
418.8634	0.2145
419.0681	0.2221
419.2728	0.2148
419.4775	0.2209
419.6822	0.2012
419.8868	0.2129
420.0915	0.2057
420.2961	0.1977
420.5007	0.2096
420.7053	0.21
420.9099	0.2144
421.1144	0.2097
421.319	0.2015
421.5235	0.2021
421.728	0.218
421.9325	0.2122
422.137	0.2008
422.3415	0.1984
422.546	0.2013
422.7504	0.2021
422.9549	0.2111
423.1593	0.1985
423.3637	0.1982
423.5681	0.2063
423.7725	0.1972
423.9769	0.1983
424.1812	0.1917
424.3856	0.1966
424.5899	0.2054
424.7942	0.1924
424.9985	0.196
425.2028	0.1959
425.4071	0.2067
425.6113	0.1985
425.8156	0.1945
426.0198	0.193
426.224	0.198
426.4282	0.1929
426.6324	0.1865
426.8366	0.1826
