Data from D4ACN5uM440nmA_Absorbance_13-50-25-747.txt Node
Date: Fri Feb 21 13:50:25 GMT 2025
User: LASERRRRR
Spectrometer: FLMT03099
Trigger mode: 0
Integration Time (sec): 1.500000E-2
Scans to average: 1
Electric dark correction enabled: true
Nonlinearity correction enabled: false
Boxcar width: 0
XAxis mode: Wavelengths
Number of Pixels in Spectrum: 3648
>>>>>Begin Spectral Data<<<<<
179.3399	-0.4492
179.5586	-0.4492
179.7771	-0.4492
179.9957	0.1365
180.2143	-1.2884
180.4329	-0
180.6514	0.0442
180.8699	-0.241
181.0885	-0
181.307	0.2768
181.5255	-0.039
181.744	-0
181.9625	-0.0464
182.181	-0
182.3994	-0.0665
182.6179	-0.1618
182.8363	0.9661
183.0547	-0.1977
183.2732	0.1725
183.4916	0.2146
183.71	0.1763
183.9284	-0.011
184.1467	0.0979
184.3651	0.0011
184.5835	0.1496
184.8018	0.2412
185.0201	0.0554
185.2385	0.3389
185.4568	0.2155
185.6751	0.0893
185.8934	0.1113
186.1117	-0.1008
186.3299	0.1405
186.5482	0.1671
186.7664	0.1269
186.9847	-0.1128
187.2029	0.2164
187.4211	0.0082
187.6393	0.3407
187.8575	0.1255
188.0757	0.5817
188.2939	0.0167
188.512	0.1332
188.7302	0.1514
188.9483	0.1991
189.1665	0.5453
189.3846	0.0778
189.6027	0.0706
189.8208	0.2732
190.0389	0.0476
190.257	0.004
190.475	-0.0179
190.6931	0.0932
190.9111	0.036
191.1292	0.0849
191.3472	0.0863
191.5652	0.3393
191.7832	0.2436
192.0012	0.2016
192.2192	0.1888
192.4371	0.1959
192.6551	0.1762
192.873	0.1666
193.091	0.1507
193.3089	0.1737
193.5268	0.3274
193.7447	0.1531
193.9626	0.2224
194.1805	0.2591
194.3984	0.1737
194.6162	0.2648
194.8341	0.3794
195.0519	0.2208
195.2697	0.1983
195.4875	0.2712
195.7054	0.2374
195.9231	0.2149
196.1409	0.338
196.3587	0.3316
196.5765	0.3477
196.7942	0.3379
197.012	0.3311
197.2297	0.2879
197.4474	0.3896
197.6651	0.2927
197.8828	0.3079
198.1005	0.4012
198.3182	0.4244
198.5358	0.3305
198.7535	0.3504
198.9711	0.3822
199.1888	0.3403
199.4064	0.4366
199.624	0.3655
199.8416	0.3496
200.0592	0.4181
200.2767	0.4005
200.4943	0.3984
200.7119	0.4324
200.9294	0.365
201.1469	0.3863
201.3645	0.4314
201.582	0.3747
201.7995	0.4071
202.017	0.4071
202.2344	0.4001
202.4519	0.3886
202.6694	0.3598
202.8868	0.3645
203.1042	0.3974
203.3217	0.3462
203.5391	0.3789
203.7565	0.362
203.9739	0.3414
204.1913	0.3542
204.4086	0.3332
204.626	0.3541
204.8433	0.3677
205.0607	0.3808
205.278	0.3572
205.4953	0.3607
205.7126	0.3328
205.9299	0.307
206.1472	0.3225
206.3644	0.3256
206.5817	0.3236
206.7989	0.3282
207.0162	0.3181
207.2334	0.3161
207.4506	0.3236
207.6678	0.3128
207.885	0.3035
208.1022	0.2811
208.3194	0.2932
208.5365	0.3196
208.7537	0.2951
208.9708	0.3122
209.1879	0.2923
209.405	0.2692
209.6222	0.2703
209.8392	0.299
210.0563	0.2872
210.2734	0.2721
210.4905	0.2619
210.7075	0.2822
210.9245	0.281
211.1416	0.2635
211.3586	0.2583
211.5756	0.242
211.7926	0.2658
212.0096	0.2787
212.2265	0.2583
212.4435	0.2377
212.6604	0.2408
212.8774	0.2266
213.0943	0.2434
213.3112	0.2445
213.5281	0.2378
213.745	0.2252
213.9619	0.2452
214.1788	0.2438
214.3956	0.2356
214.6125	0.2548
214.8293	0.2508
215.0461	0.2635
215.2629	0.2788
215.4798	0.2612
215.6965	0.2431
215.9133	0.2368
216.1301	0.2411
216.3469	0.2361
216.5636	0.2482
216.7803	0.2244
216.9971	0.2433
217.2138	0.2537
217.4305	0.2418
217.6472	0.2383
217.8639	0.2571
218.0805	0.2429
218.2972	0.235
218.5138	0.2553
218.7305	0.2581
218.9471	0.2495
219.1637	0.2756
219.3803	0.2526
219.5969	0.255
219.8135	0.259
220.0301	0.2598
220.2466	0.2594
220.4632	0.2493
220.6797	0.247
220.8962	0.2572
221.1127	0.2669
221.3292	0.2625
221.5457	0.2697
221.7622	0.273
221.9787	0.2862
222.1951	0.2683
222.4116	0.2824
222.628	0.2802
222.8444	0.2723
223.0608	0.2638
223.2772	0.2744
223.4936	0.2768
223.71	0.288
223.9264	0.2921
224.1427	0.2881
224.3591	0.2904
224.5754	0.2928
224.7917	0.289
225.008	0.305
225.2243	0.3082
225.4406	0.3
225.6569	0.3002
225.8732	0.2949
226.0894	0.3074
226.3057	0.3046
226.5219	0.3091
226.7381	0.3249
226.9543	0.3168
227.1705	0.3176
227.3867	0.3222
227.6029	0.3211
227.8191	0.335
228.0352	0.3401
228.2513	0.3504
228.4675	0.3488
228.6836	0.3377
228.8997	0.3407
229.1158	0.3529
229.3319	0.3537
229.548	0.3509
229.764	0.3634
229.9801	0.3732
230.1961	0.3726
230.4121	0.3692
230.6282	0.3888
230.8442	0.3818
231.0602	0.3832
231.2761	0.387
231.4921	0.3749
231.7081	0.4
231.924	0.4024
232.14	0.3967
232.3559	0.4159
232.5718	0.4097
232.7877	0.4093
233.0036	0.4164
233.2195	0.4123
233.4353	0.4267
233.6512	0.4158
233.867	0.4219
234.0829	0.4195
234.2987	0.4171
234.5145	0.434
234.7303	0.4254
234.9461	0.4401
235.1619	0.4407
235.3776	0.4315
235.5934	0.4396
235.8091	0.4381
236.0249	0.456
236.2406	0.4354
236.4563	0.4424
236.672	0.4391
236.8877	0.4468
237.1034	0.4513
237.319	0.451
237.5347	0.4439
237.7503	0.4486
237.966	0.4613
238.1816	0.4604
238.3972	0.4629
238.6128	0.4593
238.8284	0.453
239.0439	0.4658
239.2595	0.4575
239.475	0.4663
239.6906	0.4599
239.9061	0.4641
240.1216	0.4653
240.3371	0.4578
240.5526	0.4419
240.7681	0.4717
240.9836	0.4599
241.199	0.4517
241.4145	0.4542
241.6299	0.4457
241.8453	0.4405
242.0607	0.4351
242.2761	0.4315
242.4915	0.4211
242.7069	0.4176
242.9223	0.4191
243.1376	0.4093
243.353	0.4027
243.5683	0.4001
243.7836	0.3851
243.9989	0.379
244.2142	0.3746
244.4295	0.3667
244.6448	0.3693
244.86	0.3594
245.0753	0.346
245.2905	0.3485
245.5057	0.3423
245.721	0.3366
245.9362	0.3269
246.1514	0.3255
246.3665	0.3111
246.5817	0.3003
246.7969	0.3004
247.012	0.2877
247.2271	0.3002
247.4423	0.2809
247.6574	0.2946
247.8725	0.2745
248.0876	0.2709
248.3026	0.2711
248.5177	0.2585
248.7328	0.2561
248.9478	0.2509
249.1628	0.2479
249.3779	0.2368
249.5929	0.2409
249.8079	0.2309
250.0228	0.2354
250.2378	0.231
250.4528	0.2256
250.6677	0.2191
250.8827	0.2133
251.0976	0.2144
251.3125	0.2177
251.5274	0.2069
251.7423	0.2024
251.9572	0.2108
252.172	0.2063
252.3869	0.2071
252.6017	0.2071
252.8166	0.2041
253.0314	0.1993
253.2462	0.1958
253.461	0.1946
253.6758	0.1957
253.8906	0.1933
254.1053	0.1967
254.3201	0.1907
254.5348	0.1847
254.7496	0.186
254.9643	0.1902
255.179	0.1874
255.3937	0.1884
255.6083	0.1898
255.823	0.1856
256.0377	0.1847
256.2523	0.1823
256.467	0.1939
256.6816	0.1831
256.8962	0.181
257.1108	0.1859
257.3254	0.1841
257.54	0.1798
257.7545	0.1824
257.9691	0.1809
258.1836	0.1756
258.3981	0.1818
258.6127	0.1716
258.8272	0.1835
259.0417	0.1752
259.2561	0.1741
259.4706	0.1761
259.6851	0.1725
259.8995	0.1721
260.114	0.1802
260.3284	0.1735
260.5428	0.1747
260.7572	0.1737
260.9716	0.1783
261.186	0.1807
261.4003	0.1744
261.6147	0.1813
261.829	0.1795
262.0433	0.1816
262.2577	0.1787
262.472	0.1784
262.6863	0.1814
262.9005	0.1735
263.1148	0.1782
263.3291	0.1777
263.5433	0.1841
263.7576	0.1814
263.9718	0.1721
264.186	0.1808
264.4002	0.1808
264.6144	0.1817
264.8286	0.1881
265.0427	0.185
265.2569	0.1835
265.471	0.1823
265.6851	0.1835
265.8993	0.1779
266.1134	0.1797
266.3275	0.1806
266.5415	0.1843
266.7556	0.1865
266.9697	0.1865
267.1837	0.186
267.3978	0.1787
267.6118	0.1809
267.8258	0.1859
268.0398	0.1846
268.2538	0.1845
268.4677	0.1741
268.6817	0.1794
268.8957	0.1783
269.1096	0.1753
269.3235	0.178
269.5374	0.1793
269.7514	0.1836
269.9652	0.1782
270.1791	0.1719
270.393	0.1767
270.6068	0.1734
270.8207	0.1742
271.0345	0.1745
271.2483	0.1701
271.4622	0.174
271.676	0.1677
271.8897	0.1734
272.1035	0.1813
272.3173	0.1779
272.531	0.1783
272.7448	0.1727
272.9585	0.1692
273.1722	0.1754
273.3859	0.1796
273.5996	0.1737
273.8133	0.1791
274.0269	0.1733
274.2406	0.1758
274.4542	0.1787
274.6679	0.1849
274.8815	0.1828
275.0951	0.1834
275.3087	0.1805
275.5223	0.1839
275.7358	0.1863
275.9494	0.1844
276.1629	0.1861
276.3765	0.1812
276.59	0.1769
276.8035	0.1758
277.017	0.1856
277.2305	0.1851
277.444	0.1839
277.6574	0.1862
277.8709	0.1919
278.0843	0.1831
278.2978	0.1913
278.5112	0.1875
278.7246	0.1839
278.938	0.1862
279.1513	0.1845
279.3647	0.188
279.5781	0.1835
279.7914	0.1812
280.0047	0.1881
280.2181	0.1869
280.4314	0.184
280.6447	0.1905
280.8579	0.1808
281.0712	0.1818
281.2845	0.1846
281.4977	0.1837
281.711	0.1852
281.9242	0.1824
282.1374	0.1866
282.3506	0.1849
282.5638	0.1804
282.7769	0.1818
282.9901	0.1888
283.2033	0.1805
283.4164	0.1817
283.6295	0.1821
283.8426	0.182
284.0557	0.1845
284.2688	0.1812
284.4819	0.1802
284.695	0.1874
284.908	0.1844
285.1211	0.1825
285.3341	0.1809
285.5471	0.1887
285.7601	0.1832
285.9731	0.1887
286.1861	0.1843
286.3991	0.1892
286.612	0.1841
286.825	0.1877
287.0379	0.1844
287.2508	0.1843
287.4637	0.1908
287.6766	0.1884
287.8895	0.1919
288.1024	0.1916
288.3152	0.1877
288.5281	0.1841
288.7409	0.1914
288.9538	0.1901
289.1666	0.1893
289.3794	0.1825
289.5922	0.1866
289.8049	0.1863
290.0177	0.1884
290.2304	0.1885
290.4432	0.1865
290.6559	0.189
290.8686	0.1916
291.0813	0.1943
291.294	0.187
291.5067	0.1823
291.7194	0.187
291.932	0.1868
292.1447	0.1879
292.3573	0.1846
292.5699	0.1932
292.7825	0.1844
292.9951	0.1848
293.2077	0.184
293.4203	0.1867
293.6328	0.1846
293.8454	0.1887
294.0579	0.1893
294.2704	0.1944
294.4829	0.1901
294.6954	0.1944
294.9079	0.1865
295.1204	0.1867
295.3328	0.198
295.5453	0.1884
295.7577	0.1862
295.9701	0.1876
296.1825	0.1923
296.3949	0.1853
296.6073	0.1867
296.8197	0.1892
297.0321	0.1886
297.2444	0.1883
297.4567	0.1934
297.6691	0.188
297.8814	0.1944
298.0937	0.1915
298.306	0.1865
298.5182	0.1955
298.7305	0.1876
298.9428	0.1909
299.155	0.1836
299.3672	0.1872
299.5794	0.1908
299.7916	0.1905
300.0038	0.1861
300.216	0.1873
300.4282	0.1893
300.6403	0.1901
300.8525	0.1855
301.0646	0.1928
301.2767	0.1885
301.4888	0.1891
301.7009	0.192
301.913	0.1907
302.125	0.1875
302.3371	0.1929
302.5491	0.1888
302.7612	0.1926
302.9732	0.1896
303.1852	0.1915
303.3972	0.1878
303.6092	0.1914
303.8211	0.1865
304.0331	0.1856
304.245	0.1795
304.457	0.1886
304.6689	0.1851
304.8808	0.1857
305.0927	0.1887
305.3046	0.1884
305.5164	0.1834
305.7283	0.1806
305.9401	0.1766
306.152	0.1788
306.3638	0.175
306.5756	0.181
306.7874	0.1753
306.9992	0.1746
307.2109	0.1734
307.4227	0.1736
307.6344	0.1759
307.8462	0.1705
308.0579	0.1728
308.2696	0.162
308.4813	0.1618
308.693	0.1613
308.9046	0.1678
309.1163	0.1615
309.328	0.1599
309.5396	0.1576
309.7512	0.1539
309.9628	0.1559
310.1744	0.1491
310.386	0.1483
310.5976	0.1481
310.8091	0.1506
311.0207	0.1499
311.2322	0.1435
311.4437	0.1461
311.6552	0.1474
311.8667	0.1454
312.0782	0.1416
312.2897	0.1493
312.5012	0.1429
312.7126	0.1373
312.924	0.1425
313.1355	0.1358
313.3469	0.1373
313.5583	0.1362
313.7696	0.1332
313.981	0.1405
314.1924	0.1302
314.4037	0.1348
314.6151	0.1302
314.8264	0.1398
315.0377	0.1358
315.249	0.1355
315.4603	0.1293
315.6716	0.1309
315.8828	0.1291
316.0941	0.1302
316.3053	0.1212
316.5165	0.1343
316.7277	0.1191
316.9389	0.1305
317.1501	0.1307
317.3613	0.1235
317.5724	0.1259
317.7836	0.1247
317.9947	0.1286
318.2058	0.1255
318.417	0.1268
318.6281	0.123
318.8391	0.1297
319.0502	0.1292
319.2613	0.1256
319.4723	0.1239
319.6834	0.1244
319.8944	0.1246
320.1054	0.1289
320.3164	0.1203
320.5274	0.1254
320.7383	0.1248
320.9493	0.1235
321.1602	0.1268
321.3712	0.1244
321.5821	0.1285
321.793	0.1346
322.0039	0.1294
322.2148	0.1238
322.4257	0.1256
322.6365	0.1205
322.8474	0.1321
323.0582	0.1257
323.269	0.1263
323.4798	0.1293
323.6906	0.125
323.9014	0.1244
324.1122	0.1231
324.3229	0.1304
324.5337	0.1257
324.7444	0.1299
324.9551	0.1259
325.1658	0.1269
325.3765	0.1288
325.5872	0.1347
325.7979	0.1297
326.0085	0.1311
326.2192	0.1255
326.4298	0.1299
326.6404	0.1349
326.851	0.1291
327.0616	0.1287
327.2722	0.1281
327.4828	0.1374
327.6933	0.1392
327.9039	0.1382
328.1144	0.1326
328.3249	0.1325
328.5354	0.1345
328.7459	0.136
328.9564	0.1307
329.1669	0.1383
329.3773	0.1346
329.5878	0.1347
329.7982	0.1375
330.0086	0.1414
330.219	0.1349
330.4294	0.1373
330.6398	0.1415
330.8502	0.1388
331.0605	0.1356
331.2708	0.1356
331.4812	0.1379
331.6915	0.1386
331.9018	0.1362
332.1121	0.1463
332.3224	0.142
332.5326	0.1377
332.7429	0.1377
332.9531	0.1454
333.1633	0.1347
333.3735	0.1401
333.5837	0.1414
333.7939	0.1369
334.0041	0.145
334.2143	0.1375
334.4244	0.1495
334.6346	0.143
334.8447	0.1342
335.0548	0.1425
335.2649	0.1437
335.475	0.1443
335.685	0.139
335.8951	0.1386
336.1051	0.1444
336.3152	0.145
336.5252	0.1411
336.7352	0.1403
336.9452	0.147
337.1552	0.1432
337.3652	0.1372
337.5751	0.1475
337.7851	0.1428
337.995	0.1466
338.2049	0.1401
338.4148	0.1471
338.6247	0.1476
338.8346	0.1468
339.0445	0.1435
339.2543	0.1419
339.4642	0.1431
339.674	0.1424
339.8838	0.1427
340.0936	0.1462
340.3034	0.1387
340.5132	0.1419
340.7229	0.1469
340.9327	0.1524
341.1424	0.1472
341.3522	0.1448
341.5619	0.1445
341.7716	0.1473
341.9813	0.1531
342.1909	0.1497
342.4006	0.1553
342.6102	0.1484
342.8199	0.1518
343.0295	0.1428
343.2391	0.1546
343.4487	0.1524
343.6583	0.1591
343.8679	0.1597
344.0774	0.1456
344.287	0.1614
344.4965	0.1577
344.706	0.1639
344.9155	0.1507
345.125	0.1575
345.3345	0.1635
345.544	0.1622
345.7534	0.1647
345.9629	0.1648
346.1723	0.1652
346.3817	0.1628
346.5911	0.168
346.8005	0.1725
347.0099	0.1687
347.2193	0.1718
347.4286	0.1768
347.638	0.1747
347.8473	0.1746
348.0566	0.1669
348.2659	0.1707
348.4752	0.1694
348.6845	0.1673
348.8937	0.1708
349.103	0.1758
349.3122	0.1712
349.5214	0.1733
349.7306	0.1739
349.9398	0.1666
350.149	0.1791
350.3582	0.1727
350.5674	0.1795
350.7765	0.181
350.9856	0.1714
351.1948	0.1751
351.4039	0.1765
351.613	0.1766
351.822	0.1886
352.0311	0.1795
352.2402	0.1777
352.4492	0.1857
352.6582	0.1753
352.8672	0.1819
353.0762	0.1874
353.2852	0.1753
353.4942	0.1859
353.7032	0.1776
353.9121	0.18
354.1211	0.1854
354.33	0.1888
354.5389	0.1778
354.7478	0.1856
354.9567	0.1873
355.1655	0.1844
355.3744	0.1741
355.5833	0.1901
355.7921	0.1933
356.0009	0.179
356.2097	0.1782
356.4185	0.1809
356.6273	0.1872
356.8361	0.1889
357.0448	0.1922
357.2536	0.1879
357.4623	0.187
357.671	0.1935
357.8797	0.1919
358.0884	0.1879
358.2971	0.1877
358.5057	0.1955
358.7144	0.193
358.923	0.1953
359.1316	0.2017
359.3402	0.1923
359.5488	0.1913
359.7574	0.2
359.966	0.1957
360.1746	0.1956
360.3831	0.2059
360.5916	0.2027
360.8002	0.2061
361.0087	0.1935
361.2172	0.2012
361.4256	0.2045
361.6341	0.2106
361.8426	0.2041
362.051	0.2007
362.2594	0.2032
362.4678	0.209
362.6762	0.2125
362.8846	0.2043
363.093	0.2044
363.3014	0.2167
363.5097	0.2074
363.718	0.2093
363.9264	0.2215
364.1347	0.2127
364.343	0.215
364.5513	0.2179
364.7595	0.2207
364.9678	0.2138
365.176	0.2228
365.3842	0.2231
365.5925	0.2227
365.8007	0.2202
366.0089	0.2373
366.217	0.2223
366.4252	0.2195
366.6333	0.2227
366.8415	0.2313
367.0496	0.2192
367.2577	0.2329
367.4658	0.2274
367.6739	0.2225
367.882	0.231
368.09	0.2268
368.2981	0.2389
368.5061	0.2348
368.7141	0.2345
368.9221	0.2439
369.1301	0.2387
369.3381	0.2402
369.5461	0.2419
369.754	0.2436
369.962	0.2431
370.1699	0.2435
370.3778	0.2496
370.5857	0.248
370.7936	0.2338
371.0015	0.2474
371.2093	0.2439
371.4172	0.2455
371.625	0.2396
371.8328	0.24
372.0406	0.2521
372.2484	0.2418
372.4562	0.2514
372.664	0.2455
372.8717	0.2544
373.0795	0.2491
373.2872	0.2515
373.4949	0.2568
373.7026	0.2476
373.9103	0.2481
374.118	0.25
374.3256	0.2635
374.5333	0.2494
374.7409	0.258
374.9485	0.256
375.1561	0.2619
375.3637	0.2519
375.5713	0.2621
375.7789	0.258
375.9864	0.2664
376.194	0.2653
376.4015	0.2646
376.609	0.2647
376.8165	0.2602
377.024	0.2642
377.2315	0.26
377.4389	0.2528
377.6464	0.2665
377.8538	0.277
378.0612	0.2725
378.2686	0.2723
378.476	0.279
378.6834	0.2594
378.8908	0.2815
379.0981	0.2782
379.3055	0.2709
379.5128	0.2754
379.7201	0.2745
379.9274	0.2794
380.1347	0.2745
380.342	0.2836
380.5492	0.2768
380.7565	0.2805
380.9637	0.2786
381.1709	0.272
381.3781	0.2862
381.5853	0.2768
381.7925	0.2802
381.9997	0.2814
382.2068	0.2841
382.4139	0.2812
382.6211	0.2828
382.8282	0.2932
383.0353	0.2929
383.2424	0.2872
383.4494	0.2935
383.6565	0.2804
383.8635	0.2818
384.0706	0.2897
384.2776	0.2792
384.4846	0.283
384.6916	0.2831
384.8986	0.2969
385.1055	0.2932
385.3125	0.2924
385.5194	0.3008
385.7263	0.2857
385.9333	0.2907
386.1402	0.2887
386.347	0.2835
386.5539	0.2837
386.7608	0.2878
386.9676	0.2881
387.1744	0.2857
387.3813	0.2938
387.5881	0.2856
387.7948	0.2926
388.0016	0.2979
388.2084	0.2905
388.4151	0.2904
388.6219	0.2805
388.8286	0.2871
389.0353	0.2849
389.242	0.2897
389.4487	0.2764
389.6553	0.274
389.862	0.2854
390.0686	0.285
390.2753	0.2769
390.4819	0.2847
390.6885	0.2782
390.8951	0.2809
391.1016	0.2769
391.3082	0.2852
391.5147	0.2814
391.7213	0.273
391.9278	0.2749
392.1343	0.277
392.3408	0.2699
392.5473	0.2704
392.7537	0.2737
392.9602	0.2659
393.1666	0.2677
393.373	0.2694
393.5794	0.2633
393.7858	0.2708
393.9922	0.2619
394.1986	0.2636
394.4049	0.2627
394.6113	0.2556
394.8176	0.2614
395.0239	0.2635
395.2302	0.2592
395.4365	0.2608
395.6428	0.2582
395.8491	0.2604
396.0553	0.2493
396.2615	0.2492
396.4678	0.2658
396.674	0.2475
396.8802	0.251
397.0863	0.2507
397.2925	0.2533
397.4987	0.2464
397.7048	0.2556
397.9109	0.2485
398.117	0.2478
398.3231	0.2429
398.5292	0.2338
398.7353	0.2359
398.9413	0.2425
399.1474	0.2468
399.3534	0.247
399.5594	0.2528
399.7654	0.2433
399.9714	0.2476
400.1774	0.2489
400.3833	0.2394
400.5893	0.2396
400.7952	0.2413
401.0011	0.2386
401.207	0.2457
401.4129	0.2523
401.6188	0.2493
401.8247	0.2538
402.0305	0.2391
402.2364	0.2536
402.4422	0.2506
402.648	0.2451
402.8538	0.2436
403.0596	0.2394
403.2654	0.2435
403.4711	0.2398
403.6768	0.2398
403.8826	0.2445
404.0883	0.2447
404.294	0.2514
404.4997	0.2325
404.7054	0.2503
404.911	0.2403
405.1167	0.2544
405.3223	0.2448
405.5279	0.2469
405.7335	0.2396
405.9391	0.2313
406.1447	0.2537
406.3502	0.2422
406.5558	0.228
406.7613	0.2365
406.9668	0.2381
407.1724	0.2444
407.3778	0.245
407.5833	0.2413
407.7888	0.2474
407.9942	0.2394
408.1997	0.2516
408.4051	0.2435
408.6105	0.2464
408.8159	0.2436
409.0213	0.2456
409.2267	0.2495
409.432	0.2377
409.6374	0.2422
409.8427	0.2518
410.048	0.2525
410.2533	0.244
410.4586	0.2322
410.6639	0.2459
410.8691	0.2364
411.0744	0.2425
411.2796	0.2447
411.4848	0.2466
411.69	0.2376
411.8952	0.2421
412.1004	0.2452
412.3056	0.2421
412.5107	0.2465
412.7158	0.2437
412.921	0.2348
413.1261	0.2396
413.3312	0.2352
413.5362	0.2482
413.7413	0.2375
413.9464	0.2297
414.1514	0.2389
414.3564	0.2386
414.5614	0.2426
414.7664	0.2381
414.9714	0.2329
415.1764	0.2372
415.3813	0.2292
415.5863	0.2418
415.7912	0.2319
415.9961	0.2303
416.201	0.2479
416.4059	0.2408
416.6108	0.2366
416.8156	0.2301
417.0205	0.237
417.2253	0.2293
417.4301	0.2346
417.6349	0.2354
417.8397	0.2241
418.0445	0.2277
418.2492	0.2237
418.454	0.2372
418.6587	0.2318
418.8634	0.2299
419.0681	0.2397
419.2728	0.2322
419.4775	0.2428
419.6822	0.2341
419.8868	0.2257
420.0915	0.2255
420.2961	0.2287
420.5007	0.2336
420.7053	0.229
420.9099	0.2159
421.1144	0.2263
421.319	0.2215
421.5235	0.2162
421.728	0.2275
421.9325	0.2276
422.137	0.2126
422.3415	0.2207
422.546	0.2142
422.7504	0.2137
422.9549	0.2195
423.1593	0.2073
423.3637	0.218
423.5681	0.214
423.7725	0.2042
423.9769	0.2156
424.1812	0.2111
424.3856	0.2058
424.5899	0.2131
424.7942	0.2001
424.9985	0.2139
425.2028	0.2134
425.4071	0.2022
425.6113	0.2162
425.8156	0.2056
426.0198	0.2147
426.224	0.2095
426.4282	0.1935
