Data from D4ACN5uM440nmA_Absorbance_13-50-26-107.txt Node
Date: Fri Feb 21 13:50:26 GMT 2025
User: LASERRRRR
Spectrometer: FLMT03099
Trigger mode: 0
Integration Time (sec): 1.500000E-2
Scans to average: 1
Electric dark correction enabled: true
Nonlinearity correction enabled: false
Boxcar width: 0
XAxis mode: Wavelengths
Number of Pixels in Spectrum: 3648
>>>>>Begin Spectral Data<<<<<
179.3399	0.0898
179.5586	0.0898
179.7771	0.0898
179.9957	-0.3285
180.2143	-1.2413
180.4329	-0
180.6514	-0
180.8699	-0
181.0885	-0
181.307	0.4156
181.5255	-0.0607
181.744	-0
181.9625	0.1119
182.181	-0.5041
182.3994	-0.28
182.6179	-0.3449
182.8363	0.4788
183.0547	-0.0261
183.2732	0.0886
183.4916	0.1347
183.71	0.2132
183.9284	0.0767
184.1467	0.0385
184.3651	0.0766
184.5835	0.2053
184.8018	0.3292
185.0201	0.352
185.2385	0.3018
185.4568	0.1707
185.6751	0.0543
185.8934	0.1409
186.1117	-0.1135
186.3299	0.2033
186.5482	0.1232
186.7664	0.0414
186.9847	0.0565
187.2029	0.4409
187.4211	0.0356
187.6393	0.2051
187.8575	0.8857
188.0757	0.2505
188.2939	0.1315
188.512	0.2626
188.7302	0.1571
188.9483	0.339
189.1665	0.9911
189.3846	0.3249
189.6027	0.2391
189.8208	0.1658
190.0389	0.2349
190.257	0.0382
190.475	0.0016
190.6931	-0.002
190.9111	0.208
191.1292	0.2584
191.3472	0.1792
191.5652	0.3332
191.7832	0.4773
192.0012	0.255
192.2192	0.0611
192.4371	0.1373
192.6551	0.2384
192.873	0.1134
193.091	0.0868
193.3089	0.1423
193.5268	0.371
193.7447	0.2117
193.9626	0.1429
194.1805	0.2812
194.3984	0.2964
194.6162	0.3515
194.8341	0.3582
195.0519	0.2229
195.2697	0.4739
195.4875	0.3013
195.7054	0.3198
195.9231	0.1875
196.1409	0.3655
196.3587	0.3267
196.5765	0.3236
196.7942	0.3172
197.012	0.4196
197.2297	0.3576
197.4474	0.4394
197.6651	0.3439
197.8828	0.3416
198.1005	0.4338
198.3182	0.3591
198.5358	0.4259
198.7535	0.3873
198.9711	0.4017
199.1888	0.3705
199.4064	0.4368
199.624	0.4132
199.8416	0.4371
200.0592	0.384
200.2767	0.3795
200.4943	0.4908
200.7119	0.4211
200.9294	0.4111
201.1469	0.4375
201.3645	0.4415
201.582	0.4579
201.7995	0.4214
202.017	0.4294
202.2344	0.4132
202.4519	0.4094
202.6694	0.4487
202.8868	0.4031
203.1042	0.4185
203.3217	0.4307
203.5391	0.4041
203.7565	0.333
203.9739	0.4144
204.1913	0.3705
204.4086	0.3569
204.626	0.3923
204.8433	0.3725
205.0607	0.3525
205.278	0.313
205.4953	0.3536
205.7126	0.3283
205.9299	0.3194
206.1472	0.3328
206.3644	0.345
206.5817	0.3473
206.7989	0.3153
207.0162	0.3352
207.2334	0.3153
207.4506	0.3158
207.6678	0.3301
207.885	0.2828
208.1022	0.3079
208.3194	0.3075
208.5365	0.3055
208.7537	0.2839
208.9708	0.2902
209.1879	0.2817
209.405	0.28
209.6222	0.2967
209.8392	0.3064
210.0563	0.2757
210.2734	0.2662
210.4905	0.2806
210.7075	0.2752
210.9245	0.2571
211.1416	0.2593
211.3586	0.2669
211.5756	0.2466
211.7926	0.26
212.0096	0.2859
212.2265	0.2622
212.4435	0.2674
212.6604	0.2546
212.8774	0.2603
213.0943	0.2387
213.3112	0.2539
213.5281	0.2641
213.745	0.2379
213.9619	0.2324
214.1788	0.2554
214.3956	0.2371
214.6125	0.2607
214.8293	0.2636
215.0461	0.2454
215.2629	0.251
215.4798	0.242
215.6965	0.2529
215.9133	0.2306
216.1301	0.2542
216.3469	0.2452
216.5636	0.2467
216.7803	0.2545
216.9971	0.2383
217.2138	0.2495
217.4305	0.2611
217.6472	0.2512
217.8639	0.2433
218.0805	0.2391
218.2972	0.2514
218.5138	0.2671
218.7305	0.2401
218.9471	0.242
219.1637	0.2755
219.3803	0.2523
219.5969	0.2452
219.8135	0.2639
220.0301	0.2393
220.2466	0.2601
220.4632	0.2468
220.6797	0.2463
220.8962	0.2415
221.1127	0.2775
221.3292	0.2655
221.5457	0.2647
221.7622	0.2568
221.9787	0.277
222.1951	0.2743
222.4116	0.2653
222.628	0.2935
222.8444	0.2834
223.0608	0.2797
223.2772	0.2718
223.4936	0.2879
223.71	0.2779
223.9264	0.2693
224.1427	0.2859
224.3591	0.2727
224.5754	0.2934
224.7917	0.2819
225.008	0.2924
225.2243	0.3037
225.4406	0.2899
225.6569	0.2993
225.8732	0.3087
226.0894	0.299
226.3057	0.3135
226.5219	0.3122
226.7381	0.3225
226.9543	0.3002
227.1705	0.3148
227.3867	0.3247
227.6029	0.3245
227.8191	0.3381
228.0352	0.3297
228.2513	0.3566
228.4675	0.346
228.6836	0.352
228.8997	0.3462
229.1158	0.3524
229.3319	0.3667
229.548	0.357
229.764	0.3709
229.9801	0.3736
230.1961	0.3707
230.4121	0.3739
230.6282	0.3887
230.8442	0.3914
231.0602	0.3937
231.2761	0.393
231.4921	0.4011
231.7081	0.3989
231.924	0.3973
232.14	0.4057
232.3559	0.4146
232.5718	0.414
232.7877	0.4119
233.0036	0.4074
233.2195	0.4213
233.4353	0.4178
233.6512	0.4231
233.867	0.4292
234.0829	0.4254
234.2987	0.424
234.5145	0.4372
234.7303	0.4401
234.9461	0.4393
235.1619	0.4371
235.3776	0.4333
235.5934	0.4384
235.8091	0.4456
236.0249	0.4535
236.2406	0.4437
236.4563	0.4423
236.672	0.4448
236.8877	0.4526
237.1034	0.4471
237.319	0.445
237.5347	0.4447
237.7503	0.4409
237.966	0.4573
238.1816	0.4503
238.3972	0.46
238.6128	0.4645
238.8284	0.4607
239.0439	0.4675
239.2595	0.4625
239.475	0.47
239.6906	0.4601
239.9061	0.4607
240.1216	0.4643
240.3371	0.4639
240.5526	0.4509
240.7681	0.4609
240.9836	0.4608
241.199	0.456
241.4145	0.4462
241.6299	0.451
241.8453	0.4412
242.0607	0.4416
242.2761	0.4394
242.4915	0.4343
242.7069	0.4136
242.9223	0.4193
243.1376	0.4117
243.353	0.4068
243.5683	0.3972
243.7836	0.3952
243.9989	0.3782
244.2142	0.383
244.4295	0.3849
244.6448	0.3718
244.86	0.3469
245.0753	0.3443
245.2905	0.3441
245.5057	0.3392
245.721	0.3386
245.9362	0.3265
246.1514	0.3195
246.3665	0.3115
246.5817	0.3045
246.7969	0.2979
247.012	0.3014
247.2271	0.2969
247.4423	0.2846
247.6574	0.2832
247.8725	0.2798
248.0876	0.2761
248.3026	0.2692
248.5177	0.2627
248.7328	0.2507
248.9478	0.2512
249.1628	0.2519
249.3779	0.2438
249.5929	0.2396
249.8079	0.2422
250.0228	0.232
250.2378	0.2352
250.4528	0.2278
250.6677	0.2295
250.8827	0.2179
251.0976	0.218
251.3125	0.2183
251.5274	0.2111
251.7423	0.2061
251.9572	0.2086
252.172	0.2097
252.3869	0.2099
252.6017	0.2021
252.8166	0.1999
253.0314	0.1885
253.2462	0.2014
253.461	0.1945
253.6758	0.1911
253.8906	0.1901
254.1053	0.1962
254.3201	0.2025
254.5348	0.1832
254.7496	0.1892
254.9643	0.1873
255.179	0.1851
255.3937	0.1893
255.6083	0.1871
255.823	0.1879
256.0377	0.1787
256.2523	0.1808
256.467	0.1835
256.6816	0.1799
256.8962	0.1857
257.1108	0.1803
257.3254	0.1881
257.54	0.1798
257.7545	0.1929
257.9691	0.1847
258.1836	0.1734
258.3981	0.1861
258.6127	0.1733
258.8272	0.1826
259.0417	0.1758
259.2561	0.174
259.4706	0.1769
259.6851	0.1765
259.8995	0.1748
260.114	0.1801
260.3284	0.178
260.5428	0.1796
260.7572	0.1795
260.9716	0.1805
261.186	0.1776
261.4003	0.1738
261.6147	0.1746
261.829	0.1789
262.0433	0.1754
262.2577	0.1822
262.472	0.179
262.6863	0.1866
262.9005	0.1816
263.1148	0.1749
263.3291	0.1767
263.5433	0.185
263.7576	0.1837
263.9718	0.1795
264.186	0.1843
264.4002	0.1839
264.6144	0.1851
264.8286	0.184
265.0427	0.1865
265.2569	0.1893
265.471	0.1823
265.6851	0.1842
265.8993	0.1796
266.1134	0.1855
266.3275	0.182
266.5415	0.1849
266.7556	0.1875
266.9697	0.1896
267.1837	0.1831
267.3978	0.1861
267.6118	0.1832
267.8258	0.1901
268.0398	0.1854
268.2538	0.1843
268.4677	0.1782
268.6817	0.1844
268.8957	0.1784
269.1096	0.1726
269.3235	0.1827
269.5374	0.185
269.7514	0.1874
269.9652	0.1755
270.1791	0.1786
270.393	0.1833
270.6068	0.184
270.8207	0.1749
271.0345	0.1785
271.2483	0.1696
271.4622	0.177
271.676	0.1779
271.8897	0.1782
272.1035	0.1826
272.3173	0.1771
272.531	0.1782
272.7448	0.1757
272.9585	0.1732
273.1722	0.1782
273.3859	0.1827
273.5996	0.1816
273.8133	0.181
274.0269	0.1785
274.2406	0.1803
274.4542	0.1727
274.6679	0.1846
274.8815	0.1799
275.0951	0.1877
275.3087	0.1889
275.5223	0.1889
275.7358	0.1864
275.9494	0.1921
276.1629	0.1803
276.3765	0.186
276.59	0.194
276.8035	0.1846
277.017	0.1928
277.2305	0.1947
277.444	0.1908
277.6574	0.1942
277.8709	0.1933
278.0843	0.1925
278.2978	0.1916
278.5112	0.1867
278.7246	0.1893
278.938	0.1884
279.1513	0.1899
279.3647	0.1947
279.5781	0.188
279.7914	0.1917
280.0047	0.1942
280.2181	0.1871
280.4314	0.1924
280.6447	0.188
280.8579	0.1852
281.0712	0.1826
281.2845	0.1898
281.4977	0.191
281.711	0.1826
281.9242	0.1863
282.1374	0.1834
282.3506	0.1832
282.5638	0.185
282.7769	0.1828
282.9901	0.1893
283.2033	0.1835
283.4164	0.1841
283.6295	0.1883
283.8426	0.1836
284.0557	0.1834
284.2688	0.1856
284.4819	0.1809
284.695	0.1887
284.908	0.1857
285.1211	0.1903
285.3341	0.1859
285.5471	0.1879
285.7601	0.1853
285.9731	0.1856
286.1861	0.1895
286.3991	0.1798
286.612	0.1863
286.825	0.1842
287.0379	0.1867
287.2508	0.1901
287.4637	0.1894
287.6766	0.1842
287.8895	0.1877
288.1024	0.1899
288.3152	0.1878
288.5281	0.1855
288.7409	0.1868
288.9538	0.1865
289.1666	0.1923
289.3794	0.188
289.5922	0.1882
289.8049	0.1889
290.0177	0.1915
290.2304	0.1891
290.4432	0.1861
290.6559	0.1873
290.8686	0.1909
291.0813	0.1866
291.294	0.1902
291.5067	0.1866
291.7194	0.1875
291.932	0.1864
292.1447	0.1886
292.3573	0.1884
292.5699	0.1815
292.7825	0.183
292.9951	0.1878
293.2077	0.1879
293.4203	0.1848
293.6328	0.1863
293.8454	0.1899
294.0579	0.1854
294.2704	0.1909
294.4829	0.1866
294.6954	0.191
294.9079	0.1894
295.1204	0.1894
295.3328	0.1903
295.5453	0.1926
295.7577	0.18
295.9701	0.193
296.1825	0.1915
296.3949	0.1842
296.6073	0.1846
296.8197	0.1865
297.0321	0.1868
297.2444	0.1817
297.4567	0.1872
297.6691	0.1906
297.8814	0.1862
298.0937	0.1862
298.306	0.1883
298.5182	0.1946
298.7305	0.1908
298.9428	0.191
299.155	0.1848
299.3672	0.1854
299.5794	0.1918
299.7916	0.1882
300.0038	0.1864
300.216	0.1901
300.4282	0.1828
300.6403	0.191
300.8525	0.193
301.0646	0.1903
301.2767	0.1909
301.4888	0.1849
301.7009	0.1916
301.913	0.1864
302.125	0.1922
302.3371	0.1879
302.5491	0.189
302.7612	0.1987
302.9732	0.1871
303.1852	0.1885
303.3972	0.1935
303.6092	0.1908
303.8211	0.1858
304.0331	0.1859
304.245	0.1879
304.457	0.1841
304.6689	0.1856
304.8808	0.1795
305.0927	0.187
305.3046	0.1834
305.5164	0.1819
305.7283	0.179
305.9401	0.17
306.152	0.1751
306.3638	0.1761
306.5756	0.181
306.7874	0.1731
306.9992	0.1706
307.2109	0.1741
307.4227	0.1712
307.6344	0.1711
307.8462	0.1681
308.0579	0.1734
308.2696	0.1667
308.4813	0.1658
308.693	0.164
308.9046	0.1671
309.1163	0.1584
309.328	0.1595
309.5396	0.155
309.7512	0.1552
309.9628	0.1575
310.1744	0.1511
310.386	0.1552
310.5976	0.1511
310.8091	0.1495
311.0207	0.1497
311.2322	0.1474
311.4437	0.1448
311.6552	0.146
311.8667	0.1468
312.0782	0.143
312.2897	0.1497
312.5012	0.1381
312.7126	0.1415
312.924	0.1392
313.1355	0.1382
313.3469	0.1452
313.5583	0.1362
313.7696	0.135
313.981	0.1364
314.1924	0.1323
314.4037	0.1391
314.6151	0.1346
314.8264	0.1426
315.0377	0.1346
315.249	0.1364
315.4603	0.1266
315.6716	0.1378
315.8828	0.1356
316.0941	0.1322
316.3053	0.1334
316.5165	0.1342
316.7277	0.1308
316.9389	0.1302
317.1501	0.1277
317.3613	0.1332
317.5724	0.1343
317.7836	0.1239
317.9947	0.1252
318.2058	0.1214
318.417	0.1271
318.6281	0.1261
318.8391	0.1309
319.0502	0.133
319.2613	0.1319
319.4723	0.1275
319.6834	0.1323
319.8944	0.1286
320.1054	0.1257
320.3164	0.1265
320.5274	0.1267
320.7383	0.1305
320.9493	0.1292
321.1602	0.1283
321.3712	0.1254
321.5821	0.1269
321.793	0.1325
322.0039	0.1321
322.2148	0.1285
322.4257	0.1264
322.6365	0.1289
322.8474	0.1315
323.0582	0.1353
323.269	0.1349
323.4798	0.1308
323.6906	0.1317
323.9014	0.1215
324.1122	0.1262
324.3229	0.1351
324.5337	0.1339
324.7444	0.1311
324.9551	0.131
325.1658	0.1311
325.3765	0.1374
325.5872	0.1316
325.7979	0.131
326.0085	0.1292
326.2192	0.1299
326.4298	0.1368
326.6404	0.1361
326.851	0.1309
327.0616	0.1316
327.2722	0.138
327.4828	0.1389
327.6933	0.1462
327.9039	0.1375
328.1144	0.1362
328.3249	0.1359
328.5354	0.1399
328.7459	0.136
328.9564	0.1396
329.1669	0.135
329.3773	0.1427
329.5878	0.139
329.7982	0.1452
330.0086	0.1409
330.219	0.139
330.4294	0.1381
330.6398	0.1421
330.8502	0.1485
331.0605	0.1361
331.2708	0.138
331.4812	0.1435
331.6915	0.1429
331.9018	0.1433
332.1121	0.1481
332.3224	0.141
332.5326	0.1403
332.7429	0.1358
332.9531	0.1428
333.1633	0.1365
333.3735	0.1395
333.5837	0.142
333.7939	0.1419
334.0041	0.1502
334.2143	0.1442
334.4244	0.1469
334.6346	0.1449
334.8447	0.1454
335.0548	0.1476
335.2649	0.1421
335.475	0.145
335.685	0.1449
335.8951	0.1403
336.1051	0.147
336.3152	0.1472
336.5252	0.1385
336.7352	0.1437
336.9452	0.1403
337.1552	0.1402
337.3652	0.1446
337.5751	0.1388
337.7851	0.147
337.995	0.1437
338.2049	0.1432
338.4148	0.1475
338.6247	0.1479
338.8346	0.1458
339.0445	0.1445
339.2543	0.1477
339.4642	0.1428
339.674	0.1461
339.8838	0.1437
340.0936	0.143
340.3034	0.1396
340.5132	0.1454
340.7229	0.1493
340.9327	0.1478
341.1424	0.1519
341.3522	0.1465
341.5619	0.1468
341.7716	0.1494
341.9813	0.148
342.1909	0.153
342.4006	0.1562
342.6102	0.1569
342.8199	0.1548
343.0295	0.1555
343.2391	0.1598
343.4487	0.1556
343.6583	0.1615
343.8679	0.1505
344.0774	0.1561
344.287	0.1619
344.4965	0.1623
344.706	0.1598
344.9155	0.1537
345.125	0.1614
345.3345	0.1637
345.544	0.1629
345.7534	0.164
345.9629	0.1629
346.1723	0.1654
346.3817	0.1675
346.5911	0.1726
346.8005	0.1689
347.0099	0.1708
347.2193	0.1793
347.4286	0.1765
347.638	0.1741
347.8473	0.1721
348.0566	0.1699
348.2659	0.1678
348.4752	0.1749
348.6845	0.1794
348.8937	0.1767
349.103	0.1773
349.3122	0.177
349.5214	0.1777
349.7306	0.1808
349.9398	0.1724
350.149	0.1714
350.3582	0.1803
350.5674	0.1777
350.7765	0.1814
350.9856	0.1752
351.1948	0.1767
351.4039	0.1783
351.613	0.1758
351.822	0.1832
352.0311	0.1794
352.2402	0.1864
352.4492	0.1807
352.6582	0.187
352.8672	0.1793
353.0762	0.1841
353.2852	0.187
353.4942	0.1861
353.7032	0.1855
353.9121	0.186
354.1211	0.1892
354.33	0.1845
354.5389	0.1761
354.7478	0.1859
354.9567	0.1836
355.1655	0.1871
355.3744	0.1807
355.5833	0.1839
355.7921	0.1927
356.0009	0.184
356.2097	0.1793
356.4185	0.1824
356.6273	0.1904
356.8361	0.1875
357.0448	0.1829
357.2536	0.1903
357.4623	0.1884
357.671	0.192
357.8797	0.1987
358.0884	0.1921
358.2971	0.1881
358.5057	0.1903
358.7144	0.1898
358.923	0.1891
359.1316	0.2002
359.3402	0.1878
359.5488	0.1883
359.7574	0.1994
359.966	0.1912
360.1746	0.193
360.3831	0.1997
360.5916	0.1943
360.8002	0.2056
361.0087	0.1967
361.2172	0.1991
361.4256	0.2093
361.6341	0.2158
361.8426	0.2005
362.051	0.2083
362.2594	0.1998
362.4678	0.2105
362.6762	0.2053
362.8846	0.2053
363.093	0.2049
363.3014	0.2108
363.5097	0.2075
363.718	0.2168
363.9264	0.2186
364.1347	0.2098
364.343	0.2152
364.5513	0.2218
364.7595	0.2168
364.9678	0.2097
365.176	0.2131
365.3842	0.2246
365.5925	0.2185
365.8007	0.2171
366.0089	0.2267
366.217	0.2201
366.4252	0.2168
366.6333	0.2205
366.8415	0.221
367.0496	0.2259
367.2577	0.2262
367.4658	0.2242
367.6739	0.212
367.882	0.2293
368.09	0.2221
368.2981	0.2408
368.5061	0.237
368.7141	0.2248
368.9221	0.2327
369.1301	0.2433
369.3381	0.2383
369.5461	0.2298
369.754	0.2321
369.962	0.2307
370.1699	0.2377
370.3778	0.2483
370.5857	0.2305
370.7936	0.2419
371.0015	0.2395
371.2093	0.2376
371.4172	0.2425
371.625	0.2441
371.8328	0.2444
372.0406	0.2512
372.2484	0.24
372.4562	0.2459
372.664	0.256
372.8717	0.25
373.0795	0.2478
373.2872	0.2598
373.4949	0.248
373.7026	0.2385
373.9103	0.2551
374.118	0.2494
374.3256	0.2576
374.5333	0.2502
374.7409	0.2537
374.9485	0.248
375.1561	0.2614
375.3637	0.2534
375.5713	0.255
375.7789	0.2517
375.9864	0.2554
376.194	0.2601
376.4015	0.2593
376.609	0.2593
376.8165	0.2569
377.024	0.2665
377.2315	0.2696
377.4389	0.2516
377.6464	0.2705
377.8538	0.2688
378.0612	0.2671
378.2686	0.2595
378.476	0.272
378.6834	0.268
378.8908	0.2731
379.0981	0.2679
379.3055	0.2775
379.5128	0.2713
379.7201	0.2697
379.9274	0.2761
380.1347	0.2746
380.342	0.2672
380.5492	0.276
380.7565	0.2724
380.9637	0.272
381.1709	0.2666
381.3781	0.2771
381.5853	0.2797
381.7925	0.2776
381.9997	0.2811
382.2068	0.2754
382.4139	0.2749
382.6211	0.2783
382.8282	0.2799
383.0353	0.2834
383.2424	0.2789
383.4494	0.2783
383.6565	0.2834
383.8635	0.2698
384.0706	0.2858
384.2776	0.2712
384.4846	0.2898
384.6916	0.2784
384.8986	0.288
385.1055	0.2936
385.3125	0.2879
385.5194	0.2847
385.7263	0.2787
385.9333	0.2903
386.1402	0.287
386.347	0.2716
386.5539	0.2814
386.7608	0.2799
386.9676	0.2792
387.1744	0.2842
387.3813	0.2909
387.5881	0.2856
387.7948	0.2909
388.0016	0.2941
388.2084	0.2859
388.4151	0.2884
388.6219	0.2812
388.8286	0.2771
389.0353	0.2824
389.242	0.2865
389.4487	0.2787
389.6553	0.2683
389.862	0.2728
390.0686	0.2828
390.2753	0.2771
390.4819	0.2812
390.6885	0.2822
390.8951	0.2777
391.1016	0.2742
391.3082	0.2798
391.5147	0.2725
391.7213	0.2687
391.9278	0.2704
392.1343	0.2731
392.3408	0.2673
392.5473	0.2632
392.7537	0.2629
392.9602	0.2595
393.1666	0.267
393.373	0.2554
393.5794	0.2651
393.7858	0.2632
393.9922	0.2566
394.1986	0.2584
394.4049	0.2507
394.6113	0.2569
394.8176	0.2549
395.0239	0.2544
395.2302	0.2541
395.4365	0.2549
395.6428	0.2577
395.8491	0.2494
396.0553	0.2456
396.2615	0.2473
396.4678	0.2536
396.674	0.2418
396.8802	0.2536
397.0863	0.245
397.2925	0.2482
397.4987	0.2404
397.7048	0.2503
397.9109	0.2433
398.117	0.2485
398.3231	0.2408
398.5292	0.2352
398.7353	0.2445
398.9413	0.2382
399.1474	0.2434
399.3534	0.2434
399.5594	0.2387
399.7654	0.2361
399.9714	0.238
400.1774	0.2346
400.3833	0.2358
400.5893	0.2436
400.7952	0.2455
401.0011	0.2356
401.207	0.2387
401.4129	0.2339
401.6188	0.2402
401.8247	0.2464
402.0305	0.2351
402.2364	0.2448
402.4422	0.2405
402.648	0.2352
402.8538	0.2463
403.0596	0.2331
403.2654	0.2351
403.4711	0.2342
403.6768	0.2495
403.8826	0.235
404.0883	0.2397
404.294	0.2441
404.4997	0.2331
404.7054	0.2481
404.911	0.2432
405.1167	0.2398
405.3223	0.235
405.5279	0.2364
405.7335	0.2389
405.9391	0.2348
406.1447	0.2433
406.3502	0.2425
406.5558	0.244
406.7613	0.2358
406.9668	0.2366
407.1724	0.2316
407.3778	0.2481
407.5833	0.2243
407.7888	0.2369
407.9942	0.2337
408.1997	0.2348
408.4051	0.2413
408.6105	0.2406
408.8159	0.2365
409.0213	0.243
409.2267	0.245
409.432	0.2327
409.6374	0.2374
409.8427	0.2473
410.048	0.2491
410.2533	0.2488
410.4586	0.2293
410.6639	0.2313
410.8691	0.2357
411.0744	0.2334
411.2796	0.2433
411.4848	0.2401
411.69	0.23
411.8952	0.2378
412.1004	0.2398
412.3056	0.2326
412.5107	0.234
412.7158	0.2395
412.921	0.2345
413.1261	0.2324
413.3312	0.239
413.5362	0.2402
413.7413	0.2366
413.9464	0.2356
414.1514	0.2329
414.3564	0.2255
414.5614	0.2298
414.7664	0.2286
414.9714	0.2308
415.1764	0.2336
415.3813	0.2263
415.5863	0.2415
415.7912	0.2323
415.9961	0.2307
416.201	0.2353
416.4059	0.2382
416.6108	0.2256
416.8156	0.2345
417.0205	0.2259
417.2253	0.2308
417.4301	0.24
417.6349	0.2369
417.8397	0.2221
418.0445	0.2297
418.2492	0.2348
418.454	0.2216
418.6587	0.2336
418.8634	0.2324
419.0681	0.2354
419.2728	0.2264
419.4775	0.2366
419.6822	0.21
419.8868	0.2262
420.0915	0.2208
420.2961	0.2125
420.5007	0.2202
420.7053	0.2254
420.9099	0.2251
421.1144	0.2163
421.319	0.2196
421.5235	0.2133
421.728	0.2225
421.9325	0.2267
422.137	0.2176
422.3415	0.2105
422.546	0.1986
422.7504	0.2152
422.9549	0.2205
423.1593	0.2094
423.3637	0.2154
423.5681	0.2144
423.7725	0.213
423.9769	0.213
424.1812	0.2082
424.3856	0.2062
424.5899	0.1992
424.7942	0.2104
424.9985	0.2007
425.2028	0.2019
425.4071	0.2062
425.6113	0.2065
425.8156	0.1995
426.0198	0.203
426.224	0.2088
426.4282	0.1883
426.6324	0.2114
426.8366	0.1916
