Data from D4ACN5uM440nmA_Absorbance_13-50-25-522.txt Node
Date: Fri Feb 21 13:50:25 GMT 2025
User: LASERRRRR
Spectrometer: FLMT03099
Trigger mode: 0
Integration Time (sec): 1.500000E-2
Scans to average: 1
Electric dark correction enabled: true
Nonlinearity correction enabled: false
Boxcar width: 0
XAxis mode: Wavelengths
Number of Pixels in Spectrum: 3648
>>>>>Begin Spectral Data<<<<<
179.3399	-0.5253
179.5586	-0.5253
179.7771	-0.5253
179.9957	0.2975
180.2143	-1.5441
180.4329	0.7768
180.6514	-0
180.8699	0.9706
181.0885	-0
181.307	0.0994
181.5255	0.0281
181.744	-0
181.9625	0.353
182.181	0.0423
182.3994	0.3795
182.6179	0.1555
182.8363	0.6004
183.0547	0.5377
183.2732	0.1549
183.4916	0.209
183.71	0.0971
183.9284	-0.0034
184.1467	-0.0826
184.3651	-0.081
184.5835	0.0948
184.8018	0.2091
185.0201	-0.011
185.2385	0.395
185.4568	0.1507
185.6751	0.1772
185.8934	0.2275
186.1117	-0.1646
186.3299	0.1527
186.5482	0.1827
186.7664	0.0837
186.9847	-0.0263
187.2029	0.3261
187.4211	-0.0849
187.6393	0.2696
187.8575	0.219
188.0757	0.1564
188.2939	0.1798
188.512	0.145
188.7302	0.1006
188.9483	0.5402
189.1665	0.2613
189.3846	0.1526
189.6027	0.0767
189.8208	0.1731
190.0389	0.2482
190.257	0.0103
190.475	-0.0605
190.6931	0.0928
190.9111	0.0639
191.1292	0.1117
191.3472	0.2192
191.5652	0.0775
191.7832	0.2476
192.0012	0.0893
192.2192	0.033
192.4371	0.1694
192.6551	0.1152
192.873	0.1412
193.091	0.1908
193.3089	0.2105
193.5268	0.2667
193.7447	0.2037
193.9626	0.1304
194.1805	0.2252
194.3984	0.1924
194.6162	0.2783
194.8341	0.1553
195.0519	0.1632
195.2697	0.3199
195.4875	0.2672
195.7054	0.2847
195.9231	0.2918
196.1409	0.3206
196.3587	0.3471
196.5765	0.2703
196.7942	0.3133
197.012	0.3015
197.2297	0.2878
197.4474	0.3088
197.6651	0.3323
197.8828	0.2781
198.1005	0.4443
198.3182	0.4004
198.5358	0.3474
198.7535	0.3846
198.9711	0.3591
199.1888	0.3515
199.4064	0.379
199.624	0.4178
199.8416	0.3888
200.0592	0.3959
200.2767	0.3963
200.4943	0.4598
200.7119	0.379
200.9294	0.4001
201.1469	0.4035
201.3645	0.4711
201.582	0.4063
201.7995	0.4164
202.017	0.4134
202.2344	0.3897
202.4519	0.3565
202.6694	0.3761
202.8868	0.3794
203.1042	0.4252
203.3217	0.3533
203.5391	0.3564
203.7565	0.3561
203.9739	0.361
204.1913	0.3332
204.4086	0.3664
204.626	0.3529
204.8433	0.3509
205.0607	0.3087
205.278	0.3608
205.4953	0.3148
205.7126	0.3348
205.9299	0.3007
206.1472	0.3169
206.3644	0.3326
206.5817	0.3045
206.7989	0.3324
207.0162	0.2837
207.2334	0.3276
207.4506	0.2811
207.6678	0.3158
207.885	0.276
208.1022	0.3066
208.3194	0.2723
208.5365	0.3041
208.7537	0.291
208.9708	0.2901
209.1879	0.2769
209.405	0.2584
209.6222	0.2671
209.8392	0.3114
210.0563	0.2794
210.2734	0.2808
210.4905	0.2532
210.7075	0.251
210.9245	0.2447
211.1416	0.2709
211.3586	0.2541
211.5756	0.2372
211.7926	0.2608
212.0096	0.2623
212.2265	0.2538
212.4435	0.2409
212.6604	0.2439
212.8774	0.2377
213.0943	0.2413
213.3112	0.2294
213.5281	0.2484
213.745	0.2212
213.9619	0.2321
214.1788	0.269
214.3956	0.2395
214.6125	0.2418
214.8293	0.2491
215.0461	0.2401
215.2629	0.2432
215.4798	0.2365
215.6965	0.2268
215.9133	0.2493
216.1301	0.258
216.3469	0.2395
216.5636	0.2467
216.7803	0.2576
216.9971	0.2627
217.2138	0.2496
217.4305	0.242
217.6472	0.2234
217.8639	0.2705
218.0805	0.247
218.2972	0.2474
218.5138	0.2549
218.7305	0.2627
218.9471	0.2487
219.1637	0.2699
219.3803	0.262
219.5969	0.2495
219.8135	0.2505
220.0301	0.2702
220.2466	0.2446
220.4632	0.2457
220.6797	0.2515
220.8962	0.2485
221.1127	0.2535
221.3292	0.2592
221.5457	0.2682
221.7622	0.2662
221.9787	0.2795
222.1951	0.2672
222.4116	0.2746
222.628	0.2749
222.8444	0.2625
223.0608	0.2693
223.2772	0.2864
223.4936	0.2802
223.71	0.2827
223.9264	0.2865
224.1427	0.2878
224.3591	0.2876
224.5754	0.2901
224.7917	0.2913
225.008	0.2879
225.2243	0.298
225.4406	0.292
225.6569	0.3194
225.8732	0.3098
226.0894	0.3019
226.3057	0.3104
226.5219	0.3109
226.7381	0.3193
226.9543	0.3178
227.1705	0.3106
227.3867	0.3173
227.6029	0.3222
227.8191	0.3342
228.0352	0.3429
228.2513	0.3378
228.4675	0.3379
228.6836	0.3439
228.8997	0.3401
229.1158	0.348
229.3319	0.3543
229.548	0.3514
229.764	0.3474
229.9801	0.3672
230.1961	0.3676
230.4121	0.356
230.6282	0.3788
230.8442	0.376
231.0602	0.3831
231.2761	0.3837
231.4921	0.3873
231.7081	0.3948
231.924	0.3986
232.14	0.4056
232.3559	0.397
232.5718	0.4107
232.7877	0.4087
233.0036	0.4089
233.2195	0.4102
233.4353	0.4173
233.6512	0.4224
233.867	0.4083
234.0829	0.4262
234.2987	0.4132
234.5145	0.4255
234.7303	0.4425
234.9461	0.4284
235.1619	0.433
235.3776	0.4325
235.5934	0.4293
235.8091	0.4438
236.0249	0.4389
236.2406	0.4418
236.4563	0.4453
236.672	0.4339
236.8877	0.4541
237.1034	0.4369
237.319	0.4479
237.5347	0.4504
237.7503	0.443
237.966	0.4635
238.1816	0.4475
238.3972	0.4597
238.6128	0.4613
238.8284	0.4544
239.0439	0.4495
239.2595	0.4523
239.475	0.4509
239.6906	0.4434
239.9061	0.4639
240.1216	0.4534
240.3371	0.4629
240.5526	0.4666
240.7681	0.4608
240.9836	0.4509
241.199	0.4489
241.4145	0.4457
241.6299	0.4524
241.8453	0.439
242.0607	0.435
242.2761	0.4374
242.4915	0.4265
242.7069	0.4126
242.9223	0.4194
243.1376	0.412
243.353	0.3981
243.5683	0.3942
243.7836	0.3895
243.9989	0.3793
244.2142	0.3687
244.4295	0.3709
244.6448	0.3705
244.86	0.3472
245.0753	0.348
245.2905	0.3409
245.5057	0.3332
245.721	0.3311
245.9362	0.3294
246.1514	0.3215
246.3665	0.3132
246.5817	0.3022
246.7969	0.2967
247.012	0.2948
247.2271	0.302
247.4423	0.2881
247.6574	0.2868
247.8725	0.2744
248.0876	0.2757
248.3026	0.2677
248.5177	0.2558
248.7328	0.2509
248.9478	0.2491
249.1628	0.2489
249.3779	0.2407
249.5929	0.2393
249.8079	0.236
250.0228	0.2254
250.2378	0.2269
250.4528	0.2326
250.6677	0.2243
250.8827	0.2189
251.0976	0.2164
251.3125	0.2168
251.5274	0.2087
251.7423	0.2058
251.9572	0.2057
252.172	0.2066
252.3869	0.2023
252.6017	0.196
252.8166	0.1961
253.0314	0.1952
253.2462	0.1946
253.461	0.1929
253.6758	0.1913
253.8906	0.1956
254.1053	0.1989
254.3201	0.1967
254.5348	0.1839
254.7496	0.1815
254.9643	0.194
255.179	0.1881
255.3937	0.1925
255.6083	0.191
255.823	0.1874
256.0377	0.1817
256.2523	0.1837
256.467	0.1813
256.6816	0.1824
256.8962	0.1793
257.1108	0.1791
257.3254	0.183
257.54	0.1755
257.7545	0.1858
257.9691	0.1809
258.1836	0.1735
258.3981	0.1832
258.6127	0.1785
258.8272	0.1828
259.0417	0.1771
259.2561	0.1767
259.4706	0.1753
259.6851	0.1775
259.8995	0.1781
260.114	0.1773
260.3284	0.1727
260.5428	0.1731
260.7572	0.1771
260.9716	0.183
261.186	0.1748
261.4003	0.1717
261.6147	0.1741
261.829	0.1677
262.0433	0.1753
262.2577	0.174
262.472	0.1761
262.6863	0.1821
262.9005	0.1732
263.1148	0.1724
263.3291	0.1789
263.5433	0.1805
263.7576	0.1756
263.9718	0.1791
264.186	0.1779
264.4002	0.1769
264.6144	0.187
264.8286	0.181
265.0427	0.1851
265.2569	0.1879
265.471	0.1805
265.6851	0.1834
265.8993	0.18
266.1134	0.1788
266.3275	0.1767
266.5415	0.1855
266.7556	0.1847
266.9697	0.184
267.1837	0.1792
267.3978	0.1835
267.6118	0.1773
267.8258	0.1826
268.0398	0.1801
268.2538	0.1872
268.4677	0.1783
268.6817	0.1771
268.8957	0.1758
269.1096	0.1706
269.3235	0.1797
269.5374	0.1825
269.7514	0.1746
269.9652	0.1791
270.1791	0.1686
270.393	0.1792
270.6068	0.1772
270.8207	0.176
271.0345	0.1711
271.2483	0.1689
271.4622	0.1729
271.676	0.1739
271.8897	0.1755
272.1035	0.1766
272.3173	0.1713
272.531	0.1724
272.7448	0.177
272.9585	0.1683
273.1722	0.1681
273.3859	0.1678
273.5996	0.1759
273.8133	0.1702
274.0269	0.1718
274.2406	0.1728
274.4542	0.1724
274.6679	0.1768
274.8815	0.1795
275.0951	0.1817
275.3087	0.1761
275.5223	0.1739
275.7358	0.1792
275.9494	0.1802
276.1629	0.1807
276.3765	0.1787
276.59	0.1773
276.8035	0.1811
277.017	0.1866
277.2305	0.1827
277.444	0.186
277.6574	0.1804
277.8709	0.1932
278.0843	0.1848
278.2978	0.1846
278.5112	0.1854
278.7246	0.1813
278.938	0.1816
279.1513	0.1882
279.3647	0.184
279.5781	0.1861
279.7914	0.1857
280.0047	0.1866
280.2181	0.1824
280.4314	0.1805
280.6447	0.1873
280.8579	0.1803
281.0712	0.1815
281.2845	0.1823
281.4977	0.1858
281.711	0.1772
281.9242	0.185
282.1374	0.1859
282.3506	0.1846
282.5638	0.1801
282.7769	0.1792
282.9901	0.1806
283.2033	0.1821
283.4164	0.1856
283.6295	0.1814
283.8426	0.1803
284.0557	0.1887
284.2688	0.1845
284.4819	0.1828
284.695	0.186
284.908	0.1801
285.1211	0.1838
285.3341	0.1795
285.5471	0.1905
285.7601	0.189
285.9731	0.1864
286.1861	0.1878
286.3991	0.1916
286.612	0.1855
286.825	0.189
287.0379	0.1888
287.2508	0.1889
287.4637	0.189
287.6766	0.1864
287.8895	0.1858
288.1024	0.1944
288.3152	0.1907
288.5281	0.1806
288.7409	0.1897
288.9538	0.1895
289.1666	0.1838
289.3794	0.1852
289.5922	0.1842
289.8049	0.1917
290.0177	0.1882
290.2304	0.1917
290.4432	0.1929
290.6559	0.1933
290.8686	0.1849
291.0813	0.1862
291.294	0.187
291.5067	0.1916
291.7194	0.1937
291.932	0.1891
292.1447	0.1868
292.3573	0.1883
292.5699	0.1908
292.7825	0.1862
292.9951	0.1898
293.2077	0.1851
293.4203	0.1919
293.6328	0.1856
293.8454	0.1922
294.0579	0.1828
294.2704	0.1926
294.4829	0.1867
294.6954	0.1902
294.9079	0.192
295.1204	0.1898
295.3328	0.1926
295.5453	0.1915
295.7577	0.1923
295.9701	0.1841
296.1825	0.1955
296.3949	0.1835
296.6073	0.1922
296.8197	0.1907
297.0321	0.1902
297.2444	0.1866
297.4567	0.19
297.6691	0.192
297.8814	0.1878
298.0937	0.185
298.306	0.1866
298.5182	0.1914
298.7305	0.1859
298.9428	0.1891
299.155	0.184
299.3672	0.1887
299.5794	0.1879
299.7916	0.1869
300.0038	0.187
300.216	0.19
300.4282	0.189
300.6403	0.1901
300.8525	0.1913
301.0646	0.1926
301.2767	0.1853
301.4888	0.19
301.7009	0.1909
301.913	0.1852
302.125	0.188
302.3371	0.1884
302.5491	0.1914
302.7612	0.1972
302.9732	0.1907
303.1852	0.1957
303.3972	0.1906
303.6092	0.1864
303.8211	0.185
304.0331	0.1881
304.245	0.1904
304.457	0.1872
304.6689	0.1846
304.8808	0.1879
305.0927	0.187
305.3046	0.1838
305.5164	0.1803
305.7283	0.1865
305.9401	0.1738
306.152	0.1803
306.3638	0.1813
306.5756	0.176
306.7874	0.1765
306.9992	0.1717
307.2109	0.175
307.4227	0.1737
307.6344	0.1748
307.8462	0.1721
308.0579	0.1771
308.2696	0.1662
308.4813	0.163
308.693	0.1632
308.9046	0.1684
309.1163	0.1608
309.328	0.1634
309.5396	0.1503
309.7512	0.1484
309.9628	0.1557
310.1744	0.1479
310.386	0.1505
310.5976	0.1494
310.8091	0.1504
311.0207	0.1499
311.2322	0.1421
311.4437	0.1421
311.6552	0.1454
311.8667	0.1412
312.0782	0.1404
312.2897	0.1401
312.5012	0.1368
312.7126	0.1336
312.924	0.1384
313.1355	0.1399
313.3469	0.1331
313.5583	0.1319
313.7696	0.131
313.981	0.1395
314.1924	0.1343
314.4037	0.133
314.6151	0.129
314.8264	0.1366
315.0377	0.1312
315.249	0.1377
315.4603	0.1306
315.6716	0.1308
315.8828	0.1245
316.0941	0.1287
316.3053	0.1215
316.5165	0.1312
316.7277	0.127
316.9389	0.1256
317.1501	0.131
317.3613	0.1224
317.5724	0.1228
317.7836	0.1201
317.9947	0.1268
318.2058	0.1239
318.417	0.1241
318.6281	0.1193
318.8391	0.1244
319.0502	0.1281
319.2613	0.1232
319.4723	0.1264
319.6834	0.1221
319.8944	0.1221
320.1054	0.1283
320.3164	0.1189
320.5274	0.1247
320.7383	0.1249
320.9493	0.1251
321.1602	0.126
321.3712	0.1198
321.5821	0.1199
321.793	0.1326
322.0039	0.127
322.2148	0.126
322.4257	0.12
322.6365	0.1241
322.8474	0.1293
323.0582	0.1294
323.269	0.1204
323.4798	0.1338
323.6906	0.1236
323.9014	0.1262
324.1122	0.122
324.3229	0.1314
324.5337	0.1298
324.7444	0.128
324.9551	0.1289
325.1658	0.1291
325.3765	0.1276
325.5872	0.1343
325.7979	0.127
326.0085	0.1258
326.2192	0.1243
326.4298	0.131
326.6404	0.1377
326.851	0.1243
327.0616	0.1305
327.2722	0.1303
327.4828	0.1338
327.6933	0.137
327.9039	0.1346
328.1144	0.1355
328.3249	0.1348
328.5354	0.1318
328.7459	0.134
328.9564	0.1293
329.1669	0.1363
329.3773	0.1389
329.5878	0.1344
329.7982	0.138
330.0086	0.1357
330.219	0.1333
330.4294	0.1312
330.6398	0.1341
330.8502	0.1364
331.0605	0.1341
331.2708	0.1339
331.4812	0.1359
331.6915	0.1391
331.9018	0.1386
332.1121	0.1363
332.3224	0.1382
332.5326	0.1329
332.7429	0.142
332.9531	0.1413
333.1633	0.1318
333.3735	0.1324
333.5837	0.1347
333.7939	0.1386
334.0041	0.14
334.2143	0.1366
334.4244	0.1433
334.6346	0.1344
334.8447	0.1331
335.0548	0.1452
335.2649	0.1398
335.475	0.1402
335.685	0.1378
335.8951	0.1413
336.1051	0.1383
336.3152	0.1464
336.5252	0.1407
336.7352	0.1388
336.9452	0.1361
337.1552	0.1414
337.3652	0.1387
337.5751	0.1422
337.7851	0.1435
337.995	0.1389
338.2049	0.1389
338.4148	0.1408
338.6247	0.144
338.8346	0.1393
339.0445	0.1438
339.2543	0.1448
339.4642	0.1414
339.674	0.136
339.8838	0.1426
340.0936	0.142
340.3034	0.1463
340.5132	0.1355
340.7229	0.1465
340.9327	0.1519
341.1424	0.1399
341.3522	0.14
341.5619	0.1505
341.7716	0.1464
341.9813	0.145
342.1909	0.1535
342.4006	0.1452
342.6102	0.1472
342.8199	0.1462
343.0295	0.1501
343.2391	0.151
343.4487	0.1564
343.6583	0.1591
343.8679	0.1507
344.0774	0.156
344.287	0.1527
344.4965	0.1568
344.706	0.1577
344.9155	0.152
345.125	0.1547
345.3345	0.1687
345.544	0.1551
345.7534	0.1612
345.9629	0.1608
346.1723	0.1615
346.3817	0.1607
346.5911	0.1606
346.8005	0.1721
347.0099	0.1641
347.2193	0.1739
347.4286	0.1732
347.638	0.1643
347.8473	0.1699
348.0566	0.1695
348.2659	0.1677
348.4752	0.1704
348.6845	0.1655
348.8937	0.1659
349.103	0.1674
349.3122	0.1642
349.5214	0.1782
349.7306	0.1793
349.9398	0.177
350.149	0.175
350.3582	0.1779
350.5674	0.1706
350.7765	0.1822
350.9856	0.1736
351.1948	0.172
351.4039	0.1834
351.613	0.1722
351.822	0.1814
352.0311	0.1805
352.2402	0.1764
352.4492	0.1765
352.6582	0.1789
352.8672	0.177
353.0762	0.1788
353.2852	0.1799
353.4942	0.1852
353.7032	0.1793
353.9121	0.1758
354.1211	0.1819
354.33	0.1786
354.5389	0.1795
354.7478	0.1799
354.9567	0.187
355.1655	0.1887
355.3744	0.1875
355.5833	0.1906
355.7921	0.1863
356.0009	0.1881
356.2097	0.1793
356.4185	0.1837
356.6273	0.1894
356.8361	0.1881
357.0448	0.1928
357.2536	0.1905
357.4623	0.189
357.671	0.1917
357.8797	0.1877
358.0884	0.1881
358.2971	0.185
358.5057	0.1881
358.7144	0.1856
358.923	0.1947
359.1316	0.1928
359.3402	0.2006
359.5488	0.1943
359.7574	0.2017
359.966	0.1937
360.1746	0.195
360.3831	0.1984
360.5916	0.2
360.8002	0.2073
361.0087	0.1969
361.2172	0.2079
361.4256	0.2143
361.6341	0.2058
361.8426	0.2026
362.051	0.2038
362.2594	0.2015
362.4678	0.2043
362.6762	0.2113
362.8846	0.2124
363.093	0.2169
363.3014	0.2158
363.5097	0.2151
363.718	0.2131
363.9264	0.2094
364.1347	0.2153
364.343	0.2136
364.5513	0.2125
364.7595	0.2236
364.9678	0.2123
365.176	0.2228
365.3842	0.2246
365.5925	0.2187
365.8007	0.2214
366.0089	0.2298
366.217	0.2259
366.4252	0.2181
366.6333	0.2235
366.8415	0.2386
367.0496	0.2306
367.2577	0.2258
367.4658	0.2325
367.6739	0.2258
367.882	0.2297
368.09	0.2256
368.2981	0.2402
368.5061	0.2285
368.7141	0.2283
368.9221	0.2445
369.1301	0.2446
369.3381	0.2434
369.5461	0.2441
369.754	0.2456
369.962	0.2334
370.1699	0.2441
370.3778	0.2476
370.5857	0.2377
370.7936	0.2411
371.0015	0.2387
371.2093	0.2437
371.4172	0.2378
371.625	0.2474
371.8328	0.2396
372.0406	0.2572
372.2484	0.2458
372.4562	0.2463
372.664	0.248
372.8717	0.2554
373.0795	0.2504
373.2872	0.2589
373.4949	0.2476
373.7026	0.2459
373.9103	0.2504
374.118	0.2528
374.3256	0.2649
374.5333	0.2494
374.7409	0.2671
374.9485	0.2582
375.1561	0.2701
375.3637	0.2532
375.5713	0.2629
375.7789	0.2544
375.9864	0.269
376.194	0.2637
376.4015	0.2592
376.609	0.2538
376.8165	0.2731
377.024	0.2661
377.2315	0.2701
377.4389	0.2627
377.6464	0.2801
377.8538	0.2672
378.0612	0.2682
378.2686	0.264
378.476	0.2804
378.6834	0.2741
378.8908	0.2743
379.0981	0.268
379.3055	0.28
379.5128	0.2672
379.7201	0.274
379.9274	0.2726
380.1347	0.28
380.342	0.2819
380.5492	0.2748
380.7565	0.2745
380.9637	0.2852
381.1709	0.2777
381.3781	0.2894
381.5853	0.2811
381.7925	0.28
381.9997	0.2853
382.2068	0.2854
382.4139	0.2926
382.6211	0.2862
382.8282	0.2877
383.0353	0.2951
383.2424	0.2789
383.4494	0.2889
383.6565	0.2826
383.8635	0.2806
384.0706	0.2981
384.2776	0.2864
384.4846	0.2889
384.6916	0.2887
384.8986	0.2922
385.1055	0.2953
385.3125	0.2967
385.5194	0.2931
385.7263	0.2936
385.9333	0.287
386.1402	0.2936
386.347	0.2931
386.5539	0.2926
386.7608	0.2872
386.9676	0.2858
387.1744	0.2952
387.3813	0.2986
387.5881	0.2847
387.7948	0.2935
388.0016	0.2998
388.2084	0.2892
388.4151	0.2849
388.6219	0.2875
388.8286	0.2834
389.0353	0.2941
389.242	0.2874
389.4487	0.284
389.6553	0.2808
389.862	0.2806
390.0686	0.2798
390.2753	0.2862
390.4819	0.2833
390.6885	0.2838
390.8951	0.2873
391.1016	0.2887
391.3082	0.2937
391.5147	0.2813
391.7213	0.2708
391.9278	0.2742
392.1343	0.2812
392.3408	0.2795
392.5473	0.2742
392.7537	0.2595
392.9602	0.2679
393.1666	0.2657
393.373	0.259
393.5794	0.2708
393.7858	0.2703
393.9922	0.2698
394.1986	0.2649
394.4049	0.2568
394.6113	0.2593
394.8176	0.2687
395.0239	0.2629
395.2302	0.2614
395.4365	0.2737
395.6428	0.2617
395.8491	0.2572
396.0553	0.2537
396.2615	0.2633
396.4678	0.2576
396.674	0.2594
396.8802	0.2484
397.0863	0.251
397.2925	0.2614
397.4987	0.2499
397.7048	0.2547
397.9109	0.2556
398.117	0.2522
398.3231	0.2479
398.5292	0.2479
398.7353	0.2477
398.9413	0.24
399.1474	0.242
399.3534	0.2436
399.5594	0.2461
399.7654	0.246
399.9714	0.246
400.1774	0.2355
400.3833	0.2572
400.5893	0.2489
400.7952	0.2552
401.0011	0.244
401.207	0.2416
401.4129	0.2431
401.6188	0.2408
401.8247	0.2575
402.0305	0.2455
402.2364	0.249
402.4422	0.2448
402.648	0.2509
402.8538	0.2489
403.0596	0.2425
403.2654	0.2448
403.4711	0.2451
403.6768	0.2487
403.8826	0.2425
404.0883	0.239
404.294	0.2492
404.4997	0.2461
404.7054	0.2489
404.911	0.2474
405.1167	0.2453
405.3223	0.2386
405.5279	0.2517
405.7335	0.2421
405.9391	0.2451
406.1447	0.255
406.3502	0.2451
406.5558	0.239
406.7613	0.2372
406.9668	0.2403
407.1724	0.2502
407.3778	0.2443
407.5833	0.2384
407.7888	0.2449
407.9942	0.2415
408.1997	0.2561
408.4051	0.2499
408.6105	0.2464
408.8159	0.2402
409.0213	0.2564
409.2267	0.2396
409.432	0.2491
409.6374	0.2432
409.8427	0.249
410.048	0.2419
410.2533	0.2378
410.4586	0.2366
410.6639	0.2569
410.8691	0.232
411.0744	0.2432
411.2796	0.2521
411.4848	0.2472
411.69	0.2414
411.8952	0.2454
412.1004	0.2417
412.3056	0.239
412.5107	0.2436
412.7158	0.2535
412.921	0.2453
413.1261	0.2437
413.3312	0.2411
413.5362	0.2465
413.7413	0.2392
413.9464	0.2291
414.1514	0.2427
414.3564	0.2335
414.5614	0.2268
414.7664	0.2379
414.9714	0.2367
415.1764	0.2413
415.3813	0.239
415.5863	0.2457
415.7912	0.2326
415.9961	0.2438
416.201	0.2358
416.4059	0.2357
416.6108	0.2303
416.8156	0.228
417.0205	0.2285
417.2253	0.2327
417.4301	0.2439
417.6349	0.2343
417.8397	0.2361
418.0445	0.2338
418.2492	0.2361
418.454	0.2249
418.6587	0.2428
418.8634	0.231
419.0681	0.2354
419.2728	0.2309
419.4775	0.2385
419.6822	0.2182
419.8868	0.2277
420.0915	0.2263
420.2961	0.2163
420.5007	0.2332
420.7053	0.2269
420.9099	0.2353
421.1144	0.2285
421.319	0.2221
421.5235	0.2223
421.728	0.226
421.9325	0.2263
422.137	0.2228
422.3415	0.221
422.546	0.2163
422.7504	0.2225
422.9549	0.2241
423.1593	0.2118
423.3637	0.2166
423.5681	0.2244
423.7725	0.2061
423.9769	0.2252
424.1812	0.2114
424.3856	0.2144
424.5899	0.213
424.7942	0.2134
424.9985	0.2145
425.2028	0.2129
425.4071	0.2105
425.6113	0.2071
425.8156	0.2001
426.0198	0.2135
426.224	0.1964
426.4282	0.1935
426.6324	0.1935
426.8366	0.2092
